Filter Al-thick
observation_date 22-Sept-2020 22:45:45
wavelength effective area
      1.00000   2.52796e-10
      1.10000   6.99232e-10
      1.20000   1.75056e-09
      1.30000   4.00501e-09
      1.40000   8.63388e-09
      1.50000   1.73696e-08
      1.60000   3.28991e-08
      1.70000   5.92535e-08
      1.80000   1.01464e-07
      1.90000   1.66199e-07
      2.00000   2.60865e-07
      2.10000   3.93892e-07
      2.20000   5.74575e-07
      2.30000   8.08502e-07
      2.40000   1.09912e-06
      2.50000   1.43837e-06
      2.60000   1.85772e-06
      2.70000   2.31643e-06
      2.80000   2.80065e-06
      2.90000   3.30658e-06
      3.00000   3.79669e-06
      3.10000   4.24862e-06
      3.20000   4.64066e-06
      3.30000   4.95036e-06
      3.40000   5.15643e-06
      3.50000   5.24871e-06
      3.60000   5.23859e-06
      3.70000   5.10697e-06
      3.80000   4.88341e-06
      3.90000   4.57810e-06
      4.00000   4.20532e-06
      4.10000   3.78913e-06
      4.20000   3.35231e-06
      4.30000   2.91330e-06
      4.40000   2.48787e-06
      4.50000   2.08753e-06
      4.60000   1.72000e-06
      4.70000   1.39629e-06
      4.80000   1.11500e-06
      4.90000   8.65960e-07
      5.00000   6.79750e-07
      5.10000   5.18381e-07
      5.20000   3.90695e-07
      5.30000   2.87478e-07
      5.40000   2.08141e-07
      5.50000   1.48898e-07
      5.60000   1.01609e-07
      5.70000   7.18708e-08
      5.80000   4.51350e-08
      5.90000   3.65488e-08
      6.00000   2.57108e-08
      6.10000   1.69585e-08
      6.20000   1.07855e-08
      6.30000   6.46488e-09
      6.40000   3.64856e-09
      6.50000   1.94546e-09
      6.60000   9.73777e-10
      6.70000   4.69602e-10
      6.80000   2.19396e-10
      6.90000   1.32128e-10
      7.00000   6.59501e-11
      7.10000   3.14097e-11
      7.20000   1.44870e-11
      7.30000   6.58746e-12
      7.40000   3.04987e-12
      7.50000   1.35268e-12
      7.60000   5.72788e-13
      7.70000   2.50053e-13
      7.80000   1.03101e-13
      7.90000   4.15468e-14
      8.00000     0.0717284
      8.10000     0.0717770
      8.20000     0.0665025
      8.30000     0.0611968
      8.40000     0.0562632
      8.50000     0.0515762
      8.60000     0.0471679
      8.70000     0.0429919
      8.80000     0.0390887
      8.90000     0.0354131
      9.00000     0.0319933
      9.10000     0.0288219
      9.20000     0.0258708
      9.30000     0.0231811
      9.40000     0.0207024
      9.50000     0.0184231
      9.60000     0.0163726
      9.70000     0.0145025
      9.80000     0.0127953
      9.90000     0.0112594
      10.0000    0.00987870
      10.1000    0.00863396
      10.2000    0.00751660
      10.3000    0.00652948
      10.4000    0.00566052
      10.5000    0.00489084
      10.6000    0.00421174
      10.7000    0.00361478
      10.8000    0.00309464
      10.9000    0.00264571
      11.0000    0.00225469
      11.1000    0.00191536
      11.2000    0.00162190
      11.3000    0.00136908
      11.4000    0.00115202
      11.5000   0.000966306
      11.6000   0.000807981
      11.7000   0.000674821
      11.8000   0.000562028
      11.9000   0.000467642
      12.0000   0.000388106
      12.1000   0.000322671
      12.2000   0.000272614
      12.3000   0.000226671
      12.4000   0.000186226
      12.5000   0.000152402
      12.6000   0.000124287
      12.7000   0.000101014
      12.8000   8.18347e-05
      12.9000   6.60960e-05
      13.0000   5.32199e-05
      13.1000   4.27157e-05
      13.2000   3.41738e-05
      13.3000   2.72493e-05
      13.4000   2.16548e-05
      13.5000   1.71590e-05
      13.6000   1.36150e-05
      13.7000   1.07697e-05
      13.8000   8.49119e-06
      13.9000   6.67202e-06
      14.0000   5.22372e-06
      14.1000   4.07408e-06
      14.2000   3.16449e-06
      14.3000   2.44749e-06
      14.4000   1.88459e-06
      14.5000   1.45064e-06
      14.6000   1.11973e-06
      14.7000   8.60239e-07
      14.8000   6.57509e-07
      14.9000   4.99801e-07
      15.0000   3.77712e-07
      15.1000   2.83697e-07
      15.2000   2.15068e-07
      15.3000   1.62462e-07
      15.4000   1.21855e-07
      15.5000   9.07199e-08
      15.6000   6.70206e-08
      15.7000   4.97047e-08
      15.8000   3.70908e-08
      15.9000   2.74309e-08
      16.0000   2.01048e-08
      16.1000   1.46036e-08
      16.2000   1.07753e-08
      16.3000   7.92968e-09
      16.4000   5.76619e-09
      16.5000   4.14372e-09
      16.6000   2.99798e-09
      16.7000   2.18765e-09
      16.8000   1.57185e-09
      16.9000   1.11273e-09
      17.0000   7.95797e-10
      17.1000   5.73517e-10
      17.2000   4.05503e-10
      17.3000   2.81701e-10
      17.4000   2.02134e-10
      17.5000   1.44156e-10
      17.6000   1.01073e-10
      17.7000   7.10817e-11
      17.8000   5.16186e-11
      17.9000   3.66317e-11
      18.0000   2.54095e-11
      18.1000   1.83118e-11
      18.2000   1.28646e-11
      18.3000   8.75058e-12
      18.4000   6.08417e-12
      18.5000   4.17051e-12
      18.6000   2.74010e-12
      18.7000   1.83094e-12
      18.8000   1.22091e-12
      18.9000   7.78116e-13
      19.0000   5.14269e-13
      19.1000   3.38931e-13
      19.2000   2.12775e-13
      19.3000   1.41284e-13
      19.4000   9.21516e-14
      19.5000   5.71687e-14
      19.6000   3.85834e-14
      19.7000   2.48556e-14
      19.8000   1.54226e-14
      19.9000   1.04685e-14
      20.0000   6.60435e-15
      20.1000   4.22866e-15
      20.2000   2.77329e-15
      20.3000   1.69232e-15
      20.4000   1.11883e-15
      20.5000   7.03501e-16
      20.6000   4.28760e-16
      20.7000   2.82651e-16
      20.8000   1.69436e-16
      20.9000   1.09093e-16
      21.0000   6.75631e-17
      21.1000   4.00893e-17
      21.2000   2.61143e-17
      21.3000   1.51820e-17
      21.4000   9.74281e-18
      21.5000   5.83816e-18
      21.6000   3.48713e-18
      21.7000   2.18454e-18
      21.8000   1.21251e-18
      21.9000   7.95825e-19
      22.0000   4.52754e-19
      22.1000   2.81433e-19
      22.2000   1.64859e-19
      22.3000   9.57419e-20
      22.4000   5.78784e-20
      22.5000   3.00087e-20
      22.6000   1.82003e-20
      22.7000   8.48847e-21
      22.8000   6.39147e-21
      22.9000   4.70507e-21
      23.0000   3.64736e-21
      23.1000   2.63952e-21
      23.2000   1.67897e-21
      23.3000   1.05539e-21
      23.4000   5.99539e-22
      23.5000   3.71697e-22
      23.6000   1.99598e-22
      23.7000   1.27908e-22
      23.8000   6.57603e-23
      23.9000   4.29461e-23
      24.0000   2.21191e-23
      24.1000   1.41481e-23
      24.2000   7.28370e-24
      24.3000   4.57627e-24
      24.4000   2.35978e-24
      24.5000   1.46134e-24
      24.6000   7.54909e-25
      24.7000   4.61911e-25
      24.8000   2.38329e-25
      24.9000   1.45089e-25
      25.0000   7.49202e-26
      25.1000   4.53797e-26
      25.2000   2.32090e-26
      25.3000   1.40740e-26
      25.4000   7.12252e-27
      25.5000   4.33073e-27
      25.6000   2.14891e-27
      25.7000   1.31599e-27
      25.8000   6.37790e-28
      25.9000   3.94654e-28
      26.0000   1.85784e-28
      26.1000   1.16547e-28
      26.2000   5.30792e-29
      26.3000   3.38455e-29
      26.4000   1.48547e-29
      26.5000   9.64751e-30
      26.6000   4.46807e-30
      26.7000   2.69433e-30
      26.8000   1.32932e-30
      26.9000   7.36401e-31
      27.0000   3.86114e-31
      27.1000   1.96636e-31
      27.2000   1.09126e-31
      27.3000   5.12143e-32
      27.4000   3.00522e-32
      27.5000   1.31261e-32
      27.6000   8.06532e-33
      27.7000   3.24968e-33
      27.8000   2.08444e-33
      27.9000   9.25377e-34
      28.0000   5.20142e-34
      28.1000   2.62550e-34
      28.2000   1.26333e-34
      28.3000   7.09497e-35
      28.4000   3.06012e-35
      28.5000   1.85636e-35
      28.6000   7.24814e-36
      28.7000   4.73105e-36
      28.8000   2.22761e-36
      28.9000   1.23164e-36
      29.0000   6.66596e-37
      29.1000   3.08725e-37
      29.2000   1.84632e-37
      29.3000   7.46079e-38
      29.4000   4.80930e-38
      29.5000   2.17246e-38
      29.6000   1.18838e-38
      29.7000   6.40761e-39
      29.8000   2.80078e-39
      29.9000   1.69576e-39
      30.0000   6.31736e-40
      30.1000   4.15192e-40
      30.2000   1.99842e-40
      30.3000   9.58684e-41
      30.4000   5.55321e-41
      30.5000   2.21755e-41
      30.6000   1.41223e-41
      30.7000   6.11807e-42
      30.8000   3.15993e-42
      30.9000   1.73200e-42
      31.0000   6.71222e-43
      31.1000   4.18988e-43
      31.2000   1.69557e-43
      31.3000   9.24857e-44
      31.4000   4.48416e-44
      31.5000   1.96182e-44
      31.6000   1.26117e-44
      31.7000   2.80260e-45
      31.8000   2.80260e-45
      31.9000   2.80260e-45
      32.0000       0.00000
      32.1000       0.00000
      32.2000       0.00000
      32.3000       0.00000
      32.4000       0.00000
      32.5000       0.00000
      32.6000       0.00000
      32.7000       0.00000
      32.8000       0.00000
      32.9000       0.00000
      33.0000       0.00000
      33.1000       0.00000
      33.2000       0.00000
      33.3000       0.00000
      33.4000       0.00000
      33.5000       0.00000
      33.6000       0.00000
      33.7000       0.00000
      33.8000       0.00000
      33.9000       0.00000
      34.0000       0.00000
      34.1000       0.00000
      34.2000       0.00000
      34.3000       0.00000
      34.4000       0.00000
      34.5000       0.00000
      34.6000       0.00000
      34.7000       0.00000
      34.8000       0.00000
      34.9000       0.00000
      35.0000       0.00000
      35.1000       0.00000
      35.2000       0.00000
      35.3000       0.00000
      35.4000       0.00000
      35.5000       0.00000
      35.6000       0.00000
      35.7000       0.00000
      35.8000       0.00000
      35.9000       0.00000
      36.0000       0.00000
      36.1000       0.00000
      36.2000       0.00000
      36.3000       0.00000
      36.4000       0.00000
      36.5000       0.00000
      36.6000       0.00000
      36.7000       0.00000
      36.8000       0.00000
      36.9000       0.00000
      37.0000       0.00000
      37.1000       0.00000
      37.2000       0.00000
      37.3000       0.00000
      37.4000       0.00000
      37.5000       0.00000
      37.6000       0.00000
      37.7000       0.00000
      37.8000       0.00000
      37.9000       0.00000
      38.0000       0.00000
      38.1000       0.00000
      38.2000       0.00000
      38.3000       0.00000
      38.4000       0.00000
      38.5000       0.00000
      38.6000       0.00000
      38.7000       0.00000
      38.8000       0.00000
      38.9000       0.00000
      39.0000       0.00000
      39.1000       0.00000
      39.2000       0.00000
      39.3000       0.00000
      39.4000       0.00000
      39.5000       0.00000
      39.6000       0.00000
      39.7000       0.00000
      39.8000       0.00000
      39.9000       0.00000
      40.0000       0.00000
      40.1000       0.00000
      40.2000       0.00000
      40.3000       0.00000
      40.4000       0.00000
      40.5000       0.00000
      40.6000       0.00000
      40.7000       0.00000
      40.8000       0.00000
      40.9000       0.00000
      41.0000       0.00000
      41.1000       0.00000
      41.2000       0.00000
      41.3000       0.00000
      41.4000       0.00000
      41.5000       0.00000
      41.6000       0.00000
      41.7000       0.00000
      41.8000       0.00000
      41.9000       0.00000
      42.0000       0.00000
      42.1000       0.00000
      42.2000       0.00000
      42.3000       0.00000
      42.4000       0.00000
      42.5000       0.00000
      42.6000       0.00000
      42.7000       0.00000
      42.8000       0.00000
      42.9000       0.00000
      43.0000       0.00000
      43.1000       0.00000
      43.2000       0.00000
      43.3000       0.00000
      43.4000       0.00000
      43.5000       0.00000
      43.6000       0.00000
      43.7000       0.00000
      43.8000       0.00000
      43.9000       0.00000
      44.0000       0.00000
      44.1000       0.00000
      44.2000       0.00000
      44.3000       0.00000
      44.4000       0.00000
      44.5000       0.00000
      44.6000       0.00000
      44.7000       0.00000
      44.8000       0.00000
      44.9000       0.00000
      45.0000       0.00000
      45.1000       0.00000
      45.2000       0.00000
      45.3000       0.00000
      45.4000       0.00000
      45.5000       0.00000
      45.6000       0.00000
      45.7000       0.00000
      45.8000       0.00000
      45.9000       0.00000
      46.0000       0.00000
      46.1000       0.00000
      46.2000       0.00000
      46.3000       0.00000
      46.4000       0.00000
      46.5000       0.00000
      46.6000       0.00000
      46.7000       0.00000
      46.8000       0.00000
      46.9000       0.00000
      47.0000       0.00000
      47.1000       0.00000
      47.2000       0.00000
      47.3000       0.00000
      47.4000       0.00000
      47.5000       0.00000
      47.6000       0.00000
      47.7000       0.00000
      47.8000       0.00000
      47.9000       0.00000
      48.0000       0.00000
      48.1000       0.00000
      48.2000       0.00000
      48.3000       0.00000
      48.4000       0.00000
      48.5000       0.00000
      48.6000       0.00000
      48.7000       0.00000
      48.8000       0.00000
      48.9000       0.00000
      49.0000       0.00000
      49.1000       0.00000
      49.2000       0.00000
      49.3000       0.00000
      49.4000       0.00000
      49.5000       0.00000
      49.6000       0.00000
      49.7000       0.00000
      49.8000       0.00000
      49.9000       0.00000
      50.0000       0.00000
      50.1000       0.00000
      50.2000       0.00000
      50.3000       0.00000
      50.4000       0.00000
      50.5000       0.00000
      50.6000       0.00000
      50.7000       0.00000
      50.8000       0.00000
      50.9000       0.00000
      51.0000       0.00000
      51.1000       0.00000
      51.2000       0.00000
      51.3000       0.00000
      51.4000       0.00000
      51.5000       0.00000
      51.6000       0.00000
      51.7000       0.00000
      51.8000       0.00000
      51.9000       0.00000
      52.0000       0.00000
      52.1000       0.00000
      52.2000       0.00000
      52.3000       0.00000
      52.4000       0.00000
      52.5000       0.00000
      52.6000       0.00000
      52.7000       0.00000
      52.8000       0.00000
      52.9000       0.00000
      53.0000       0.00000
      53.1000       0.00000
      53.2000       0.00000
      53.3000       0.00000
      53.4000       0.00000
      53.5000       0.00000
      53.6000       0.00000
      53.7000       0.00000
      53.8000       0.00000
      53.9000       0.00000
      54.0000       0.00000
      54.1000       0.00000
      54.2000       0.00000
      54.3000       0.00000
      54.4000       0.00000
      54.5000       0.00000
      54.6000       0.00000
      54.7000       0.00000
      54.8000       0.00000
      54.9000       0.00000
      55.0000       0.00000
      55.1000       0.00000
      55.2000       0.00000
      55.3000       0.00000
      55.4000       0.00000
      55.5000       0.00000
      55.6000       0.00000
      55.7000       0.00000
      55.8000       0.00000
      55.9000       0.00000
      56.0000       0.00000
      56.1000       0.00000
      56.2000       0.00000
      56.3000       0.00000
      56.4000       0.00000
      56.5000       0.00000
      56.6000       0.00000
      56.7000       0.00000
      56.8000       0.00000
      56.9000       0.00000
      57.0000       0.00000
      57.1000       0.00000
      57.2000       0.00000
      57.3000       0.00000
      57.4000       0.00000
      57.5000       0.00000
      57.6000       0.00000
      57.7000       0.00000
      57.8000       0.00000
      57.9000       0.00000
      58.0000       0.00000
      58.1000       0.00000
      58.2000       0.00000
      58.3000       0.00000
      58.4000       0.00000
      58.5000       0.00000
      58.6000       0.00000
      58.7000       0.00000
      58.8000       0.00000
      58.9000       0.00000
      59.0000       0.00000
      59.1000       0.00000
      59.2000       0.00000
      59.3000       0.00000
      59.4000       0.00000
      59.5000       0.00000
      59.6000       0.00000
      59.7000       0.00000
      59.8000       0.00000
      59.9000       0.00000
      60.0000       0.00000
      60.1000       0.00000
      60.2000       0.00000
      60.3000       0.00000
      60.4000       0.00000
      60.5000       0.00000
      60.6000       0.00000
      60.7000       0.00000
      60.8000       0.00000
      60.9000       0.00000
      61.0000       0.00000
      61.1000       0.00000
      61.2000       0.00000
      61.3000       0.00000
      61.4000       0.00000
      61.5000       0.00000
      61.6000       0.00000
      61.7000       0.00000
      61.8000       0.00000
      61.9000       0.00000
      62.0000       0.00000
      62.1000       0.00000
      62.2000       0.00000
      62.3000       0.00000
      62.4000       0.00000
      62.5000       0.00000
      62.6000       0.00000
      62.7000       0.00000
      62.8000       0.00000
      62.9000       0.00000
      63.0000       0.00000
      63.1000       0.00000
      63.2000       0.00000
      63.3000       0.00000
      63.4000       0.00000
      63.5000       0.00000
      63.6000       0.00000
      63.7000       0.00000
      63.8000       0.00000
      63.9000       0.00000
      64.0000       0.00000
      64.1000       0.00000
      64.2000       0.00000
      64.3000       0.00000
      64.4000       0.00000
      64.5000       0.00000
      64.6000       0.00000
      64.7000       0.00000
      64.8000       0.00000
      64.9000       0.00000
      65.0000       0.00000
      65.1000       0.00000
      65.2000       0.00000
      65.3000       0.00000
      65.4000       0.00000
      65.5000       0.00000
      65.6000       0.00000
      65.7000       0.00000
      65.8000       0.00000
      65.9000       0.00000
      66.0000       0.00000
      66.1000       0.00000
      66.2000       0.00000
      66.3000       0.00000
      66.4000       0.00000
      66.5000       0.00000
      66.6000       0.00000
      66.7000       0.00000
      66.8000       0.00000
      66.9000       0.00000
      67.0000       0.00000
      67.1000       0.00000
      67.2000       0.00000
      67.3000       0.00000
      67.4000       0.00000
      67.5000       0.00000
      67.6000       0.00000
      67.7000       0.00000
      67.8000       0.00000
      67.9000       0.00000
      68.0000       0.00000
      68.1000       0.00000
      68.2000       0.00000
      68.3000       0.00000
      68.4000       0.00000
      68.5000       0.00000
      68.6000       0.00000
      68.7000       0.00000
      68.8000       0.00000
      68.9000       0.00000
      69.0000       0.00000
      69.1000       0.00000
      69.2000       0.00000
      69.3000       0.00000
      69.4000       0.00000
      69.5000       0.00000
      69.6000       0.00000
      69.7000       0.00000
      69.8000       0.00000
      69.9000       0.00000
      70.0000       0.00000
      70.1000       0.00000
      70.2000       0.00000
      70.3000       0.00000
      70.4000       0.00000
      70.5000       0.00000
      70.6000       0.00000
      70.7000       0.00000
      70.8000       0.00000
      70.9000       0.00000
      71.0000       0.00000
      71.1000       0.00000
      71.2000       0.00000
      71.3000       0.00000
      71.4000       0.00000
      71.5000       0.00000
      71.6000       0.00000
      71.7000       0.00000
      71.8000       0.00000
      71.9000       0.00000
      72.0000       0.00000
      72.1000       0.00000
      72.2000       0.00000
      72.3000       0.00000
      72.4000       0.00000
      72.5000       0.00000
      72.6000       0.00000
      72.7000       0.00000
      72.8000       0.00000
      72.9000       0.00000
      73.0000       0.00000
      73.1000       0.00000
      73.2000       0.00000
      73.3000       0.00000
      73.4000       0.00000
      73.5000       0.00000
      73.6000       0.00000
      73.7000       0.00000
      73.8000       0.00000
      73.9000       0.00000
      74.0000       0.00000
      74.1000       0.00000
      74.2000       0.00000
      74.3000       0.00000
      74.4000       0.00000
      74.5000       0.00000
      74.6000       0.00000
      74.7000       0.00000
      74.8000       0.00000
      74.9000       0.00000
      75.0000       0.00000
      75.1000       0.00000
      75.2000       0.00000
      75.3000       0.00000
      75.4000       0.00000
      75.5000       0.00000
      75.6000       0.00000
      75.7000       0.00000
      75.8000       0.00000
      75.9000       0.00000
      76.0000       0.00000
      76.1000       0.00000
      76.2000       0.00000
      76.3000       0.00000
      76.4000       0.00000
      76.5000       0.00000
      76.6000       0.00000
      76.7000       0.00000
      76.8000       0.00000
      76.9000       0.00000
      77.0000       0.00000
      77.1000       0.00000
      77.2000       0.00000
      77.3000       0.00000
      77.4000       0.00000
      77.5000       0.00000
      77.6000       0.00000
      77.7000       0.00000
      77.8000       0.00000
      77.9000       0.00000
      78.0000       0.00000
      78.1000       0.00000
      78.2000       0.00000
      78.3000       0.00000
      78.4000       0.00000
      78.5000       0.00000
      78.6000       0.00000
      78.7000       0.00000
      78.8000       0.00000
      78.9000       0.00000
      79.0000       0.00000
      79.1000       0.00000
      79.2000       0.00000
      79.3000       0.00000
      79.4000       0.00000
      79.5000       0.00000
      79.6000       0.00000
      79.7000       0.00000
      79.8000       0.00000
      79.9000       0.00000
      80.0000       0.00000
      80.1000       0.00000
      80.2000       0.00000
      80.3000       0.00000
      80.4000       0.00000
      80.5000       0.00000
      80.6000       0.00000
      80.7000       0.00000
      80.8000       0.00000
      80.9000       0.00000
      81.0000       0.00000
      81.1000       0.00000
      81.2000       0.00000
      81.3000       0.00000
      81.4000       0.00000
      81.5000       0.00000
      81.6000       0.00000
      81.7000       0.00000
      81.8000       0.00000
      81.9000       0.00000
      82.0000       0.00000
      82.1000       0.00000
      82.2000       0.00000
      82.3000       0.00000
      82.4000       0.00000
      82.5000       0.00000
      82.6000       0.00000
      82.7000       0.00000
      82.8000       0.00000
      82.9000       0.00000
      83.0000       0.00000
      83.1000       0.00000
      83.2000       0.00000
      83.3000       0.00000
      83.4000       0.00000
      83.5000       0.00000
      83.6000       0.00000
      83.7000       0.00000
      83.8000       0.00000
      83.9000       0.00000
      84.0000       0.00000
      84.1000       0.00000
      84.2000       0.00000
      84.3000       0.00000
      84.4000       0.00000
      84.5000       0.00000
      84.6000       0.00000
      84.7000       0.00000
      84.8000       0.00000
      84.9000       0.00000
      85.0000       0.00000
      85.1000       0.00000
      85.2000       0.00000
      85.3000       0.00000
      85.4000       0.00000
      85.5000       0.00000
      85.6000       0.00000
      85.7000       0.00000
      85.8000       0.00000
      85.9000       0.00000
      86.0000       0.00000
      86.1000       0.00000
      86.2000       0.00000
      86.3000       0.00000
      86.4000       0.00000
      86.5000       0.00000
      86.6000       0.00000
      86.7000       0.00000
      86.8000       0.00000
      86.9000       0.00000
      87.0000       0.00000
      87.1000       0.00000
      87.2000       0.00000
      87.3000       0.00000
      87.4000       0.00000
      87.5000       0.00000
      87.6000       0.00000
      87.7000       0.00000
      87.8000       0.00000
      87.9000       0.00000
      88.0000       0.00000
      88.1000       0.00000
      88.2000       0.00000
      88.3000       0.00000
      88.4000       0.00000
      88.5000       0.00000
      88.6000       0.00000
      88.7000       0.00000
      88.8000       0.00000
      88.9000       0.00000
      89.0000       0.00000
      89.1000       0.00000
      89.2000       0.00000
      89.3000       0.00000
      89.4000       0.00000
      89.5000       0.00000
      89.6000       0.00000
      89.7000       0.00000
      89.8000       0.00000
      89.9000       0.00000
      90.0000       0.00000
      90.1000       0.00000
      90.2000       0.00000
      90.3000       0.00000
      90.4000       0.00000
      90.5000       0.00000
      90.6000       0.00000
      90.7000       0.00000
      90.8000       0.00000
      90.9000       0.00000
      91.0000       0.00000
      91.1000       0.00000
      91.2000       0.00000
      91.3000       0.00000
      91.4000       0.00000
      91.5000       0.00000
      91.6000       0.00000
      91.7000       0.00000
      91.8000       0.00000
      91.9000       0.00000
      92.0000       0.00000
      92.1000       0.00000
      92.2000       0.00000
      92.3000       0.00000
      92.4000       0.00000
      92.5000       0.00000
      92.6000       0.00000
      92.7000       0.00000
      92.8000       0.00000
      92.9000       0.00000
      93.0000       0.00000
      93.1000       0.00000
      93.2000       0.00000
      93.3000       0.00000
      93.4000       0.00000
      93.5000       0.00000
      93.6000       0.00000
      93.7000       0.00000
      93.8000       0.00000
      93.9000       0.00000
      94.0000       0.00000
      94.1000       0.00000
      94.2000       0.00000
      94.3000       0.00000
      94.4000       0.00000
      94.5000       0.00000
      94.6000       0.00000
      94.7000       0.00000
      94.8000       0.00000
      94.9000       0.00000
      95.0000       0.00000
      95.1000       0.00000
      95.2000       0.00000
      95.3000       0.00000
      95.4000       0.00000
      95.5000       0.00000
      95.6000       0.00000
      95.7000       0.00000
      95.8000       0.00000
      95.9000       0.00000
      96.0000       0.00000
      96.1000       0.00000
      96.2000       0.00000
      96.3000       0.00000
      96.4000       0.00000
      96.5000       0.00000
      96.6000       0.00000
      96.7000       0.00000
      96.8000       0.00000
      96.9000       0.00000
      97.0000       0.00000
      97.1000       0.00000
      97.2000       0.00000
      97.3000       0.00000
      97.4000       0.00000
      97.5000       0.00000
      97.6000       0.00000
      97.7000       0.00000
      97.8000       0.00000
      97.9000       0.00000
      98.0000       0.00000
      98.1000       0.00000
      98.2000       0.00000
      98.3000       0.00000
      98.4000       0.00000
      98.5000       0.00000
      98.6000       0.00000
      98.7000       0.00000
      98.8000       0.00000
      98.9000       0.00000
      99.0000       0.00000
      99.1000       0.00000
      99.2000       0.00000
      99.3000       0.00000
      99.4000       0.00000
      99.5000       0.00000
      99.6000       0.00000
      99.7000       0.00000
      99.8000       0.00000
      99.9000       0.00000
      100.000       0.00000
      100.100       0.00000
      100.200       0.00000
      100.300       0.00000
      100.400       0.00000
      100.500       0.00000
      100.600       0.00000
      100.700       0.00000
      100.800       0.00000
      100.900       0.00000
      101.000       0.00000
      101.100       0.00000
      101.200       0.00000
      101.300       0.00000
      101.400       0.00000
      101.500       0.00000
      101.600       0.00000
      101.700       0.00000
      101.800       0.00000
      101.900       0.00000
      102.000       0.00000
      102.100       0.00000
      102.200       0.00000
      102.300       0.00000
      102.400       0.00000
      102.500       0.00000
      102.600       0.00000
      102.700       0.00000
      102.800       0.00000
      102.900       0.00000
      103.000       0.00000
      103.100       0.00000
      103.200       0.00000
      103.300       0.00000
      103.400       0.00000
      103.500       0.00000
      103.600       0.00000
      103.700       0.00000
      103.800       0.00000
      103.900       0.00000
      104.000       0.00000
      104.100       0.00000
      104.200       0.00000
      104.300       0.00000
      104.400       0.00000
      104.500       0.00000
      104.600       0.00000
      104.700       0.00000
      104.800       0.00000
      104.900       0.00000
      105.000       0.00000
      105.100       0.00000
      105.200       0.00000
      105.300       0.00000
      105.400       0.00000
      105.500       0.00000
      105.600       0.00000
      105.700       0.00000
      105.800       0.00000
      105.900       0.00000
      106.000       0.00000
      106.100       0.00000
      106.200       0.00000
      106.300       0.00000
      106.400       0.00000
      106.500       0.00000
      106.600       0.00000
      106.700       0.00000
      106.800       0.00000
      106.900       0.00000
      107.000       0.00000
      107.100       0.00000
      107.200       0.00000
      107.300       0.00000
      107.400       0.00000
      107.500       0.00000
      107.600       0.00000
      107.700       0.00000
      107.800       0.00000
      107.900       0.00000
      108.000       0.00000
      108.100       0.00000
      108.200       0.00000
      108.300       0.00000
      108.400       0.00000
      108.500       0.00000
      108.600       0.00000
      108.700       0.00000
      108.800       0.00000
      108.900       0.00000
      109.000       0.00000
      109.100       0.00000
      109.200       0.00000
      109.300       0.00000
      109.400       0.00000
      109.500       0.00000
      109.600       0.00000
      109.700       0.00000
      109.800       0.00000
      109.900       0.00000
      110.000       0.00000
      110.100       0.00000
      110.200       0.00000
      110.300       0.00000
      110.400       0.00000
      110.500       0.00000
      110.600       0.00000
      110.700       0.00000
      110.800       0.00000
      110.900       0.00000
      111.000       0.00000
      111.100       0.00000
      111.200       0.00000
      111.300       0.00000
      111.400       0.00000
      111.500       0.00000
      111.600       0.00000
      111.700       0.00000
      111.800       0.00000
      111.900       0.00000
      112.000       0.00000
      112.100       0.00000
      112.200       0.00000
      112.300       0.00000
      112.400       0.00000
      112.500       0.00000
      112.600       0.00000
      112.700       0.00000
      112.800       0.00000
      112.900       0.00000
      113.000       0.00000
      113.100       0.00000
      113.200       0.00000
      113.300       0.00000
      113.400       0.00000
      113.500       0.00000
      113.600       0.00000
      113.700       0.00000
      113.800       0.00000
      113.900       0.00000
      114.000       0.00000
      114.100       0.00000
      114.200       0.00000
      114.300       0.00000
      114.400       0.00000
      114.500       0.00000
      114.600       0.00000
      114.700       0.00000
      114.800       0.00000
      114.900       0.00000
      115.000       0.00000
      115.100       0.00000
      115.200       0.00000
      115.300       0.00000
      115.400       0.00000
      115.500       0.00000
      115.600       0.00000
      115.700       0.00000
      115.800       0.00000
      115.900       0.00000
      116.000       0.00000
      116.100       0.00000
      116.200       0.00000
      116.300       0.00000
      116.400       0.00000
      116.500       0.00000
      116.600       0.00000
      116.700       0.00000
      116.800       0.00000
      116.900       0.00000
      117.000       0.00000
      117.100       0.00000
      117.200       0.00000
      117.300       0.00000
      117.400       0.00000
      117.500       0.00000
      117.600       0.00000
      117.700       0.00000
      117.800       0.00000
      117.900       0.00000
      118.000       0.00000
      118.100       0.00000
      118.200       0.00000
      118.300       0.00000
      118.400       0.00000
      118.500       0.00000
      118.600       0.00000
      118.700       0.00000
      118.800       0.00000
      118.900       0.00000
      119.000       0.00000
      119.100       0.00000
      119.200       0.00000
      119.300       0.00000
      119.400       0.00000
      119.500       0.00000
      119.600       0.00000
      119.700       0.00000
      119.800       0.00000
      119.900       0.00000
      120.000       0.00000
      120.100       0.00000
      120.200       0.00000
      120.300       0.00000
      120.400       0.00000
      120.500       0.00000
      120.600       0.00000
      120.700       0.00000
      120.800       0.00000
      120.900       0.00000
      121.000       0.00000
      121.100       0.00000
      121.200       0.00000
      121.300       0.00000
      121.400       0.00000
      121.500       0.00000
      121.600       0.00000
      121.700       0.00000
      121.800       0.00000
      121.900       0.00000
      122.000       0.00000
      122.100       0.00000
      122.200       0.00000
      122.300       0.00000
      122.400       0.00000
      122.500       0.00000
      122.600       0.00000
      122.700       0.00000
      122.800       0.00000
      122.900       0.00000
      123.000       0.00000
      123.100       0.00000
      123.200       0.00000
      123.300       0.00000
      123.400       0.00000
      123.500       0.00000
      123.600       0.00000
      123.700       0.00000
      123.800       0.00000
      123.900       0.00000
      124.000       0.00000
      124.100       0.00000
      124.200       0.00000
      124.300       0.00000
      124.400       0.00000
      124.500       0.00000
      124.600       0.00000
      124.700       0.00000
      124.800       0.00000
      124.900       0.00000
      125.000       0.00000
      125.100       0.00000
      125.200       0.00000
      125.300       0.00000
      125.400       0.00000
      125.500       0.00000
      125.600       0.00000
      125.700       0.00000
      125.800       0.00000
      125.900       0.00000
      126.000       0.00000
      126.100       0.00000
      126.200       0.00000
      126.300       0.00000
      126.400       0.00000
      126.500       0.00000
      126.600       0.00000
      126.700       0.00000
      126.800       0.00000
      126.900       0.00000
      127.000       0.00000
      127.100       0.00000
      127.200       0.00000
      127.300       0.00000
      127.400       0.00000
      127.500       0.00000
      127.600       0.00000
      127.700       0.00000
      127.800       0.00000
      127.900       0.00000
      128.000       0.00000
      128.100       0.00000
      128.200       0.00000
      128.300       0.00000
      128.400       0.00000
      128.500       0.00000
      128.600       0.00000
      128.700       0.00000
      128.800       0.00000
      128.900       0.00000
      129.000       0.00000
      129.100       0.00000
      129.200       0.00000
      129.300       0.00000
      129.400       0.00000
      129.500       0.00000
      129.600       0.00000
      129.700       0.00000
      129.800       0.00000
      129.900       0.00000
      130.000       0.00000
      130.100       0.00000
      130.200       0.00000
      130.300       0.00000
      130.400       0.00000
      130.500       0.00000
      130.600       0.00000
      130.700       0.00000
      130.800       0.00000
      130.900       0.00000
      131.000       0.00000
      131.100       0.00000
      131.200       0.00000
      131.300       0.00000
      131.400       0.00000
      131.500       0.00000
      131.600       0.00000
      131.700       0.00000
      131.800       0.00000
      131.900       0.00000
      132.000       0.00000
      132.100       0.00000
      132.200       0.00000
      132.300       0.00000
      132.400       0.00000
      132.500       0.00000
      132.600       0.00000
      132.700       0.00000
      132.800       0.00000
      132.900       0.00000
      133.000       0.00000
      133.100       0.00000
      133.200       0.00000
      133.300       0.00000
      133.400       0.00000
      133.500       0.00000
      133.600       0.00000
      133.700       0.00000
      133.800       0.00000
      133.900       0.00000
      134.000       0.00000
      134.100       0.00000
      134.200       0.00000
      134.300       0.00000
      134.400       0.00000
      134.500       0.00000
      134.600       0.00000
      134.700       0.00000
      134.800       0.00000
      134.900       0.00000
      135.000       0.00000
      135.100       0.00000
      135.200       0.00000
      135.300       0.00000
      135.400       0.00000
      135.500       0.00000
      135.600       0.00000
      135.700       0.00000
      135.800       0.00000
      135.900       0.00000
      136.000       0.00000
      136.100       0.00000
      136.200       0.00000
      136.300       0.00000
      136.400       0.00000
      136.500       0.00000
      136.600       0.00000
      136.700       0.00000
      136.800       0.00000
      136.900       0.00000
      137.000       0.00000
      137.100       0.00000
      137.200       0.00000
      137.300       0.00000
      137.400       0.00000
      137.500       0.00000
      137.600       0.00000
      137.700       0.00000
      137.800       0.00000
      137.900       0.00000
      138.000       0.00000
      138.100       0.00000
      138.200       0.00000
      138.300       0.00000
      138.400       0.00000
      138.500       0.00000
      138.600       0.00000
      138.700       0.00000
      138.800       0.00000
      138.900       0.00000
      139.000       0.00000
      139.100       0.00000
      139.200       0.00000
      139.300       0.00000
      139.400       0.00000
      139.500       0.00000
      139.600       0.00000
      139.700       0.00000
      139.800       0.00000
      139.900       0.00000
      140.000       0.00000
      140.100       0.00000
      140.200       0.00000
      140.300       0.00000
      140.400       0.00000
      140.500       0.00000
      140.600       0.00000
      140.700       0.00000
      140.800       0.00000
      140.900       0.00000
      141.000       0.00000
      141.100       0.00000
      141.200       0.00000
      141.300       0.00000
      141.400       0.00000
      141.500       0.00000
      141.600       0.00000
      141.700       0.00000
      141.800       0.00000
      141.900       0.00000
      142.000       0.00000
      142.100       0.00000
      142.200       0.00000
      142.300       0.00000
      142.400       0.00000
      142.500       0.00000
      142.600       0.00000
      142.700       0.00000
      142.800       0.00000
      142.900       0.00000
      143.000       0.00000
      143.100       0.00000
      143.200       0.00000
      143.300       0.00000
      143.400       0.00000
      143.500       0.00000
      143.600       0.00000
      143.700       0.00000
      143.800       0.00000
      143.900       0.00000
      144.000       0.00000
      144.100       0.00000
      144.200       0.00000
      144.300       0.00000
      144.400       0.00000
      144.500       0.00000
      144.600       0.00000
      144.700       0.00000
      144.800       0.00000
      144.900       0.00000
      145.000       0.00000
      145.100       0.00000
      145.200       0.00000
      145.300       0.00000
      145.400       0.00000
      145.500       0.00000
      145.600       0.00000
      145.700       0.00000
      145.800       0.00000
      145.900       0.00000
      146.000       0.00000
      146.100       0.00000
      146.200       0.00000
      146.300       0.00000
      146.400       0.00000
      146.500       0.00000
      146.600       0.00000
      146.700       0.00000
      146.800       0.00000
      146.900       0.00000
      147.000       0.00000
      147.100       0.00000
      147.200       0.00000
      147.300       0.00000
      147.400       0.00000
      147.500       0.00000
      147.600       0.00000
      147.700       0.00000
      147.800       0.00000
      147.900       0.00000
      148.000       0.00000
      148.100       0.00000
      148.200       0.00000
      148.300       0.00000
      148.400       0.00000
      148.500       0.00000
      148.600       0.00000
      148.700       0.00000
      148.800       0.00000
      148.900       0.00000
      149.000       0.00000
      149.100       0.00000
      149.200       0.00000
      149.300       0.00000
      149.400       0.00000
      149.500       0.00000
      149.600       0.00000
      149.700       0.00000
      149.800       0.00000
      149.900       0.00000
      150.000       0.00000
      150.100       0.00000
      150.200       0.00000
      150.300       0.00000
      150.400       0.00000
      150.500       0.00000
      150.600       0.00000
      150.700       0.00000
      150.800       0.00000
      150.900       0.00000
      151.000       0.00000
      151.100       0.00000
      151.200       0.00000
      151.300       0.00000
      151.400       0.00000
      151.500       0.00000
      151.600       0.00000
      151.700       0.00000
      151.800       0.00000
      151.900       0.00000
      152.000       0.00000
      152.100       0.00000
      152.200       0.00000
      152.300       0.00000
      152.400       0.00000
      152.500       0.00000
      152.600       0.00000
      152.700       0.00000
      152.800       0.00000
      152.900       0.00000
      153.000       0.00000
      153.100       0.00000
      153.200       0.00000
      153.300       0.00000
      153.400       0.00000
      153.500       0.00000
      153.600       0.00000
      153.700       0.00000
      153.800       0.00000
      153.900       0.00000
      154.000       0.00000
      154.100       0.00000
      154.200       0.00000
      154.300       0.00000
      154.400       0.00000
      154.500       0.00000
      154.600       0.00000
      154.700       0.00000
      154.800       0.00000
      154.900       0.00000
      155.000       0.00000
      155.100       0.00000
      155.200       0.00000
      155.300       0.00000
      155.400       0.00000
      155.500       0.00000
      155.600       0.00000
      155.700       0.00000
      155.800       0.00000
      155.900       0.00000
      156.000       0.00000
      156.100       0.00000
      156.200       0.00000
      156.300       0.00000
      156.400       0.00000
      156.500       0.00000
      156.600       0.00000
      156.700       0.00000
      156.800       0.00000
      156.900       0.00000
      157.000       0.00000
      157.100       0.00000
      157.200       0.00000
      157.300       0.00000
      157.400       0.00000
      157.500       0.00000
      157.600       0.00000
      157.700       0.00000
      157.800       0.00000
      157.900       0.00000
      158.000       0.00000
      158.100       0.00000
      158.200       0.00000
      158.300       0.00000
      158.400       0.00000
      158.500       0.00000
      158.600       0.00000
      158.700       0.00000
      158.800       0.00000
      158.900       0.00000
      159.000       0.00000
      159.100       0.00000
      159.200       0.00000
      159.300       0.00000
      159.400       0.00000
      159.500       0.00000
      159.600       0.00000
      159.700       0.00000
      159.800       0.00000
      159.900       0.00000
      160.000       0.00000
      160.100       0.00000
      160.200       0.00000
      160.300       0.00000
      160.400       0.00000
      160.500       0.00000
      160.600       0.00000
      160.700       0.00000
      160.800       0.00000
      160.900       0.00000
      161.000       0.00000
      161.100       0.00000
      161.200       0.00000
      161.300       0.00000
      161.400       0.00000
      161.500       0.00000
      161.600       0.00000
      161.700       0.00000
      161.800       0.00000
      161.900       0.00000
      162.000       0.00000
      162.100       0.00000
      162.200       0.00000
      162.300       0.00000
      162.400       0.00000
      162.500       0.00000
      162.600       0.00000
      162.700       0.00000
      162.800       0.00000
      162.900       0.00000
      163.000       0.00000
      163.100       0.00000
      163.200       0.00000
      163.300       0.00000
      163.400       0.00000
      163.500       0.00000
      163.600       0.00000
      163.700       0.00000
      163.800       0.00000
      163.900       0.00000
      164.000       0.00000
      164.100       0.00000
      164.200       0.00000
      164.300       0.00000
      164.400       0.00000
      164.500       0.00000
      164.600       0.00000
      164.700       0.00000
      164.800       0.00000
      164.900       0.00000
      165.000       0.00000
      165.100       0.00000
      165.200       0.00000
      165.300       0.00000
      165.400       0.00000
      165.500       0.00000
      165.600       0.00000
      165.700       0.00000
      165.800       0.00000
      165.900       0.00000
      166.000       0.00000
      166.100       0.00000
      166.200       0.00000
      166.300       0.00000
      166.400       0.00000
      166.500       0.00000
      166.600       0.00000
      166.700       0.00000
      166.800       0.00000
      166.900       0.00000
      167.000       0.00000
      167.100       0.00000
      167.200       0.00000
      167.300       0.00000
      167.400       0.00000
      167.500       0.00000
      167.600       0.00000
      167.700       0.00000
      167.800       0.00000
      167.900       0.00000
      168.000       0.00000
      168.100       0.00000
      168.200       0.00000
      168.300       0.00000
      168.400       0.00000
      168.500       0.00000
      168.600       0.00000
      168.700       0.00000
      168.800       0.00000
      168.900       0.00000
      169.000       0.00000
      169.100       0.00000
      169.200       0.00000
      169.300       0.00000
      169.400       0.00000
      169.500       0.00000
      169.600       0.00000
      169.700       0.00000
      169.800       0.00000
      169.900       0.00000
      170.000       0.00000
      170.100       0.00000
      170.200       0.00000
      170.300       0.00000
      170.400       0.00000
      170.500       0.00000
      170.600   6.31314e-40
      170.700   7.85315e-25
      170.800   1.05182e-20
      170.900   1.74746e-20
      171.000   1.78641e-20
      171.100   1.82606e-20
      171.200   1.86641e-20
      171.300   1.90752e-20
      171.400   1.94933e-20
      171.500   1.99185e-20
      171.600   2.03514e-20
      171.700   2.07923e-20
      171.800   2.12412e-20
      171.900   2.16980e-20
      172.000   2.21636e-20
      172.100   2.26387e-20
      172.200   2.31228e-20
      172.300   2.36156e-20
      172.400   2.41140e-20
      172.500   2.46213e-20
      172.600   2.51393e-20
      172.700   2.56676e-20
      172.800   2.62062e-20
      172.900   2.67567e-20
      173.000   2.73175e-20
      173.100   2.78897e-20
      173.200   2.84735e-20
      173.300   2.90694e-20
      173.400   2.96779e-20
      173.500   3.02984e-20
      173.600   3.09315e-20
      173.700   3.15774e-20
      173.800   3.22373e-20
      173.900   3.29092e-20
      174.000   3.35949e-20
      174.100   3.42956e-20
      174.200   3.50093e-20
      174.300   3.57363e-20
      174.400   3.64787e-20
      174.500   3.72350e-20
      174.600   3.80069e-20
      174.700   3.87936e-20
      174.800   3.95948e-20
      174.900   4.04117e-20
      175.000   4.12450e-20
      175.100   4.20926e-20
      175.200   4.29590e-20
      175.300   4.38406e-20
      175.400   4.47400e-20
      175.500   4.56559e-20
      175.600   4.65882e-20
      175.700   4.75384e-20
      175.800   4.85075e-20
      175.900   4.94939e-20
      176.000   5.04977e-20
      176.100   5.15209e-20
      176.200   5.25630e-20
      176.300   5.36253e-20
      176.400   5.47064e-20
      176.500   5.58073e-20
      176.600   5.69298e-20
      176.700   5.80722e-20
      176.800   5.92349e-20
      176.900   6.04188e-20
      177.000   6.16257e-20
      177.100   6.28545e-20
      177.200   6.41044e-20
      177.300   6.53768e-20
      177.400   6.66734e-20
      177.500   6.79929e-20
      177.600   6.93354e-20
      177.700   7.07016e-20
      177.800   7.20915e-20
      177.900   7.35075e-20
      178.000   7.49532e-20
      178.100   7.64231e-20
      178.200   7.79196e-20
      178.300   7.94438e-20
      178.400   8.09931e-20
      178.500   8.25693e-20
      178.600   8.41737e-20
      178.700   8.58081e-20
      178.800   8.74690e-20
      178.900   8.91576e-20
      179.000   9.08754e-20
      179.100   9.26242e-20
      179.200   9.44047e-20
      179.300   9.62143e-20
      179.400   9.80554e-20
      179.500   9.99292e-20
      179.600   1.01840e-19
      179.700   1.03781e-19
      179.800   1.05756e-19
      179.900   1.07765e-19
      180.000   1.09814e-19
      180.100   1.11894e-19
      180.200   1.14013e-19
      180.300   1.16169e-19
      180.400   1.18365e-19
      180.500   1.20601e-19
      180.600   1.22873e-19
      180.700   1.25186e-19
      180.800   1.27564e-19
      180.900   1.30026e-19
      181.000   1.32552e-19
      181.100   1.35121e-19
      181.200   1.37740e-19
      181.300   1.40409e-19
      181.400   1.43125e-19
      181.500   1.45889e-19
      181.600   1.48705e-19
      181.700   1.51576e-19
      181.800   1.54495e-19
      181.900   1.57468e-19
      182.000   1.60497e-19
      182.100   1.63578e-19
      182.200   1.66723e-19
      182.300   1.69921e-19
      182.400   1.73175e-19
      182.500   1.76488e-19
      182.600   1.79865e-19
      182.700   1.83298e-19
      182.800   1.86789e-19
      182.900   1.90346e-19
      183.000   1.93965e-19
      183.100   1.97646e-19
      183.200   2.01391e-19
      183.300   2.05203e-19
      183.400   2.09083e-19
      183.500   2.13028e-19
      183.600   2.17041e-19
      183.700   2.21259e-19
      183.800   2.26133e-19
      183.900   2.31467e-19
      184.000   2.36909e-19
      184.100   2.42483e-19
      184.200   2.48178e-19
      184.300   2.54004e-19
      184.400   2.59956e-19
      184.500   2.66034e-19
      184.600   2.72245e-19
      184.700   2.78596e-19
      184.800   2.85083e-19
      184.900   2.91708e-19
      185.000   2.98475e-19
      185.100   3.05393e-19
      185.200   3.12463e-19
      185.300   3.19677e-19
      185.400   3.27046e-19
      185.500   3.34569e-19
      185.600   3.42256e-19
      185.700   3.50116e-19
      185.800   3.58146e-19
      185.900   3.66341e-19
      186.000   3.74726e-19
      186.100   3.83277e-19
      186.200   3.92002e-19
      186.300   4.00910e-19
      186.400   4.10009e-19
      186.500   4.19299e-19
      186.600   4.28773e-19
      186.700   4.38434e-19
      186.800   4.48293e-19
      186.900   4.58360e-19
      187.000   4.68633e-19
      187.100   4.79100e-19
      187.200   4.89788e-19
      187.300   5.00714e-19
      187.400   5.11855e-19
      187.500   5.23217e-19
      187.600   5.34804e-19
      187.700   5.46622e-19
      187.800   5.58688e-19
      187.900   5.70995e-19
      188.000   5.83532e-19
      188.100   5.96317e-19
      188.200   6.09363e-19
      188.300   6.22673e-19
      188.400   6.36252e-19
      188.500   6.50092e-19
      188.600   6.64218e-19
      188.700   6.78654e-19
      188.800   6.93365e-19
      188.900   7.08362e-19
      189.000   7.23658e-19
      189.100   7.39277e-19
      189.200   7.55201e-19
      189.300   7.71431e-19
      189.400   7.87980e-19
      189.500   8.04865e-19
      189.600   8.22107e-19
      189.700   8.39667e-19
      189.800   8.57657e-19
      189.900   8.76043e-19
      190.000   8.94826e-19
      190.100   9.13963e-19
      190.200   9.33486e-19
      190.300   9.53392e-19
      190.400   9.73708e-19
      190.500   9.94429e-19
      190.600   1.01555e-18
      190.700   1.03709e-18
      190.800   1.05905e-18
      190.900   1.08145e-18
      191.000   1.10435e-18
      191.100   1.12769e-18
      191.200   1.15150e-18
      191.300   1.17577e-18
      191.400   1.20053e-18
      191.500   1.22578e-18
      191.600   1.25151e-18
      191.700   1.27774e-18
      191.800   1.30450e-18
      191.900   1.33176e-18
      192.000   1.35953e-18
      192.100   1.38788e-18
      192.200   1.41683e-18
      192.300   1.44632e-18
      192.400   1.47641e-18
      192.500   1.50707e-18
      192.600   1.53830e-18
      192.700   1.57013e-18
      192.800   1.60123e-18
      192.900   1.62951e-18
      193.000   1.65789e-18
      193.100   1.68677e-18
      193.200   1.71618e-18
      193.300   1.74604e-18
      193.400   1.77636e-18
      193.500   1.80718e-18
      193.600   1.83851e-18
      193.700   1.87035e-18
      193.800   1.90268e-18
      193.900   1.93550e-18
      194.000   1.96887e-18
      194.100   2.00287e-18
      194.200   2.03738e-18
      194.300   2.07244e-18
      194.400   2.10807e-18
      194.500   2.14429e-18
      194.600   2.18108e-18
      194.700   2.21841e-18
      194.800   2.25632e-18
      194.900   2.29486e-18
      195.000   2.33400e-18
      195.100   2.37390e-18
      195.200   2.41434e-18
      195.300   2.45540e-18
      195.400   2.49711e-18
      195.500   2.53948e-18
      195.600   2.58249e-18
      195.700   2.62612e-18
      195.800   2.67005e-18
      195.900   2.71188e-18
      196.000   2.65883e-18
      196.100   2.60559e-18
      196.200   2.55339e-18
      196.300   2.50221e-18
      196.400   2.45203e-18
      196.500   2.40280e-18
      196.600   2.35454e-18
      196.700   2.30722e-18
      196.800   2.26085e-18
      196.900   2.21545e-18
      197.000   2.17093e-18
      197.100   2.12726e-18
      197.200   2.08443e-18
      197.300   2.04244e-18
      197.400   2.00124e-18
      197.500   1.96083e-18
      197.600   1.92122e-18
      197.700   1.88246e-18
      197.800   1.84448e-18
      197.900   1.80721e-18
      198.000   1.77067e-18
      198.100   1.73484e-18
      198.200   1.69971e-18
      198.300   1.66526e-18
      198.400   1.63148e-18
      198.500   1.59843e-18
      198.600   1.56605e-18
      198.700   1.53431e-18
      198.800   1.50319e-18
      198.900   1.47269e-18
      199.000   1.44277e-18
      199.100   1.41345e-18
      199.200   1.38472e-18
      199.300   1.35662e-18
      199.400   1.32910e-18
      199.500   1.30212e-18
      199.600   1.27567e-18
      199.700   1.24974e-18
      199.800   1.22434e-18
      199.900   1.19944e-18
      200.000   1.17503e-18
      200.100   1.15121e-18
      200.200   1.12783e-18
      200.300   1.10493e-18
      200.400   1.08248e-18
      200.500   1.06049e-18
      200.600   1.03894e-18
      200.700   1.01783e-18
      200.800   9.97128e-19
      200.900   9.76864e-19
      201.000   9.57015e-19
      201.100   9.37582e-19
      201.200   9.18544e-19
      201.300   8.99885e-19
      201.400   8.81612e-19
      201.500   8.63699e-19
      201.600   8.46148e-19
      201.700   8.28956e-19
      201.800   8.12111e-19
      201.900   7.95611e-19
      202.000   7.79468e-19
      202.100   7.63648e-19
      202.200   7.48150e-19
      202.300   7.33021e-19
      202.400   7.18325e-19
      202.500   7.03955e-19
      202.600   6.89862e-19
      202.700   6.76065e-19
      202.800   6.62548e-19
      202.900   6.49309e-19
      203.000   6.36339e-19
      203.100   6.23637e-19
      203.200   6.11181e-19
      203.300   5.98977e-19
      203.400   5.87017e-19
      203.500   5.75297e-19
      203.600   5.63813e-19
      203.700   5.52564e-19
      203.800   5.41547e-19
      203.900   5.30765e-19
      204.000   5.20196e-19
      204.100   5.09840e-19
      204.200   4.99697e-19
      204.300   4.89757e-19
      204.400   4.80017e-19
      204.500   4.70474e-19
      204.600   4.61120e-19
      204.700   4.51956e-19
      204.800   4.42988e-19
      204.900   4.34203e-19
      205.000   4.25596e-19
      205.100   4.17162e-19
      205.200   4.08896e-19
      205.300   4.00797e-19
      205.400   3.92861e-19
      205.500   3.85084e-19
      205.600   3.76811e-19
      205.700   3.68126e-19
      205.800   3.59555e-19
      205.900   3.51191e-19
      206.000   3.43030e-19
      206.100   3.35056e-19
      206.200   3.27265e-19
      206.300   3.19658e-19
      206.400   3.12227e-19
      206.500   3.04964e-19
      206.600   2.97871e-19
      206.700   2.90944e-19
      206.800   2.84172e-19
      206.900   2.77557e-19
      207.000   2.71096e-19
      207.100   2.64789e-19
      207.200   2.58631e-19
      207.300   2.52612e-19
      207.400   2.46731e-19
      207.500   2.40983e-19
      207.600   2.35369e-19
      207.700   2.29882e-19
      207.800   2.24520e-19
      207.900   2.19279e-19
      208.000   2.14160e-19
      208.100   2.09159e-19
      208.200   2.04270e-19
      208.300   1.99495e-19
      208.400   1.94833e-19
      208.500   1.90279e-19
      208.600   1.85827e-19
      208.700   1.81477e-19
      208.800   1.77227e-19
      208.900   1.72577e-19
      209.000   1.67164e-19
      209.100   1.61707e-19
      209.200   1.56425e-19
      209.300   1.51311e-19
      209.400   1.46362e-19
      209.500   1.41572e-19
      209.600   1.36935e-19
      209.700   1.32450e-19
      209.800   1.28116e-19
      209.900   1.23919e-19
      210.000   1.19858e-19
      210.100   1.15928e-19
      210.200   1.12125e-19
      210.300   1.08444e-19
      210.400   1.04882e-19
      210.500   1.01435e-19
      210.600   9.80992e-20
      210.700   9.48714e-20
      210.800   9.17483e-20
      210.900   8.87260e-20
      211.000   8.58015e-20
      211.100   8.29734e-20
      211.200   8.02355e-20
      211.300   7.75914e-20
      211.400   7.50345e-20
      211.500   7.25594e-20
      211.600   7.01655e-20
      211.700   6.78497e-20
      211.800   6.56077e-20
      211.900   6.34390e-20
      212.000   6.13424e-20
      212.100   5.93133e-20
      212.200   5.73501e-20
      212.300   5.54513e-20
      212.400   5.36140e-20
      212.500   5.18372e-20
      212.600   5.01186e-20
      212.700   4.84561e-20
      212.800   4.68479e-20
      212.900   4.52928e-20
      213.000   4.37889e-20
      213.100   4.23360e-20
      213.200   4.09308e-20
      213.300   3.95714e-20
      213.400   3.82568e-20
      213.500   3.69852e-20
      213.600   3.57553e-20
      213.700   3.45663e-20
      213.800   3.34160e-20
      213.900   3.23041e-20
      214.000   3.12284e-20
      214.100   3.01883e-20
      214.200   2.91828e-20
      214.300   2.82102e-20
      214.400   2.72697e-20
      214.500   2.63604e-20
      214.600   2.54815e-20
      214.700   2.46314e-20
      214.800   2.38096e-20
      214.900   2.30152e-20
      215.000   2.22468e-20
      215.100   2.15044e-20
      215.200   2.07870e-20
      215.300   2.00939e-20
      215.400   1.94235e-20
      215.500   1.87755e-20
      215.600   1.81495e-20
      215.700   1.75438e-20
      215.800   1.69583e-20
      215.900   1.63926e-20
      216.000   1.58456e-20
      216.100   1.53167e-20
      216.200   1.48055e-20
      216.300   1.43115e-20
      216.400   1.38339e-20
      216.500   1.33722e-20
      216.600   1.29259e-20
      216.700   1.24946e-20
      216.800   1.20776e-20
      216.900   1.16745e-20
      217.000   1.12849e-20
      217.100   1.09083e-20
      217.200   1.05443e-20
      217.300   1.01924e-20
      217.400   9.85210e-21
      217.500   9.52338e-21
      217.600   9.20553e-21
      217.700   8.89812e-21
      217.800   8.60111e-21
      217.900   8.31408e-21
      218.000   8.03676e-21
      218.100   7.76860e-21
      218.200   7.50943e-21
      218.300   7.25891e-21
      218.400   7.01676e-21
      218.500   6.78252e-21
      218.600   6.55615e-21
      218.700   6.33726e-21
      218.800   6.12564e-21
      218.900   5.92114e-21
      219.000   5.72334e-21
      219.100   5.53208e-21
      219.200   5.34721e-21
      219.300   5.16845e-21
      219.400   4.99558e-21
      219.500   4.82846e-21
      219.600   4.66690e-21
      219.700   4.51071e-21
      219.800   4.35973e-21
      219.900   4.21372e-21
      220.000   4.07254e-21
      220.100   3.93606e-21
      220.200   3.80409e-21
      220.300   3.67653e-21
      220.400   3.55319e-21
      220.500   3.43398e-21
      220.600   3.31874e-21
      220.700   3.20727e-21
      220.800   3.09950e-21
      220.900   2.99537e-21
      221.000   2.89466e-21
      221.100   2.79729e-21
      221.200   2.70319e-21
      221.300   2.61223e-21
      221.400   2.52428e-21
      221.500   2.43927e-21
      221.600   2.35710e-21
      221.700   2.27764e-21
      221.800   2.20082e-21
      221.900   2.12658e-21
      222.000   2.05484e-21
      222.100   1.98545e-21
      222.200   1.91842e-21
      222.300   1.85359e-21
      222.400   1.79096e-21
      222.500   1.73039e-21
      222.600   1.67187e-21
      222.700   1.61530e-21
      222.800   1.56061e-21
      222.900   1.50777e-21
      223.000   1.45669e-21
      223.100   1.40731e-21
      223.200   1.35960e-21
      223.300   1.31348e-21
      223.400   1.26892e-21
      223.500   1.22583e-21
      223.600   1.18421e-21
      223.700   1.14397e-21
      223.800   1.10508e-21
      223.900   1.06753e-21
      224.000   1.03121e-21
      224.100   9.96120e-22
      224.200   9.62205e-22
      224.300   9.29437e-22
      224.400   8.97765e-22
      224.500   8.67164e-22
      224.600   8.37582e-22
      224.700   8.09016e-22
      224.800   7.81406e-22
      224.900   7.54722e-22
      225.000   7.28942e-22
      225.100   7.04027e-22
      225.200   6.79950e-22
      225.300   6.56704e-22
      225.400   6.34230e-22
      225.500   6.12512e-22
      225.600   5.91530e-22
      225.700   5.71268e-22
      225.800   5.51681e-22
      225.900   5.32762e-22
      226.000   5.14488e-22
      226.100   4.96829e-22
      226.200   4.79768e-22
      226.300   4.63326e-22
      226.400   4.47455e-22
      226.500   4.32108e-22
      226.600   4.17274e-22
      226.700   4.02945e-22
      226.800   3.89092e-22
      226.900   3.75710e-22
      227.000   3.62785e-22
      227.100   3.50296e-22
      227.200   3.38236e-22
      227.300   3.26588e-22
      227.400   3.15336e-22
      227.500   3.04469e-22
      227.600   2.93973e-22
      227.700   2.83836e-22
      227.800   2.74046e-22
      227.900   2.64593e-22
      228.000   2.55464e-22
      228.100   2.46647e-22
      228.200   2.38130e-22
      228.300   2.29908e-22
      228.400   2.21970e-22
      228.500   2.14301e-22
      228.600   2.06898e-22
      228.700   1.99749e-22
      228.800   1.92845e-22
      228.900   1.86182e-22
      229.000   1.79746e-22
      229.100   1.73532e-22
      229.200   1.67533e-22
      229.300   1.61740e-22
      229.400   1.56147e-22
      229.500   1.50748e-22
      229.600   1.45534e-22
      229.700   1.40500e-22
      229.800   1.35640e-22
      229.900   1.30948e-22
      230.000   1.26369e-22
      230.100   1.21600e-22
      230.200   1.16999e-22
      230.300   1.12574e-22
      230.400   1.08314e-22
      230.500   1.04216e-22
      230.600   1.00276e-22
      230.700   9.64824e-23
      230.800   9.28332e-23
      230.900   8.93217e-23
      231.000   8.59419e-23
      231.100   8.26897e-23
      231.200   7.95602e-23
      231.300   7.65492e-23
      231.400   7.36529e-23
      231.500   7.08638e-23
      231.600   6.81796e-23
      231.700   6.55977e-23
      231.800   6.31132e-23
      231.900   6.07222e-23
      232.000   5.84212e-23
      232.100   5.62066e-23
      232.200   5.40761e-23
      232.300   5.20261e-23
      232.400   5.00531e-23
      232.500   4.81540e-23
      232.600   4.63270e-23
      232.700   4.45689e-23
      232.800   4.28773e-23
      232.900   4.12491e-23
      233.000   3.96825e-23
      233.100   3.81753e-23
      233.200   3.67246e-23
      233.300   3.53290e-23
      233.400   3.39861e-23
      233.500   3.26948e-23
      233.600   3.14531e-23
      233.700   3.02576e-23
      233.800   2.89649e-23
      233.900   2.77084e-23
      234.000   2.65054e-23
      234.100   2.53544e-23
      234.200   2.42531e-23
      234.300   2.31991e-23
      234.400   2.21904e-23
      234.500   2.12251e-23
      234.600   2.03013e-23
      234.700   1.94174e-23
      234.800   1.85719e-23
      234.900   1.77625e-23
      235.000   1.69880e-23
      235.100   1.62469e-23
      235.200   1.55379e-23
      235.300   1.48595e-23
      235.400   1.42104e-23
      235.500   1.35893e-23
      235.600   1.29952e-23
      235.700   1.24269e-23
      235.800   1.18842e-23
      235.900   1.13649e-23
      236.000   1.08681e-23
      236.100   1.03927e-23
      236.200   9.93788e-24
      236.300   9.50268e-24
      236.400   9.08647e-24
      236.500   8.68819e-24
      236.600   8.30716e-24
      236.700   7.94265e-24
      236.800   7.59390e-24
      236.900   7.26029e-24
      237.000   6.94115e-24
      237.100   6.63582e-24
      237.200   6.34382e-24
      237.300   6.06447e-24
      237.400   5.79727e-24
      237.500   5.54163e-24
      237.600   5.29725e-24
      237.700   5.06393e-24
      237.800   4.84076e-24
      237.900   4.62729e-24
      238.000   4.42314e-24
      238.100   4.22780e-24
      238.200   4.04099e-24
      238.300   3.86231e-24
      238.400   3.69141e-24
      238.500   3.52793e-24
      238.600   3.37160e-24
      238.700   3.22213e-24
      238.800   3.07916e-24
      238.900   2.94243e-24
      239.000   2.81165e-24
      239.100   2.68662e-24
      239.200   2.56707e-24
      239.300   2.45293e-24
      239.400   2.34393e-24
      239.500   2.23970e-24
      239.600   2.14000e-24
      239.700   2.04473e-24
      239.800   1.95359e-24
      239.900   1.86645e-24
      240.000   1.78314e-24
      240.100   1.70346e-24
      240.200   1.62729e-24
      240.300   1.55447e-24
      240.400   1.48483e-24
      240.500   1.41829e-24
      240.600   1.35469e-24
      240.700   1.29388e-24
      240.800   1.23584e-24
      240.900   1.18044e-24
      241.000   1.12750e-24
      241.100   1.07689e-24
      241.200   1.02852e-24
      241.300   9.82273e-25
      241.400   9.38082e-25
      241.500   8.95843e-25
      241.600   8.55476e-25
      241.700   8.16895e-25
      241.800   7.80020e-25
      241.900   7.44779e-25
      242.000   7.11108e-25
      242.100   6.78941e-25
      242.200   6.48267e-25
      242.300   6.19004e-25
      242.400   5.91033e-25
      242.500   5.64305e-25
      242.600   5.38769e-25
      242.700   5.14366e-25
      242.800   4.91056e-25
      242.900   4.68784e-25
      243.000   4.47507e-25
      243.100   4.27181e-25
      243.200   4.07756e-25
      243.300   3.89205e-25
      243.400   3.71491e-25
      243.500   3.54600e-25
      243.600   3.38501e-25
      243.700   3.23114e-25
      243.800   3.08417e-25
      243.900   2.94384e-25
      244.000   2.80975e-25
      244.100   2.68169e-25
      244.200   2.55940e-25
      244.300   2.44256e-25
      244.400   2.33099e-25
      244.500   2.22445e-25
      244.600   2.12269e-25
      244.700   2.02568e-25
      244.800   1.93329e-25
      244.900   1.84506e-25
      245.000   1.76076e-25
      245.100   1.68026e-25
      245.200   1.60343e-25
      245.300   1.53005e-25
      245.400   1.45996e-25
      245.500   1.39306e-25
      245.600   1.32917e-25
      245.700   1.26815e-25
      245.800   1.20989e-25
      245.900   1.15446e-25
      246.000   1.10162e-25
      246.100   1.05114e-25
      246.200   1.00294e-25
      246.300   9.56915e-26
      246.400   9.12985e-26
      246.500   8.71035e-26
      246.600   8.30982e-26
      246.700   7.92749e-26
      246.800   7.56234e-26
      246.900   7.21382e-26
      247.000   6.88222e-26
      247.100   6.56606e-26
      247.200   6.26426e-26
      247.300   5.97616e-26
      247.400   5.70107e-26
      247.500   5.43843e-26
      247.600   5.18771e-26
      247.700   4.94837e-26
      247.800   4.71989e-26
      247.900   4.50178e-26
      248.000   4.29363e-26
      248.100   4.09603e-26
      248.200   3.90733e-26
      248.300   3.72716e-26
      248.400   3.55517e-26
      248.500   3.39095e-26
      248.600   3.23421e-26
      248.700   3.08463e-26
      248.800   2.94183e-26
      248.900   2.80554e-26
      249.000   2.67547e-26
      249.100   2.55186e-26
      249.200   2.43401e-26
      249.300   2.32146e-26
      249.400   2.21403e-26
      249.500   2.11151e-26
      249.600   2.01363e-26
      249.700   1.92021e-26
      249.800   1.83106e-26
      249.900   1.74597e-26
      250.000   1.66477e-26
      250.100   1.58753e-26
      250.200   1.51393e-26
      250.300   1.44375e-26
      250.400   1.37676e-26
      250.500   1.31285e-26
      250.600   1.25187e-26
      250.700   1.19368e-26
      250.800   1.13816e-26
      250.900   1.08519e-26
      251.000   1.03466e-26
      251.100   9.86443e-27
      251.200   9.40521e-27
      251.300   8.96801e-27
      251.400   8.55095e-27
      251.500   8.15285e-27
      251.600   7.77307e-27
      251.700   7.41101e-27
      251.800   7.06546e-27
      251.900   6.73581e-27
      252.000   6.42130e-27
      252.100   6.12143e-27
      252.200   5.83529e-27
      252.300   5.56278e-27
      252.400   5.30322e-27
      252.500   5.05578e-27
      252.600   4.81966e-27
      252.700   4.59446e-27
      252.800   4.37968e-27
      252.900   4.17480e-27
      253.000   3.97937e-27
      253.100   3.79300e-27
      253.200   3.61526e-27
      253.300   3.44649e-27
      253.400   3.28585e-27
      253.500   3.13282e-27
      253.600   2.98710e-27
      253.700   2.84803e-27
      253.800   2.71539e-27
      253.900   2.58887e-27
      254.000   2.46815e-27
      254.100   2.35297e-27
      254.200   2.24310e-27
      254.300   2.13831e-27
      254.400   2.03833e-27
      254.500   1.94296e-27
      254.600   1.85200e-27
      254.700   1.76526e-27
      254.800   1.68275e-27
      254.900   1.60405e-27
      255.000   1.52900e-27
      255.100   1.45737e-27
      255.200   1.38907e-27
      255.300   1.32394e-27
      255.400   1.26181e-27
      255.500   1.20256e-27
      255.600   1.14607e-27
      255.700   1.09218e-27
      255.800   1.04080e-27
      255.900   9.91782e-28
      256.000   9.45049e-28
      256.100   9.00544e-28
      256.200   8.58166e-28
      256.300   8.17755e-28
      256.400   7.79243e-28
      256.500   7.42490e-28
      256.600   7.07463e-28
      256.700   6.74068e-28
      256.800   6.42221e-28
      256.900   6.11855e-28
      257.000   5.82910e-28
      257.100   5.55313e-28
      257.200   5.29013e-28
      257.300   5.03934e-28
      257.400   4.83366e-28
      257.500   4.64825e-28
      257.600   4.47072e-28
      257.700   4.29998e-28
      257.800   4.13564e-28
      257.900   3.97754e-28
      258.000   3.82539e-28
      258.100   3.67897e-28
      258.200   3.53812e-28
      258.300   3.40263e-28
      258.400   3.27217e-28
      258.500   3.14665e-28
      258.600   3.02593e-28
      258.700   2.90977e-28
      258.800   2.79799e-28
      258.900   2.69052e-28
      259.000   2.58705e-28
      259.100   2.48754e-28
      259.200   2.39187e-28
      259.300   2.29998e-28
      259.400   2.21156e-28
      259.500   2.12646e-28
      259.600   2.04463e-28
      259.700   1.96591e-28
      259.800   1.89017e-28
      259.900   1.81729e-28
      260.000   1.74723e-28
      260.100   1.67983e-28
      260.200   1.61500e-28
      260.300   1.55264e-28
      260.400   1.49267e-28
      260.500   1.43500e-28
      260.600   1.37952e-28
      260.700   1.32616e-28
      260.800   1.27488e-28
      260.900   1.22552e-28
      261.000   1.17810e-28
      261.100   1.13254e-28
      261.200   1.08872e-28
      261.300   1.04658e-28
      261.400   1.00607e-28
      261.500   9.71309e-29
      261.600   9.51393e-29
      261.700   9.34247e-29
      261.800   9.17418e-29
      261.900   9.00878e-29
      262.000   8.84638e-29
      262.100   8.68688e-29
      262.200   8.53034e-29
      262.300   8.37651e-29
      262.400   8.22546e-29
      262.500   8.07717e-29
      262.600   7.93151e-29
      262.700   7.78849e-29
      262.800   7.64802e-29
      262.900   7.50994e-29
      263.000   7.37465e-29
      263.100   7.24164e-29
      263.200   7.11109e-29
      263.300   6.98293e-29
      263.400   6.85702e-29
      263.500   6.73341e-29
      263.600   6.61212e-29
      263.700   6.49293e-29
      263.800   6.37586e-29
      263.900   6.26104e-29
      264.000   6.14824e-29
      264.100   6.03745e-29
      264.200   5.92864e-29
      264.300   5.82189e-29
      264.400   5.71704e-29
      264.500   5.61408e-29
      264.600   5.51294e-29
      264.700   5.41368e-29
      264.800   5.31621e-29
      264.900   5.22057e-29
      265.000   5.12662e-29
      265.100   5.03433e-29
      265.200   4.94376e-29
      265.300   4.85481e-29
      265.400   4.76753e-29
      265.500   4.68181e-29
      265.600   4.59764e-29
      265.700   4.51498e-29
      265.800   4.43393e-29
      265.900   4.35434e-29
      266.000   4.27625e-29
      266.100   4.19960e-29
      266.200   4.12429e-29
      266.300   4.05036e-29
      266.400   3.97778e-29
      266.500   3.90650e-29
      266.600   3.83656e-29
      266.700   3.76783e-29
      266.800   3.70044e-29
      266.900   3.63422e-29
      267.000   3.56922e-29
      267.100   3.50541e-29
      267.200   3.44280e-29
      267.300   3.38129e-29
      267.400   3.32087e-29
      267.500   3.26158e-29
      267.600   3.20336e-29
      267.700   3.14619e-29
      267.800   3.09006e-29
      267.900   3.03496e-29
      268.000   2.98089e-29
      268.100   2.92779e-29
      268.200   2.87566e-29
      268.300   2.82449e-29
      268.400   2.77421e-29
      268.500   2.72486e-29
      268.600   2.67640e-29
      268.700   2.62887e-29
      268.800   2.58215e-29
      268.900   2.53630e-29
      269.000   2.49129e-29
      269.100   2.44708e-29
      269.200   2.40370e-29
      269.300   2.36109e-29
      269.400   2.31925e-29
      269.500   2.27815e-29
      269.600   2.23784e-29
      269.700   2.19822e-29
      269.800   2.15935e-29
      269.900   2.12115e-29
      270.000   2.08370e-29
      270.100   2.04689e-29
      270.200   2.01080e-29
      270.300   1.97533e-29
      270.400   1.94049e-29
      270.500   1.90630e-29
      270.600   1.87272e-29
      270.700   1.83975e-29
      270.800   1.80738e-29
      270.900   1.77557e-29
      271.000   1.74434e-29
      271.100   1.71366e-29
      271.200   1.68353e-29
      271.300   1.65397e-29
      271.400   1.62490e-29
      271.500   1.59640e-29
      271.600   1.56836e-29
      271.700   1.54084e-29
      271.800   1.51381e-29
      271.900   1.48727e-29
      272.000   1.46120e-29
      272.100   1.43559e-29
      272.200   1.41043e-29
      272.300   1.38571e-29
      272.400   1.36144e-29
      272.500   1.33760e-29
      272.600   1.31418e-29
      272.700   1.29117e-29
      272.800   1.26857e-29
      272.900   1.24637e-29
      273.000   1.22457e-29
      273.100   1.20316e-29
      273.200   1.18212e-29
      273.300   1.16145e-29
      273.400   1.14114e-29
      273.500   1.12119e-29
      273.600   1.10159e-29
      273.700   1.08232e-29
      273.800   1.06340e-29
      273.900   1.04482e-29
      274.000   1.02657e-29
      274.100   1.00863e-29
      274.200   9.91003e-30
      274.300   9.73689e-30
      274.400   9.56564e-30
      274.500   9.39473e-30
      274.600   9.22639e-30
      274.700   9.06110e-30
      274.800   8.89877e-30
      274.900   8.73928e-30
      275.000   8.58261e-30
      275.100   8.42880e-30
      275.200   8.27766e-30
      275.300   8.12920e-30
      275.400   7.98350e-30
      275.500   7.84038e-30
      275.600   7.69972e-30
      275.700   7.56158e-30
      275.800   7.42594e-30
      275.900   7.29273e-30
      276.000   7.16190e-30
      276.100   7.03333e-30
      276.200   6.90701e-30
      276.300   6.78298e-30
      276.400   6.66116e-30
      276.500   6.54152e-30
      276.600   6.42401e-30
      276.700   6.30854e-30
      276.800   6.19516e-30
      276.900   6.08374e-30
      277.000   5.97436e-30
      277.100   5.86685e-30
      277.200   5.76131e-30
      277.300   5.65763e-30
      277.400   5.55580e-30
      277.500   5.45569e-30
      277.600   5.35746e-30
      277.700   5.26092e-30
      277.800   5.16602e-30
      277.900   5.07290e-30
      278.000   4.98148e-30
      278.100   4.89164e-30
      278.200   4.80337e-30
      278.300   4.71667e-30
      278.400   4.63154e-30
      278.500   4.54785e-30
      278.600   4.46567e-30
      278.700   4.38501e-30
      278.800   4.30577e-30
      278.900   4.22776e-30
      279.000   4.15112e-30
      279.100   4.07586e-30
      279.200   4.00188e-30
      279.300   3.92930e-30
      279.400   3.85793e-30
      279.500   3.78787e-30
      279.600   3.71907e-30
      279.700   3.65151e-30
      279.800   3.58516e-30
      279.900   3.51996e-30
      280.000   3.45594e-30
      280.100   3.39304e-30
      280.200   3.33130e-30
      280.300   3.27063e-30
      280.400   3.21107e-30
      280.500   3.15261e-30
      280.600   3.09517e-30
      280.700   3.03873e-30
      280.800   2.98333e-30
      280.900   2.92891e-30
      281.000   2.87546e-30
      281.100   2.82297e-30
      281.200   2.77143e-30
      281.300   2.72082e-30
      281.400   2.67114e-30
      281.500   2.62231e-30
      281.600   2.57435e-30
      281.700   2.52727e-30
      281.800   2.48106e-30
      281.900   2.43566e-30
      282.000   2.39109e-30
      282.100   2.34731e-30
      282.200   2.30435e-30
      282.300   2.26213e-30
      282.400   2.22069e-30
      282.500   2.17997e-30
      282.600   2.14001e-30
      282.700   2.10075e-30
      282.800   2.06221e-30
      282.900   2.02440e-30
      283.000   1.98725e-30
      283.100   1.95078e-30
      283.200   1.91500e-30
      283.300   1.87984e-30
      283.400   1.84533e-30
      283.500   1.81146e-30
      283.600   1.77819e-30
      283.700   1.74551e-30
      283.800   1.71344e-30
      283.900   1.68197e-30
      284.000   1.65104e-30
      284.100   1.62067e-30
      284.200   1.59086e-30
      284.300   1.56161e-30
      284.400   1.53289e-30
      284.500   1.50469e-30
      284.600   1.47701e-30
      284.700   1.44983e-30
      284.800   1.42316e-30
      284.900   1.39696e-30
      285.000   1.37123e-30
      285.100   1.34598e-30
      285.200   1.32121e-30
      285.300   1.29687e-30
      285.400   1.27299e-30
      285.500   1.24953e-30
      285.600   1.22654e-30
      285.700   1.20394e-30
      285.800   1.18177e-30
      285.900   1.16000e-30
      286.000   1.13863e-30
      286.100   1.11768e-30
      286.200   1.09710e-30
      286.300   1.07691e-30
      286.400   1.05709e-30
      286.500   1.03762e-30
      286.600   1.01851e-30
      286.700   9.99759e-31
      286.800   9.81359e-31
      286.900   9.63296e-31
      287.000   9.45560e-31
      287.100   9.28150e-31
      287.200   9.11070e-31
      287.300   8.94301e-31
      287.400   8.77840e-31
      287.500   8.61688e-31
      287.600   8.45839e-31
      287.700   8.30274e-31
      287.800   8.15002e-31
      287.900   8.00012e-31
      288.000   7.85303e-31
      288.100   7.70861e-31
      288.200   7.56700e-31
      288.300   7.42802e-31
      288.400   7.29161e-31
      288.500   7.15774e-31
      288.600   7.02626e-31
      288.700   6.89731e-31
      288.800   6.77069e-31
      288.900   6.64651e-31
      289.000   6.52459e-31
      289.100   6.40488e-31
      289.200   6.28741e-31
      289.300   6.17216e-31
      289.400   6.05902e-31
      289.500   5.94797e-31
      289.600   5.83897e-31
      289.700   5.73210e-31
      289.800   5.62709e-31
      289.900   5.52398e-31
      290.000   5.42295e-31
      290.100   5.32364e-31
      290.200   5.22638e-31
      290.300   5.13083e-31
      290.400   5.03707e-31
      290.500   4.94512e-31
      290.600   4.85479e-31
      290.700   4.76614e-31
      290.800   4.67920e-31
      290.900   4.59384e-31
      291.000   4.50999e-31
      291.100   4.42770e-31
      291.200   4.34698e-31
      291.300   4.26773e-31
      291.400   4.18998e-31
      291.500   4.11362e-31
      291.600   4.03867e-31
      291.700   3.96515e-31
      291.800   3.89294e-31
      291.900   3.82215e-31
      292.000   3.75272e-31
      292.100   3.68454e-31
      292.200   3.61761e-31
      292.300   3.55188e-31
      292.400   3.48738e-31
      292.500   3.42405e-31
      292.600   3.36189e-31
      292.700   3.30088e-31
      292.800   3.24099e-31
      292.900   3.18220e-31
      293.000   3.12449e-31
      293.100   3.06785e-31
      293.200   3.01223e-31
      293.300   2.95761e-31
      293.400   2.90407e-31
      293.500   2.85150e-31
      293.600   2.79991e-31
      293.700   2.74924e-31
      293.800   2.69953e-31
      293.900   2.65072e-31
      294.000   2.60278e-31
      294.100   2.55574e-31
      294.200   2.50957e-31
      294.300   2.46425e-31
      294.400   2.41973e-31
      294.500   2.37602e-31
      294.600   2.33309e-31
      294.700   2.29098e-31
      294.800   2.24961e-31
      294.900   2.20900e-31
      295.000   2.16918e-31
      295.100   2.13010e-31
      295.200   2.09171e-31
      295.300   2.05399e-31
      295.400   2.01698e-31
      295.500   1.98065e-31
      295.600   1.94496e-31
      295.700   1.90993e-31
      295.800   1.87553e-31
      295.900   1.84172e-31
      296.000   1.80856e-31
      296.100   1.77597e-31
      296.200   1.74399e-31
      296.300   1.71260e-31
      296.400   1.68183e-31
      296.500   1.65155e-31
      296.600   1.62186e-31
      296.700   1.59269e-31
      296.800   1.56405e-31
      296.900   1.53592e-31
      297.000   1.50829e-31
      297.100   1.48115e-31
      297.200   1.45451e-31
      297.300   1.42835e-31
      297.400   1.40266e-31
      297.500   1.37742e-31
      297.600   1.35266e-31
      297.700   1.32835e-31
      297.800   1.30448e-31
      297.900   1.28104e-31
      298.000   1.25803e-31
      298.100   1.23542e-31
      298.200   1.21321e-31
      298.300   1.19141e-31
      298.400   1.16998e-31
      298.500   1.14894e-31
      298.600   1.12828e-31
      298.700   1.10798e-31
      298.800   1.08804e-31
      298.900   1.06848e-31
      299.000   1.04929e-31
      299.100   1.03043e-31
      299.200   1.01190e-31
      299.300   9.93700e-32
      299.400   9.75827e-32
      299.500   9.58273e-32
      299.600   9.41029e-32
      299.700   9.24089e-32
      299.800   9.07448e-32
      299.900   8.91113e-32
      300.000   8.75064e-32
      300.100   8.59303e-32
      300.192   8.45064e-32
      300.285   8.30886e-32
      300.377   8.17111e-32
      300.470   8.03421e-32
      300.562   7.90094e-32
      300.654   7.76984e-32
      300.747   7.63951e-32
      300.839   7.51276e-32
      300.932   7.38661e-32
      301.025   7.26265e-32
      301.117   7.14212e-32
      301.210   7.02209e-32
      301.303   6.90425e-32
      301.395   6.78960e-32
      301.488   6.67545e-32
      301.581   6.56330e-32
      301.674   6.45300e-32
      301.766   6.34562e-32
      301.859   6.23890e-32
      301.952   6.13400e-32
      302.045   6.03082e-32
      302.138   5.93817e-32
      302.231   5.86678e-32
      302.324   5.79708e-32
      302.417   5.72829e-32
      302.510   5.66017e-32
      302.603   5.59298e-32
      302.696   5.52643e-32
      302.789   5.46065e-32
      302.882   5.39563e-32
      302.976   5.33080e-32
      303.069   5.26731e-32
      303.162   5.20454e-32
      303.255   5.14246e-32
      303.349   5.08048e-32
      303.442   5.01984e-32
      303.535   4.95992e-32
      303.629   4.90005e-32
      303.722   4.84152e-32
      303.816   4.78309e-32
      303.909   4.72586e-32
      304.003   4.66872e-32
      304.096   4.61287e-32
      304.190   4.55705e-32
      304.283   4.50244e-32
      304.377   4.44792e-32
      304.471   4.39398e-32
      304.564   4.34126e-32
      304.658   4.28866e-32
      304.752   4.23659e-32
      304.846   4.18516e-32
      304.939   4.13486e-32
      305.033   4.08461e-32
      305.127   4.03493e-32
      305.221   3.98584e-32
      305.315   3.93739e-32
      305.409   3.88940e-32
      305.503   3.84204e-32
      305.597   3.79526e-32
      305.691   3.74897e-32
      305.785   3.70327e-32
      305.879   3.65805e-32
      305.973   3.61339e-32
      306.067   3.56924e-32
      306.161   3.52563e-32
      306.255   3.48253e-32
      306.350   3.43948e-32
      306.444   3.39737e-32
      306.538   3.35580e-32
      306.633   3.31429e-32
      306.727   3.27368e-32
      306.821   3.23356e-32
      306.916   3.19349e-32
      307.010   3.15510e-32
      307.105   3.11928e-32
      307.199   3.08462e-32
      307.294   3.04995e-32
      307.388   3.01605e-32
      307.483   2.98216e-32
      307.577   2.94898e-32
      307.672   2.91580e-32
      307.767   2.88299e-32
      307.861   2.85086e-32
      307.956   2.81871e-32
      308.051   2.78694e-32
      308.146   2.75554e-32
      308.240   2.72477e-32
      308.335   2.69401e-32
      308.430   2.66356e-32
      308.525   2.63349e-32
      308.620   2.60374e-32
      308.715   2.57431e-32
      308.810   2.54522e-32
      308.905   2.51642e-32
      309.000   2.48792e-32
      309.095   2.45976e-32
      309.190   2.43193e-32
      309.285   2.40439e-32
      309.380   2.37715e-32
      309.476   2.34995e-32
      309.571   2.32330e-32
      309.666   2.29695e-32
      309.761   2.27091e-32
      309.857   2.24488e-32
      309.952   2.21938e-32
      310.047   2.19419e-32
      310.143   2.16902e-32
      310.238   2.14439e-32
      310.334   2.11977e-32
      310.429   2.09569e-32
      310.525   2.07161e-32
      310.620   2.04807e-32
      310.716   2.02454e-32
      310.811   2.00155e-32
      310.907   1.97855e-32
      311.003   1.95581e-32
      311.098   1.93355e-32
      311.194   1.91132e-32
      311.290   1.88938e-32
      311.386   1.86766e-32
      311.481   1.84641e-32
      311.577   1.82517e-32
      311.673   1.80419e-32
      311.769   1.78345e-32
      311.865   1.76293e-32
      311.961   1.74271e-32
      312.057   1.72293e-32
      312.153   1.70348e-32
      312.249   1.68422e-32
      312.345   1.66521e-32
      312.441   1.64639e-32
      312.537   1.62780e-32
      312.633   1.60942e-32
      312.730   1.59104e-32
      312.826   1.57307e-32
      312.922   1.55530e-32
      313.018   1.53774e-32
      313.115   1.52020e-32
      313.211   1.50302e-32
      313.307   1.48606e-32
      313.404   1.46911e-32
      313.500   1.45253e-32
      313.597   1.43598e-32
      313.693   1.41978e-32
      313.790   1.40360e-32
      313.886   1.38777e-32
      313.983   1.37195e-32
      314.079   1.35648e-32
      314.176   1.34103e-32
      314.273   1.32576e-32
      314.369   1.31084e-32
      314.466   1.29593e-32
      314.563   1.28119e-32
      314.660   1.26661e-32
      314.756   1.25235e-32
      314.853   1.23811e-32
      314.950   1.22404e-32
      315.047   1.21014e-32
      315.144   1.19640e-32
      315.241   1.18281e-32
      315.338   1.16939e-32
      315.435   1.15612e-32
      315.532   1.14300e-32
      315.629   1.13004e-32
      315.726   1.11724e-32
      315.823   1.10457e-32
      315.921   1.09193e-32
      316.018   1.07957e-32
      316.115   1.06735e-32
      316.212   1.05527e-32
      316.310   1.04321e-32
      316.407   1.03141e-32
      316.504   1.01976e-32
      316.602   1.00812e-32
      316.699   9.96742e-33
      316.796   9.85480e-33
      316.894   9.74250e-33
      316.991   9.63281e-33
      317.089   9.52456e-33
      317.187   9.41831e-33
      317.284   9.31433e-33
      317.382   9.21046e-33
      317.479   9.10878e-33
      317.577   9.00726e-33
      317.675   8.90694e-33
      317.773   8.80775e-33
      317.870   8.71079e-33
      317.968   8.61389e-33
      318.066   8.51808e-33
      318.164   8.42341e-33
      318.262   8.32983e-33
      318.360   8.23735e-33
      318.458   8.14599e-33
      318.556   8.05574e-33
      318.654   7.96645e-33
      318.752   7.87813e-33
      318.850   7.79093e-33
      318.948   7.70468e-33
      319.046   7.61945e-33
      319.144   7.53517e-33
      319.242   7.45188e-33
      319.341   7.36875e-33
      319.439   7.28739e-33
      319.537   7.20703e-33
      319.635   7.12754e-33
      319.734   7.04814e-33
      319.832   6.97051e-33
      319.930   6.89370e-33
      320.029   6.81703e-33
      320.127   6.74204e-33
      320.226   6.66717e-33
      320.324   6.59386e-33
      320.423   6.52061e-33
      320.522   6.44836e-33
      320.620   6.37760e-33
      320.719   6.30687e-33
      320.818   6.23704e-33
      320.916   6.16868e-33
      321.015   6.10041e-33
      321.114   6.03290e-33
      321.213   5.96619e-33
      321.311   5.90096e-33
      321.410   5.83580e-33
      321.509   5.77131e-33
      321.608   5.70762e-33
      321.707   5.64466e-33
      321.806   5.58242e-33
      321.905   5.52089e-33
      322.004   5.46007e-33
      322.103   5.39995e-33
      322.202   5.34045e-33
      322.301   5.28171e-33
      322.401   5.22306e-33
      322.500   5.16565e-33
      322.599   5.10889e-33
      322.698   5.05274e-33
      322.798   4.99668e-33
      322.897   4.94184e-33
      322.996   4.88762e-33
      323.096   4.83344e-33
      323.195   4.78044e-33
      323.294   4.72799e-33
      323.394   4.67564e-33
      323.493   4.62442e-33
      323.593   4.57331e-33
      323.692   4.52323e-33
      323.792   4.47320e-33
      323.892   4.42374e-33
      323.991   4.37532e-33
      324.091   4.32703e-33
      324.191   4.27925e-33
      324.291   4.23199e-33
      324.390   4.18575e-33
      324.490   4.13957e-33
      324.590   4.09389e-33
      324.690   4.04872e-33
      324.790   4.00407e-33
      324.890   3.95994e-33
      324.990   3.91631e-33
      325.090   3.87315e-33
      325.190   3.83044e-33
      325.290   3.78826e-33
      325.390   3.74650e-33
      325.490   3.70526e-33
      325.590   3.66448e-33
      325.690   3.62407e-33
      325.790   3.58415e-33
      325.891   3.54430e-33
      325.991   3.50529e-33
      326.091   3.46668e-33
      326.192   3.42814e-33
      326.292   3.39041e-33
      326.392   3.35311e-33
      326.493   3.31585e-33
      326.593   3.27934e-33
      326.694   3.24291e-33
      326.794   3.20720e-33
      326.895   3.17155e-33
      326.995   3.13665e-33
      327.096   3.10178e-33
      327.197   3.06729e-33
      327.297   3.03353e-33
      327.398   2.99982e-33
      327.499   2.96648e-33
      327.599   2.93382e-33
      327.700   2.90119e-33
      327.801   2.86891e-33
      327.902   2.83702e-33
      328.003   2.80546e-33
      328.104   2.77426e-33
      328.205   2.74341e-33
      328.306   2.71289e-33
      328.407   2.68270e-33
      328.508   2.65282e-33
      328.609   2.62327e-33
      328.710   2.59404e-33
      328.811   2.56514e-33
      328.912   2.53658e-33
      329.013   2.50830e-33
      329.115   2.48009e-33
      329.216   2.45245e-33
      329.317   2.42507e-33
      329.419   2.39777e-33
      329.520   2.37102e-33
      329.621   2.34452e-33
      329.723   2.31808e-33
      329.824   2.29221e-33
      329.926   2.26635e-33
      330.027   2.24102e-33
      330.129   2.21572e-33
      330.230   2.19095e-33
      330.332   2.16619e-33
      330.434   2.14170e-33
      330.535   2.11773e-33
      330.637   2.09377e-33
      330.739   2.07007e-33
      330.840   2.04686e-33
      330.942   2.02368e-33
      331.044   2.00076e-33
      331.146   1.97807e-33
      331.248   1.95564e-33
      331.350   1.93347e-33
      331.452   1.91154e-33
      331.554   1.89031e-33
      331.656   1.86998e-33
      331.758   1.84988e-33
      331.860   1.82996e-33
      331.962   1.81027e-33
      332.064   1.79078e-33
      332.166   1.77151e-33
      332.268   1.75241e-33
      332.371   1.73333e-33
      332.473   1.71462e-33
      332.575   1.69610e-33
      332.677   1.67778e-33
      332.780   1.65947e-33
      332.882   1.64153e-33
      332.985   1.62360e-33
      333.087   1.60602e-33
      333.190   1.58847e-33
      333.292   1.57105e-33
      333.395   1.55308e-33
      333.497   1.53528e-33
      333.600   1.51752e-33
      333.702   1.50011e-33
      333.805   1.48273e-33
      333.908   1.46553e-33
      334.011   1.44854e-33
      334.113   1.43188e-33
      334.216   1.41525e-33
      334.319   1.39882e-33
      334.422   1.38254e-33
      334.525   1.36646e-33
      334.628   1.35055e-33
      334.731   1.33482e-33
      334.834   1.31928e-33
      334.937   1.30390e-33
      335.040   1.28868e-33
      335.143   1.27365e-33
      335.246   1.25877e-33
      335.349   1.24406e-33
      335.452   1.22951e-33
      335.555   1.21513e-33
      335.659   1.20077e-33
      335.762   1.18672e-33
      335.865   1.17283e-33
      335.969   1.15895e-33
      336.072   1.14534e-33
      336.175   1.13190e-33
      336.279   1.11848e-33
      336.382   1.10535e-33
      336.486   1.09223e-33
      336.589   1.07938e-33
      336.693   1.06657e-33
      336.796   1.05401e-33
      336.900   1.04149e-33
      337.004   1.02909e-33
      337.107   1.01696e-33
      337.211   1.00485e-33
      337.315   9.92898e-34
      337.419   9.81057e-34
      337.523   9.69346e-34
      337.626   9.57891e-34
      337.730   9.46476e-34
      337.834   9.35165e-34
      337.938   9.24004e-34
      338.042   9.12988e-34
      338.146   9.02207e-34
      338.250   8.91566e-34
      338.354   8.81048e-34
      338.458   8.70641e-34
      338.562   8.60359e-34
      338.667   8.50094e-34
      338.771   8.40039e-34
      338.875   8.30106e-34
      338.979   8.20283e-34
      339.084   8.10491e-34
      339.188   8.00889e-34
      339.292   7.91414e-34
      339.397   7.81941e-34
      339.501   7.72681e-34
      339.606   7.63434e-34
      339.710   7.54379e-34
      339.815   7.45351e-34
      339.919   7.36513e-34
      340.024   7.27685e-34
      340.128   7.19052e-34
      340.233   7.10433e-34
      340.338   7.01923e-34
      340.442   6.93581e-34
      340.547   6.85265e-34
      340.652   6.77045e-34
      340.757   6.68917e-34
      340.862   6.60889e-34
      340.966   6.53034e-34
      341.071   6.45182e-34
      341.176   6.37434e-34
      341.281   6.29778e-34
      341.386   6.22221e-34
      341.491   6.14740e-34
      341.596   6.07364e-34
      341.702   5.99998e-34
      341.807   5.92780e-34
      341.912   5.85659e-34
      342.017   5.78627e-34
      342.122   5.71669e-34
      342.228   5.64728e-34
      342.333   5.57941e-34
      342.438   5.51234e-34
      342.544   5.44548e-34
      342.649   5.37995e-34
      342.754   5.31536e-34
      342.860   5.25080e-34
      342.965   5.18764e-34
      343.071   5.12475e-34
      343.176   5.06316e-34
      343.282   5.00169e-34
      343.388   4.94104e-34
      343.493   4.88194e-34
      343.599   4.82561e-34
      343.705   4.77029e-34
      343.810   4.71599e-34
      343.916   4.66184e-34
      344.022   4.60840e-34
      344.128   4.55550e-34
      344.234   4.50320e-34
      344.340   4.45158e-34
      344.446   4.40046e-34
      344.552   4.34998e-34
      344.658   4.30019e-34
      344.764   4.25088e-34
      344.870   4.20217e-34
      344.976   4.15401e-34
      345.082   4.10642e-34
      345.188   4.05943e-34
      345.294   4.01293e-34
      345.401   3.96656e-34
      345.507   3.92117e-34
      345.613   3.87632e-34
      345.719   3.83199e-34
      345.826   3.78778e-34
      345.932   3.74447e-34
      346.039   3.70130e-34
      346.145   3.65898e-34
      346.252   3.61683e-34
      346.358   3.57556e-34
      346.465   3.53435e-34
      346.571   3.49404e-34
      346.678   3.45381e-34
      346.785   3.41406e-34
      346.891   3.37515e-34
      346.998   3.33635e-34
      347.105   3.29805e-34
      347.212   3.26013e-34
      347.319   3.22271e-34
      347.425   3.18601e-34
      347.532   3.14945e-34
      347.639   3.11335e-34
      347.746   3.07763e-34
      347.853   3.04240e-34
      347.960   3.00750e-34
      348.067   2.97311e-34
      348.174   2.93913e-34
      348.281   2.90545e-34
      348.389   2.87196e-34
      348.496   2.83908e-34
      348.603   2.80669e-34
      348.710   2.77461e-34
      348.818   2.74270e-34
      348.925   2.71138e-34
      349.032   2.68049e-34
      349.140   2.64960e-34
      349.247   2.61936e-34
      349.355   2.58926e-34
      349.462   2.55975e-34
      349.570   2.53029e-34
      349.677   2.50150e-34
      349.785   2.47275e-34
      349.892   2.44464e-34
      350.000   2.41661e-34
      350.100   2.39093e-34
      350.193   2.36734e-34
      350.287   2.34372e-34
      350.380   2.32057e-34
      350.473   2.29769e-34
      350.567   2.27478e-34
      350.660   2.25236e-34
      350.754   2.22992e-34
      350.847   2.20800e-34
      350.941   2.18602e-34
      351.034   2.16451e-34
      351.128   2.14300e-34
      351.221   2.12194e-34
      351.315   2.10090e-34
      351.409   2.08002e-34
      351.502   2.05962e-34
      351.596   2.03917e-34
      351.690   2.01896e-34
      351.783   1.99918e-34
      351.877   1.97941e-34
      351.971   1.95979e-34
      352.065   1.94041e-34
      352.159   1.92124e-34
      352.252   1.90244e-34
      352.346   1.88364e-34
      352.440   1.86503e-34
      352.534   1.84664e-34
      352.628   1.82843e-34
      352.722   1.81039e-34
      352.816   1.79254e-34
      352.910   1.77488e-34
      353.004   1.75740e-34
      353.098   1.74009e-34
      353.192   1.72296e-34
      353.287   1.70584e-34
      353.381   1.68907e-34
      353.475   1.67248e-34
      353.569   1.65603e-34
      353.663   1.63976e-34
      353.758   1.62352e-34
      353.852   1.60760e-34
      353.946   1.59184e-34
      354.041   1.57606e-34
      354.135   1.56061e-34
      354.229   1.54532e-34
      354.324   1.53005e-34
      354.418   1.51505e-34
      354.513   1.50006e-34
      354.607   1.48542e-34
      354.702   1.47069e-34
      354.796   1.45617e-34
      354.891   1.44160e-34
      354.985   1.42735e-34
      355.080   1.41309e-34
      355.175   1.39899e-34
      355.269   1.38515e-34
      355.364   1.37133e-34
      355.459   1.35765e-34
      355.553   1.34426e-34
      355.648   1.33085e-34
      355.743   1.31759e-34
      355.838   1.30445e-34
      355.933   1.29147e-34
      356.027   1.27875e-34
      356.122   1.26601e-34
      356.217   1.25341e-34
      356.312   1.24094e-34
      356.407   1.22860e-34
      356.502   1.21638e-34
      356.597   1.20427e-34
      356.692   1.19232e-34
      356.787   1.18047e-34
      356.882   1.16873e-34
      356.977   1.15713e-34
      357.073   1.14553e-34
      357.168   1.13414e-34
      357.263   1.12288e-34
      357.358   1.11174e-34
      357.453   1.10071e-34
      357.549   1.08968e-34
      357.644   1.07887e-34
      357.739   1.06817e-34
      357.835   1.05748e-34
      357.930   1.04700e-34
      358.025   1.03661e-34
      358.121   1.02623e-34
      358.216   1.01606e-34
      358.312   1.00588e-34
      358.407   9.95923e-35
      358.503   9.85952e-35
      358.598   9.76199e-35
      358.694   9.66432e-35
      358.790   9.56761e-35
      358.885   9.47281e-35
      358.981   9.37809e-35
      359.076   9.28520e-35
      359.172   9.19241e-35
      359.268   9.10037e-35
      359.364   9.00928e-35
      359.459   8.92021e-35
      359.555   8.83107e-35
      359.651   8.74269e-35
      359.747   8.65526e-35
      359.843   8.56874e-35
      359.939   8.48299e-35
      360.035   8.39819e-35
      360.131   8.31419e-35
      360.227   8.23102e-35
      360.323   8.14874e-35
      360.419   8.06728e-35
      360.515   7.98663e-35
      360.611   7.90676e-35
      360.707   7.82760e-35
      360.803   7.74934e-35
      360.899   7.67176e-35
      360.995   7.59513e-35
      361.092   7.51836e-35
      361.188   7.44312e-35
      361.284   7.36866e-35
      361.380   7.29496e-35
      361.477   7.22117e-35
      361.573   7.14894e-35
      361.669   7.07737e-35
      361.766   7.00569e-35
      361.862   6.93558e-35
      361.959   6.86544e-35
      362.055   6.79654e-35
      362.152   6.72779e-35
      362.248   6.66032e-35
      362.345   6.59281e-35
      362.441   6.52679e-35
      362.538   6.46070e-35
      362.635   6.39524e-35
      362.731   6.33102e-35
      362.828   6.26676e-35
      362.925   6.20322e-35
      363.021   6.14098e-35
      363.118   6.07866e-35
      363.215   6.01690e-35
      363.312   5.95578e-35
      363.409   5.89533e-35
      363.505   5.83603e-35
      363.602   5.77668e-35
      363.699   5.71802e-35
      363.796   5.65984e-35
      363.893   5.60225e-35
      363.990   5.54523e-35
      364.087   5.48876e-35
      364.184   5.43288e-35
      364.281   5.37753e-35
      364.378   5.32278e-35
      364.475   5.26851e-35
      364.573   5.21416e-35
      364.670   5.16094e-35
      364.767   5.10830e-35
      364.864   5.05615e-35
      364.961   5.00448e-35
      365.059   4.95283e-35
      365.156   4.90221e-35
      365.253   4.85207e-35
      365.351   4.80190e-35
      365.448   4.75273e-35
      365.545   4.70409e-35
      365.643   4.65538e-35
      365.740   4.60764e-35
      365.838   4.55991e-35
      365.935   4.51313e-35
      366.033   4.46637e-35
      366.130   4.42048e-35
      366.228   4.37460e-35
      366.326   4.32919e-35
      366.423   4.28465e-35
      366.521   4.24010e-35
      366.618   4.19642e-35
      366.716   4.15272e-35
      366.814   4.10949e-35
      366.912   4.06670e-35
      367.010   4.02433e-35
      367.107   3.98280e-35
      367.205   3.94123e-35
      367.303   3.90007e-35
      367.401   3.85933e-35
      367.499   3.81899e-35
      367.597   3.77906e-35
      367.695   3.73950e-35
      367.793   3.70036e-35
      367.891   3.66164e-35
      367.989   3.62327e-35
      368.087   3.58529e-35
      368.185   3.54766e-35
      368.283   3.51042e-35
      368.381   3.47355e-35
      368.480   3.43667e-35
      368.578   3.40053e-35
      368.676   3.36477e-35
      368.774   3.32937e-35
      368.873   3.29397e-35
      368.971   3.25927e-35
      369.069   3.22494e-35
      369.168   3.19055e-35
      369.266   3.15685e-35
      369.364   3.12352e-35
      369.463   3.09021e-35
      369.561   3.05755e-35
      369.660   3.02488e-35
      369.758   2.99286e-35
      369.857   2.96087e-35
      369.955   2.92951e-35
      370.054   2.89812e-35
      370.153   2.86705e-35
      370.251   2.83663e-35
      370.350   2.80622e-35
      370.449   2.77613e-35
      370.547   2.74662e-35
      370.646   2.71709e-35
      370.745   2.68790e-35
      370.844   2.65899e-35
      370.943   2.63038e-35
      371.041   2.60236e-35
      371.140   2.57431e-35
      371.239   2.54655e-35
      371.338   2.51912e-35
      371.437   2.49194e-35
      371.536   2.46503e-35
      371.635   2.43840e-35
      371.734   2.41207e-35
      371.833   2.38600e-35
      371.932   2.36019e-35
      372.032   2.33440e-35
      372.131   2.30911e-35
      372.230   2.28411e-35
      372.329   2.25938e-35
      372.428   2.23489e-35
      372.528   2.21042e-35
      372.627   2.18646e-35
      372.726   2.16274e-35
      372.826   2.13904e-35
      372.925   2.11582e-35
      373.024   2.09283e-35
      373.124   2.06984e-35
      373.223   2.04733e-35
      373.323   2.02485e-35
      373.422   2.00281e-35
      373.522   1.98077e-35
      373.621   1.95921e-35
      373.721   1.93764e-35
      373.820   1.91651e-35
      373.920   1.89539e-35
      374.020   1.87450e-35
      374.119   1.85403e-35
      374.219   1.83357e-35
      374.319   1.81335e-35
      374.419   1.79333e-35
      374.518   1.77372e-35
      374.618   1.75412e-35
      374.718   1.73471e-35
      374.818   1.71553e-35
      374.918   1.69656e-35
      375.018   1.67778e-35
      375.118   1.65922e-35
      375.218   1.64083e-35
      375.318   1.62266e-35
      375.418   1.60467e-35
      375.518   1.58689e-35
      375.618   1.56930e-35
      375.718   1.55188e-35
      375.818   1.53465e-35
      375.918   1.51762e-35
      376.019   1.50061e-35
      376.119   1.48395e-35
      376.219   1.46746e-35
      376.319   1.45115e-35
      376.420   1.43486e-35
      376.520   1.41890e-35
      376.620   1.40313e-35
      376.721   1.38736e-35
      376.821   1.37192e-35
      376.922   1.35650e-35
      377.022   1.34139e-35
      377.122   1.32647e-35
      377.223   1.31155e-35
      377.323   1.29694e-35
      377.424   1.28234e-35
      377.525   1.26792e-35
      377.625   1.25378e-35
      377.726   1.23967e-35
      377.827   1.22571e-35
      377.927   1.21204e-35
      378.028   1.19840e-35
      378.129   1.18490e-35
      378.230   1.17439e-35
      378.330   1.16841e-35
      378.431   1.16313e-35
      378.532   1.15788e-35
      378.633   1.15264e-35
      378.734   1.14744e-35
      378.835   1.14225e-35
      378.936   1.13708e-35
      379.037   1.13193e-35
      379.138   1.12678e-35
      379.239   1.12167e-35
      379.340   1.11660e-35
      379.441   1.11154e-35
      379.542   1.10649e-35
      379.643   1.10146e-35
      379.745   1.09641e-35
      379.846   1.09143e-35
      379.947   1.08645e-35
      380.048   1.08152e-35
      380.150   1.07655e-35
      380.251   1.07165e-35
      380.352   1.06677e-35
      380.454   1.06187e-35
      380.555   1.05703e-35
      380.656   1.05221e-35
      380.758   1.04737e-35
      380.859   1.04259e-35
      380.961   1.03779e-35
      381.062   1.03306e-35
      381.164   1.02830e-35
      381.266   1.02356e-35
      381.367   1.01890e-35
      381.469   1.01421e-35
      381.570   1.00958e-35
      381.672   1.00493e-35
      381.774   1.00030e-35
      381.876   9.95688e-36
      381.977   9.91149e-36
      382.079   9.86578e-36
      382.181   9.82030e-36
      382.283   9.77512e-36
      382.385   9.73007e-36
      382.487   9.68530e-36
      382.589   9.64067e-36
      382.691   9.59623e-36
      382.793   9.55206e-36
      382.895   9.50814e-36
      382.997   9.46442e-36
      383.099   9.42085e-36
      383.201   9.37749e-36
      383.303   9.33444e-36
      383.405   9.29144e-36
      383.507   9.24863e-36
      383.610   9.20575e-36
      383.712   9.16344e-36
      383.814   9.12135e-36
      383.916   9.07955e-36
      384.019   9.03744e-36
      384.121   8.99601e-36
      384.223   8.95464e-36
      384.326   8.91657e-36
      384.428   8.88745e-36
      384.531   8.86065e-36
      384.633   8.83424e-36
      384.736   8.80765e-36
      384.838   8.78131e-36
      384.941   8.75489e-36
      385.043   8.72878e-36
      385.146   8.70267e-36
      385.249   8.67649e-36
      385.351   8.65065e-36
      385.454   8.62474e-36
      385.557   8.59888e-36
      385.660   8.57317e-36
      385.762   8.54777e-36
      385.865   8.52222e-36
      385.968   8.49672e-36
      386.071   8.47137e-36
      386.174   8.44606e-36
      386.277   8.42085e-36
      386.380   8.39574e-36
      386.483   8.37069e-36
      386.586   8.34592e-36
      386.689   8.32111e-36
      386.792   8.29637e-36
      386.895   8.27172e-36
      386.998   8.24722e-36
      387.101   8.22274e-36
      387.204   8.19830e-36
      387.308   8.17389e-36
      387.411   8.14977e-36
      387.514   8.12569e-36
      387.617   8.10168e-36
      387.721   8.07756e-36
      387.824   8.05381e-36
      387.927   8.03011e-36
      388.031   8.00626e-36
      388.134   7.98272e-36
      388.238   7.95911e-36
      388.341   7.93575e-36
      388.445   7.91234e-36
      388.548   7.88913e-36
      388.652   7.86596e-36
      388.755   7.84300e-36
      388.859   7.81985e-36
      388.962   7.79704e-36
      389.066   7.77409e-36
      389.170   7.75127e-36
      389.274   7.72859e-36
      389.377   7.70626e-36
      389.481   7.68365e-36
      389.585   7.66117e-36
      389.689   7.63875e-36
      389.793   7.61650e-36
      389.897   7.59426e-36
      390.000   7.57242e-36
      390.104   7.55041e-36
      390.208   7.52843e-36
      390.312   7.50656e-36
      390.416   7.48472e-36
      390.520   7.46289e-36
      390.625   7.44100e-36
      390.729   7.41931e-36
      390.833   7.39775e-36
      390.937   7.37628e-36
      391.041   7.35489e-36
      391.145   7.33348e-36
      391.250   7.31208e-36
      391.354   7.29089e-36
      391.458   7.26978e-36
      391.563   7.24858e-36
      391.667   7.22768e-36
      391.771   7.20687e-36
      391.876   7.18595e-36
      391.980   7.16523e-36
      392.085   7.14443e-36
      392.189   7.12395e-36
      392.294   7.10334e-36
      392.398   7.08298e-36
      392.503   7.06252e-36
      392.607   7.04226e-36
      392.712   7.02203e-36
      392.817   7.00171e-36
      392.921   6.98182e-36
      393.026   6.96169e-36
      393.131   6.94170e-36
      393.236   6.92170e-36
      393.340   6.90211e-36
      393.445   6.88239e-36
      393.550   6.86262e-36
      393.655   6.84301e-36
      393.760   6.82344e-36
      393.865   6.80402e-36
      393.970   6.78456e-36
      394.075   6.76521e-36
      394.180   6.74603e-36
      394.285   6.72687e-36
      394.390   6.70767e-36
      394.495   6.68860e-36
      394.600   6.66965e-36
      394.706   6.65053e-36
      394.811   6.63175e-36
      394.916   6.61285e-36
      395.021   6.59414e-36
      395.126   6.57551e-36
      395.232   6.55673e-36
      395.337   6.53814e-36
      395.443   6.51954e-36
      395.548   6.50109e-36
      395.653   6.48269e-36
      395.759   6.46430e-36
      395.864   6.44613e-36
      395.970   6.42781e-36
      396.075   6.40971e-36
      396.181   6.39150e-36
      396.286   6.37343e-36
      396.392   6.35540e-36
      396.498   6.33742e-36
      396.603   6.31953e-36
      396.709   6.30158e-36
      396.815   6.28361e-36
      396.921   6.26580e-36
      397.026   6.24821e-36
      397.132   6.23056e-36
      397.238   6.21292e-36
      397.344   6.19531e-36
      397.450   6.17781e-36
      397.556   6.16030e-36
      397.662   6.14284e-36
      397.768   6.12545e-36
      397.874   6.10823e-36
      397.980   6.09083e-36
      398.086   6.07367e-36
      398.192   6.05641e-36
      398.298   6.03924e-36
      398.404   6.02227e-36
      398.510   6.00519e-36
      398.617   5.98799e-36
      398.723   5.97104e-36
      398.829   5.95414e-36
      398.935   5.93721e-36
      399.042   5.92033e-36
      399.148   5.90349e-36
      399.255   5.88658e-36
      399.361   5.86988e-36
      399.467   5.85319e-36
      399.574   5.83649e-36
      399.680   5.81985e-36
      399.787   5.80307e-36
      399.893       0.00000
      400.000       0.00000
