Filter Al-thick
observation_date 07-Jan-2024 05:00:00
wavelength effective area
      1.00000   2.52795e-10
      1.10000   6.99229e-10
      1.20000   1.75055e-09
      1.30000   4.00498e-09
      1.40000   8.63380e-09
      1.50000   1.73694e-08
      1.60000   3.28986e-08
      1.70000   5.92525e-08
      1.80000   1.01462e-07
      1.90000   1.66195e-07
      2.00000   2.60858e-07
      2.10000   3.93880e-07
      2.20000   5.74554e-07
      2.30000   8.08468e-07
      2.40000   1.09906e-06
      2.50000   1.43829e-06
      2.60000   1.85760e-06
      2.70000   2.31627e-06
      2.80000   2.80043e-06
      2.90000   3.30629e-06
      3.00000   3.79633e-06
      3.10000   4.24816e-06
      3.20000   4.64011e-06
      3.30000   4.94972e-06
      3.40000   5.15570e-06
      3.50000   5.24790e-06
      3.60000   5.23771e-06
      3.70000   5.10604e-06
      3.80000   4.88244e-06
      3.90000   4.57712e-06
      4.00000   4.20436e-06
      4.10000   3.78819e-06
      4.20000   3.35141e-06
      4.30000   2.91247e-06
      4.40000   2.48711e-06
      4.50000   2.08685e-06
      4.60000   1.71940e-06
      4.70000   1.39578e-06
      4.80000   1.11456e-06
      4.90000   8.65596e-07
      5.00000   6.79447e-07
      5.10000   5.18137e-07
      5.20000   3.90500e-07
      5.30000   2.87327e-07
      5.40000   2.08024e-07
      5.50000   1.48811e-07
      5.60000   1.01546e-07
      5.70000   7.18239e-08
      5.80000   4.51040e-08
      5.90000   3.65224e-08
      6.00000   2.56913e-08
      6.10000   1.69450e-08
      6.20000   1.07765e-08
      6.30000   6.45924e-09
      6.40000   3.64523e-09
      6.50000   1.94361e-09
      6.60000   9.72806e-10
      6.70000   4.69113e-10
      6.80000   2.19157e-10
      6.90000   1.31979e-10
      7.00000   6.58721e-11
      7.10000   3.13711e-11
      7.20000   1.44684e-11
      7.30000   6.57868e-12
      7.40000   3.04565e-12
      7.50000   1.35074e-12
      7.60000   5.71931e-13
      7.70000   2.49665e-13
      7.80000   1.02935e-13
      7.90000   4.14774e-14
      8.00000     0.0716041
      8.10000     0.0716482
      8.20000     0.0663789
      8.30000     0.0610791
      8.40000     0.0561512
      8.50000     0.0514700
      8.60000     0.0470676
      8.70000     0.0428975
      8.80000     0.0390000
      8.90000     0.0353301
      9.00000     0.0319159
      9.10000     0.0287500
      9.20000     0.0258043
      9.30000     0.0231196
      9.40000     0.0206458
      9.50000     0.0183712
      9.60000     0.0163251
      9.70000     0.0144592
      9.80000     0.0127560
      9.90000     0.0112238
      10.0000    0.00984658
      10.1000    0.00860510
      10.2000    0.00749078
      10.3000    0.00650644
      10.4000    0.00564000
      10.5000    0.00487264
      10.6000    0.00419565
      10.7000    0.00360061
      10.8000    0.00308219
      10.9000    0.00263479
      11.0000    0.00224515
      11.1000    0.00190705
      11.2000    0.00161468
      11.3000    0.00136284
      11.4000    0.00114664
      11.5000   0.000961680
      11.6000   0.000804019
      11.7000   0.000671433
      11.8000   0.000559139
      11.9000   0.000465182
      12.0000   0.000386017
      12.1000   0.000320894
      12.2000   0.000271079
      12.3000   0.000225366
      12.4000   0.000185131
      12.5000   0.000151486
      12.6000   0.000123523
      12.7000   0.000100379
      12.8000   8.13096e-05
      12.9000   6.56629e-05
      13.0000   5.28637e-05
      13.1000   4.24238e-05
      13.2000   3.39354e-05
      13.3000   2.70553e-05
      13.4000   2.14975e-05
      13.5000   1.70318e-05
      13.6000   1.35121e-05
      13.7000   1.06867e-05
      13.8000   8.42447e-06
      13.9000   6.61859e-06
      14.0000   5.18108e-06
      14.1000   4.04019e-06
      14.2000   3.13766e-06
      14.3000   2.42635e-06
      14.4000   1.86801e-06
      14.5000   1.43764e-06
      14.6000   1.10951e-06
      14.7000   8.52242e-07
      14.8000   6.51285e-07
      14.9000   4.94983e-07
      15.0000   3.74006e-07
      15.1000   2.80863e-07
      15.2000   2.12881e-07
      15.3000   1.60781e-07
      15.4000   1.20572e-07
      15.5000   8.97477e-08
      15.6000   6.62899e-08
      15.7000   4.91534e-08
      15.8000   3.66723e-08
      15.9000   2.71162e-08
      16.0000   1.98702e-08
      16.1000   1.44303e-08
      16.2000   1.06454e-08
      16.3000   7.83250e-09
      16.4000   5.69437e-09
      16.5000   4.09127e-09
      16.6000   2.95942e-09
      16.7000   2.15906e-09
      16.8000   1.55098e-09
      16.9000   1.09772e-09
      17.0000   7.84898e-10
      17.1000   5.65539e-10
      17.2000   3.99775e-10
      17.3000   2.77660e-10
      17.4000   1.99190e-10
      17.5000   1.42027e-10
      17.6000   9.95587e-11
      17.7000   7.00016e-11
      17.8000   5.08239e-11
      17.9000   3.60604e-11
      18.0000   2.50079e-11
      18.1000   1.80186e-11
      18.2000   1.26559e-11
      18.3000   8.60674e-12
      18.4000   5.98283e-12
      18.5000   4.10011e-12
      18.6000   2.69322e-12
      18.7000   1.79918e-12
      18.8000   1.19944e-12
      18.9000   7.64252e-13
      19.0000   5.04983e-13
      19.1000   3.32729e-13
      19.2000   2.08830e-13
      19.3000   1.38630e-13
      19.4000   9.03979e-14
      19.5000   5.60667e-14
      19.6000   3.78301e-14
      19.7000   2.43642e-14
      19.8000   1.51138e-14
      19.9000   1.02563e-14
      20.0000   6.46881e-15
      20.1000   4.14079e-15
      20.2000   2.71496e-15
      20.3000   1.65629e-15
      20.4000   1.09472e-15
      20.5000   6.88157e-16
      20.6000   4.19296e-16
      20.7000   2.76337e-16
      20.8000   1.65606e-16
      20.9000   1.06597e-16
      21.0000   6.59994e-17
      21.1000   3.91505e-17
      21.2000   2.54957e-17
      21.3000   1.48182e-17
      21.4000   9.50660e-18
      21.5000   5.69498e-18
      21.6000   3.40063e-18
      21.7000   2.12973e-18
      21.8000   1.18174e-18
      21.9000   7.75399e-19
      22.0000   4.41002e-19
      22.1000   2.74045e-19
      22.2000   1.60483e-19
      22.3000   9.31719e-20
      22.4000   5.63075e-20
      22.5000   2.91852e-20
      22.6000   1.76953e-20
      22.7000   8.26035e-21
      22.8000   6.24299e-21
      22.9000   4.60718e-21
      23.0000   3.57154e-21
      23.1000   2.58433e-21
      23.2000   1.64321e-21
      23.3000   1.03267e-21
      23.4000   5.86489e-22
      23.5000   3.63520e-22
      23.6000   1.95160e-22
      23.7000   1.25034e-22
      23.8000   6.42670e-23
      23.9000   4.19606e-23
      24.0000   2.16062e-23
      24.1000   1.38166e-23
      24.2000   7.11126e-24
      24.3000   4.46681e-24
      24.4000   2.30275e-24
      24.5000   1.42566e-24
      24.6000   7.36291e-25
      24.7000   4.50402e-25
      24.8000   2.32331e-25
      24.9000   1.41400e-25
      25.0000   7.29964e-26
      25.1000   4.42028e-26
      25.2000   2.26011e-26
      25.3000   1.37017e-26
      25.4000   6.93224e-27
      25.5000   4.21390e-27
      25.6000   2.09037e-27
      25.7000   1.27980e-27
      25.8000   6.20082e-28
      25.9000   3.83593e-28
      26.0000   1.80528e-28
      26.1000   1.13218e-28
      26.2000   5.15490e-29
      26.3000   3.28607e-29
      26.4000   1.44185e-29
      26.5000   9.36155e-30
      26.6000   4.33441e-30
      26.7000   2.61298e-30
      26.8000   1.28882e-30
      26.9000   7.13760e-31
      27.0000   3.74135e-31
      27.1000   1.90481e-31
      27.2000   1.05678e-31
      27.3000   4.95820e-32
      27.4000   2.90858e-32
      27.5000   1.27002e-32
      27.6000   7.80130e-33
      27.7000   3.14237e-33
      27.8000   2.01499e-33
      27.9000   8.94276e-34
      28.0000   5.02507e-34
      28.1000   2.53571e-34
      28.2000   1.21975e-34
      28.3000   6.84810e-35
      28.4000   2.95272e-35
      28.5000   1.79065e-35
      28.6000   6.98938e-36
      28.7000   4.56071e-36
      28.8000   2.14672e-36
      28.9000   1.18654e-36
      29.0000   6.41979e-37
      29.1000   2.97228e-37
      29.2000   1.77699e-37
      29.3000   7.17830e-38
      29.4000   4.62568e-38
      29.5000   2.08883e-38
      29.6000   1.14225e-38
      29.7000   6.15686e-39
      29.8000   2.69028e-39
      29.9000   1.62830e-39
      30.0000   6.06404e-40
      30.1000   3.98409e-40
      30.2000   1.91698e-40
      30.3000   9.19280e-41
      30.4000   5.32311e-41
      30.5000   2.12493e-41
      30.6000   1.35281e-41
      30.7000   5.86023e-42
      30.8000   3.02540e-42
      30.9000   1.65774e-42
      31.0000   6.38992e-43
      31.1000   4.02173e-43
      31.2000   1.62551e-43
      31.3000   8.96831e-44
      31.4000   4.48416e-44
      31.5000   1.96182e-44
      31.6000   9.80909e-45
      31.7000   2.80260e-45
      31.8000   2.80260e-45
      31.9000   2.80260e-45
      32.0000       0.00000
      32.1000       0.00000
      32.2000       0.00000
      32.3000       0.00000
      32.4000       0.00000
      32.5000       0.00000
      32.6000       0.00000
      32.7000       0.00000
      32.8000       0.00000
      32.9000       0.00000
      33.0000       0.00000
      33.1000       0.00000
      33.2000       0.00000
      33.3000       0.00000
      33.4000       0.00000
      33.5000       0.00000
      33.6000       0.00000
      33.7000       0.00000
      33.8000       0.00000
      33.9000       0.00000
      34.0000       0.00000
      34.1000       0.00000
      34.2000       0.00000
      34.3000       0.00000
      34.4000       0.00000
      34.5000       0.00000
      34.6000       0.00000
      34.7000       0.00000
      34.8000       0.00000
      34.9000       0.00000
      35.0000       0.00000
      35.1000       0.00000
      35.2000       0.00000
      35.3000       0.00000
      35.4000       0.00000
      35.5000       0.00000
      35.6000       0.00000
      35.7000       0.00000
      35.8000       0.00000
      35.9000       0.00000
      36.0000       0.00000
      36.1000       0.00000
      36.2000       0.00000
      36.3000       0.00000
      36.4000       0.00000
      36.5000       0.00000
      36.6000       0.00000
      36.7000       0.00000
      36.8000       0.00000
      36.9000       0.00000
      37.0000       0.00000
      37.1000       0.00000
      37.2000       0.00000
      37.3000       0.00000
      37.4000       0.00000
      37.5000       0.00000
      37.6000       0.00000
      37.7000       0.00000
      37.8000       0.00000
      37.9000       0.00000
      38.0000       0.00000
      38.1000       0.00000
      38.2000       0.00000
      38.3000       0.00000
      38.4000       0.00000
      38.5000       0.00000
      38.6000       0.00000
      38.7000       0.00000
      38.8000       0.00000
      38.9000       0.00000
      39.0000       0.00000
      39.1000       0.00000
      39.2000       0.00000
      39.3000       0.00000
      39.4000       0.00000
      39.5000       0.00000
      39.6000       0.00000
      39.7000       0.00000
      39.8000       0.00000
      39.9000       0.00000
      40.0000       0.00000
      40.1000       0.00000
      40.2000       0.00000
      40.3000       0.00000
      40.4000       0.00000
      40.5000       0.00000
      40.6000       0.00000
      40.7000       0.00000
      40.8000       0.00000
      40.9000       0.00000
      41.0000       0.00000
      41.1000       0.00000
      41.2000       0.00000
      41.3000       0.00000
      41.4000       0.00000
      41.5000       0.00000
      41.6000       0.00000
      41.7000       0.00000
      41.8000       0.00000
      41.9000       0.00000
      42.0000       0.00000
      42.1000       0.00000
      42.2000       0.00000
      42.3000       0.00000
      42.4000       0.00000
      42.5000       0.00000
      42.6000       0.00000
      42.7000       0.00000
      42.8000       0.00000
      42.9000       0.00000
      43.0000       0.00000
      43.1000       0.00000
      43.2000       0.00000
      43.3000       0.00000
      43.4000       0.00000
      43.5000       0.00000
      43.6000       0.00000
      43.7000       0.00000
      43.8000       0.00000
      43.9000       0.00000
      44.0000       0.00000
      44.1000       0.00000
      44.2000       0.00000
      44.3000       0.00000
      44.4000       0.00000
      44.5000       0.00000
      44.6000       0.00000
      44.7000       0.00000
      44.8000       0.00000
      44.9000       0.00000
      45.0000       0.00000
      45.1000       0.00000
      45.2000       0.00000
      45.3000       0.00000
      45.4000       0.00000
      45.5000       0.00000
      45.6000       0.00000
      45.7000       0.00000
      45.8000       0.00000
      45.9000       0.00000
      46.0000       0.00000
      46.1000       0.00000
      46.2000       0.00000
      46.3000       0.00000
      46.4000       0.00000
      46.5000       0.00000
      46.6000       0.00000
      46.7000       0.00000
      46.8000       0.00000
      46.9000       0.00000
      47.0000       0.00000
      47.1000       0.00000
      47.2000       0.00000
      47.3000       0.00000
      47.4000       0.00000
      47.5000       0.00000
      47.6000       0.00000
      47.7000       0.00000
      47.8000       0.00000
      47.9000       0.00000
      48.0000       0.00000
      48.1000       0.00000
      48.2000       0.00000
      48.3000       0.00000
      48.4000       0.00000
      48.5000       0.00000
      48.6000       0.00000
      48.7000       0.00000
      48.8000       0.00000
      48.9000       0.00000
      49.0000       0.00000
      49.1000       0.00000
      49.2000       0.00000
      49.3000       0.00000
      49.4000       0.00000
      49.5000       0.00000
      49.6000       0.00000
      49.7000       0.00000
      49.8000       0.00000
      49.9000       0.00000
      50.0000       0.00000
      50.1000       0.00000
      50.2000       0.00000
      50.3000       0.00000
      50.4000       0.00000
      50.5000       0.00000
      50.6000       0.00000
      50.7000       0.00000
      50.8000       0.00000
      50.9000       0.00000
      51.0000       0.00000
      51.1000       0.00000
      51.2000       0.00000
      51.3000       0.00000
      51.4000       0.00000
      51.5000       0.00000
      51.6000       0.00000
      51.7000       0.00000
      51.8000       0.00000
      51.9000       0.00000
      52.0000       0.00000
      52.1000       0.00000
      52.2000       0.00000
      52.3000       0.00000
      52.4000       0.00000
      52.5000       0.00000
      52.6000       0.00000
      52.7000       0.00000
      52.8000       0.00000
      52.9000       0.00000
      53.0000       0.00000
      53.1000       0.00000
      53.2000       0.00000
      53.3000       0.00000
      53.4000       0.00000
      53.5000       0.00000
      53.6000       0.00000
      53.7000       0.00000
      53.8000       0.00000
      53.9000       0.00000
      54.0000       0.00000
      54.1000       0.00000
      54.2000       0.00000
      54.3000       0.00000
      54.4000       0.00000
      54.5000       0.00000
      54.6000       0.00000
      54.7000       0.00000
      54.8000       0.00000
      54.9000       0.00000
      55.0000       0.00000
      55.1000       0.00000
      55.2000       0.00000
      55.3000       0.00000
      55.4000       0.00000
      55.5000       0.00000
      55.6000       0.00000
      55.7000       0.00000
      55.8000       0.00000
      55.9000       0.00000
      56.0000       0.00000
      56.1000       0.00000
      56.2000       0.00000
      56.3000       0.00000
      56.4000       0.00000
      56.5000       0.00000
      56.6000       0.00000
      56.7000       0.00000
      56.8000       0.00000
      56.9000       0.00000
      57.0000       0.00000
      57.1000       0.00000
      57.2000       0.00000
      57.3000       0.00000
      57.4000       0.00000
      57.5000       0.00000
      57.6000       0.00000
      57.7000       0.00000
      57.8000       0.00000
      57.9000       0.00000
      58.0000       0.00000
      58.1000       0.00000
      58.2000       0.00000
      58.3000       0.00000
      58.4000       0.00000
      58.5000       0.00000
      58.6000       0.00000
      58.7000       0.00000
      58.8000       0.00000
      58.9000       0.00000
      59.0000       0.00000
      59.1000       0.00000
      59.2000       0.00000
      59.3000       0.00000
      59.4000       0.00000
      59.5000       0.00000
      59.6000       0.00000
      59.7000       0.00000
      59.8000       0.00000
      59.9000       0.00000
      60.0000       0.00000
      60.1000       0.00000
      60.2000       0.00000
      60.3000       0.00000
      60.4000       0.00000
      60.5000       0.00000
      60.6000       0.00000
      60.7000       0.00000
      60.8000       0.00000
      60.9000       0.00000
      61.0000       0.00000
      61.1000       0.00000
      61.2000       0.00000
      61.3000       0.00000
      61.4000       0.00000
      61.5000       0.00000
      61.6000       0.00000
      61.7000       0.00000
      61.8000       0.00000
      61.9000       0.00000
      62.0000       0.00000
      62.1000       0.00000
      62.2000       0.00000
      62.3000       0.00000
      62.4000       0.00000
      62.5000       0.00000
      62.6000       0.00000
      62.7000       0.00000
      62.8000       0.00000
      62.9000       0.00000
      63.0000       0.00000
      63.1000       0.00000
      63.2000       0.00000
      63.3000       0.00000
      63.4000       0.00000
      63.5000       0.00000
      63.6000       0.00000
      63.7000       0.00000
      63.8000       0.00000
      63.9000       0.00000
      64.0000       0.00000
      64.1000       0.00000
      64.2000       0.00000
      64.3000       0.00000
      64.4000       0.00000
      64.5000       0.00000
      64.6000       0.00000
      64.7000       0.00000
      64.8000       0.00000
      64.9000       0.00000
      65.0000       0.00000
      65.1000       0.00000
      65.2000       0.00000
      65.3000       0.00000
      65.4000       0.00000
      65.5000       0.00000
      65.6000       0.00000
      65.7000       0.00000
      65.8000       0.00000
      65.9000       0.00000
      66.0000       0.00000
      66.1000       0.00000
      66.2000       0.00000
      66.3000       0.00000
      66.4000       0.00000
      66.5000       0.00000
      66.6000       0.00000
      66.7000       0.00000
      66.8000       0.00000
      66.9000       0.00000
      67.0000       0.00000
      67.1000       0.00000
      67.2000       0.00000
      67.3000       0.00000
      67.4000       0.00000
      67.5000       0.00000
      67.6000       0.00000
      67.7000       0.00000
      67.8000       0.00000
      67.9000       0.00000
      68.0000       0.00000
      68.1000       0.00000
      68.2000       0.00000
      68.3000       0.00000
      68.4000       0.00000
      68.5000       0.00000
      68.6000       0.00000
      68.7000       0.00000
      68.8000       0.00000
      68.9000       0.00000
      69.0000       0.00000
      69.1000       0.00000
      69.2000       0.00000
      69.3000       0.00000
      69.4000       0.00000
      69.5000       0.00000
      69.6000       0.00000
      69.7000       0.00000
      69.8000       0.00000
      69.9000       0.00000
      70.0000       0.00000
      70.1000       0.00000
      70.2000       0.00000
      70.3000       0.00000
      70.4000       0.00000
      70.5000       0.00000
      70.6000       0.00000
      70.7000       0.00000
      70.8000       0.00000
      70.9000       0.00000
      71.0000       0.00000
      71.1000       0.00000
      71.2000       0.00000
      71.3000       0.00000
      71.4000       0.00000
      71.5000       0.00000
      71.6000       0.00000
      71.7000       0.00000
      71.8000       0.00000
      71.9000       0.00000
      72.0000       0.00000
      72.1000       0.00000
      72.2000       0.00000
      72.3000       0.00000
      72.4000       0.00000
      72.5000       0.00000
      72.6000       0.00000
      72.7000       0.00000
      72.8000       0.00000
      72.9000       0.00000
      73.0000       0.00000
      73.1000       0.00000
      73.2000       0.00000
      73.3000       0.00000
      73.4000       0.00000
      73.5000       0.00000
      73.6000       0.00000
      73.7000       0.00000
      73.8000       0.00000
      73.9000       0.00000
      74.0000       0.00000
      74.1000       0.00000
      74.2000       0.00000
      74.3000       0.00000
      74.4000       0.00000
      74.5000       0.00000
      74.6000       0.00000
      74.7000       0.00000
      74.8000       0.00000
      74.9000       0.00000
      75.0000       0.00000
      75.1000       0.00000
      75.2000       0.00000
      75.3000       0.00000
      75.4000       0.00000
      75.5000       0.00000
      75.6000       0.00000
      75.7000       0.00000
      75.8000       0.00000
      75.9000       0.00000
      76.0000       0.00000
      76.1000       0.00000
      76.2000       0.00000
      76.3000       0.00000
      76.4000       0.00000
      76.5000       0.00000
      76.6000       0.00000
      76.7000       0.00000
      76.8000       0.00000
      76.9000       0.00000
      77.0000       0.00000
      77.1000       0.00000
      77.2000       0.00000
      77.3000       0.00000
      77.4000       0.00000
      77.5000       0.00000
      77.6000       0.00000
      77.7000       0.00000
      77.8000       0.00000
      77.9000       0.00000
      78.0000       0.00000
      78.1000       0.00000
      78.2000       0.00000
      78.3000       0.00000
      78.4000       0.00000
      78.5000       0.00000
      78.6000       0.00000
      78.7000       0.00000
      78.8000       0.00000
      78.9000       0.00000
      79.0000       0.00000
      79.1000       0.00000
      79.2000       0.00000
      79.3000       0.00000
      79.4000       0.00000
      79.5000       0.00000
      79.6000       0.00000
      79.7000       0.00000
      79.8000       0.00000
      79.9000       0.00000
      80.0000       0.00000
      80.1000       0.00000
      80.2000       0.00000
      80.3000       0.00000
      80.4000       0.00000
      80.5000       0.00000
      80.6000       0.00000
      80.7000       0.00000
      80.8000       0.00000
      80.9000       0.00000
      81.0000       0.00000
      81.1000       0.00000
      81.2000       0.00000
      81.3000       0.00000
      81.4000       0.00000
      81.5000       0.00000
      81.6000       0.00000
      81.7000       0.00000
      81.8000       0.00000
      81.9000       0.00000
      82.0000       0.00000
      82.1000       0.00000
      82.2000       0.00000
      82.3000       0.00000
      82.4000       0.00000
      82.5000       0.00000
      82.6000       0.00000
      82.7000       0.00000
      82.8000       0.00000
      82.9000       0.00000
      83.0000       0.00000
      83.1000       0.00000
      83.2000       0.00000
      83.3000       0.00000
      83.4000       0.00000
      83.5000       0.00000
      83.6000       0.00000
      83.7000       0.00000
      83.8000       0.00000
      83.9000       0.00000
      84.0000       0.00000
      84.1000       0.00000
      84.2000       0.00000
      84.3000       0.00000
      84.4000       0.00000
      84.5000       0.00000
      84.6000       0.00000
      84.7000       0.00000
      84.8000       0.00000
      84.9000       0.00000
      85.0000       0.00000
      85.1000       0.00000
      85.2000       0.00000
      85.3000       0.00000
      85.4000       0.00000
      85.5000       0.00000
      85.6000       0.00000
      85.7000       0.00000
      85.8000       0.00000
      85.9000       0.00000
      86.0000       0.00000
      86.1000       0.00000
      86.2000       0.00000
      86.3000       0.00000
      86.4000       0.00000
      86.5000       0.00000
      86.6000       0.00000
      86.7000       0.00000
      86.8000       0.00000
      86.9000       0.00000
      87.0000       0.00000
      87.1000       0.00000
      87.2000       0.00000
      87.3000       0.00000
      87.4000       0.00000
      87.5000       0.00000
      87.6000       0.00000
      87.7000       0.00000
      87.8000       0.00000
      87.9000       0.00000
      88.0000       0.00000
      88.1000       0.00000
      88.2000       0.00000
      88.3000       0.00000
      88.4000       0.00000
      88.5000       0.00000
      88.6000       0.00000
      88.7000       0.00000
      88.8000       0.00000
      88.9000       0.00000
      89.0000       0.00000
      89.1000       0.00000
      89.2000       0.00000
      89.3000       0.00000
      89.4000       0.00000
      89.5000       0.00000
      89.6000       0.00000
      89.7000       0.00000
      89.8000       0.00000
      89.9000       0.00000
      90.0000       0.00000
      90.1000       0.00000
      90.2000       0.00000
      90.3000       0.00000
      90.4000       0.00000
      90.5000       0.00000
      90.6000       0.00000
      90.7000       0.00000
      90.8000       0.00000
      90.9000       0.00000
      91.0000       0.00000
      91.1000       0.00000
      91.2000       0.00000
      91.3000       0.00000
      91.4000       0.00000
      91.5000       0.00000
      91.6000       0.00000
      91.7000       0.00000
      91.8000       0.00000
      91.9000       0.00000
      92.0000       0.00000
      92.1000       0.00000
      92.2000       0.00000
      92.3000       0.00000
      92.4000       0.00000
      92.5000       0.00000
      92.6000       0.00000
      92.7000       0.00000
      92.8000       0.00000
      92.9000       0.00000
      93.0000       0.00000
      93.1000       0.00000
      93.2000       0.00000
      93.3000       0.00000
      93.4000       0.00000
      93.5000       0.00000
      93.6000       0.00000
      93.7000       0.00000
      93.8000       0.00000
      93.9000       0.00000
      94.0000       0.00000
      94.1000       0.00000
      94.2000       0.00000
      94.3000       0.00000
      94.4000       0.00000
      94.5000       0.00000
      94.6000       0.00000
      94.7000       0.00000
      94.8000       0.00000
      94.9000       0.00000
      95.0000       0.00000
      95.1000       0.00000
      95.2000       0.00000
      95.3000       0.00000
      95.4000       0.00000
      95.5000       0.00000
      95.6000       0.00000
      95.7000       0.00000
      95.8000       0.00000
      95.9000       0.00000
      96.0000       0.00000
      96.1000       0.00000
      96.2000       0.00000
      96.3000       0.00000
      96.4000       0.00000
      96.5000       0.00000
      96.6000       0.00000
      96.7000       0.00000
      96.8000       0.00000
      96.9000       0.00000
      97.0000       0.00000
      97.1000       0.00000
      97.2000       0.00000
      97.3000       0.00000
      97.4000       0.00000
      97.5000       0.00000
      97.6000       0.00000
      97.7000       0.00000
      97.8000       0.00000
      97.9000       0.00000
      98.0000       0.00000
      98.1000       0.00000
      98.2000       0.00000
      98.3000       0.00000
      98.4000       0.00000
      98.5000       0.00000
      98.6000       0.00000
      98.7000       0.00000
      98.8000       0.00000
      98.9000       0.00000
      99.0000       0.00000
      99.1000       0.00000
      99.2000       0.00000
      99.3000       0.00000
      99.4000       0.00000
      99.5000       0.00000
      99.6000       0.00000
      99.7000       0.00000
      99.8000       0.00000
      99.9000       0.00000
      100.000       0.00000
      100.100       0.00000
      100.200       0.00000
      100.300       0.00000
      100.400       0.00000
      100.500       0.00000
      100.600       0.00000
      100.700       0.00000
      100.800       0.00000
      100.900       0.00000
      101.000       0.00000
      101.100       0.00000
      101.200       0.00000
      101.300       0.00000
      101.400       0.00000
      101.500       0.00000
      101.600       0.00000
      101.700       0.00000
      101.800       0.00000
      101.900       0.00000
      102.000       0.00000
      102.100       0.00000
      102.200       0.00000
      102.300       0.00000
      102.400       0.00000
      102.500       0.00000
      102.600       0.00000
      102.700       0.00000
      102.800       0.00000
      102.900       0.00000
      103.000       0.00000
      103.100       0.00000
      103.200       0.00000
      103.300       0.00000
      103.400       0.00000
      103.500       0.00000
      103.600       0.00000
      103.700       0.00000
      103.800       0.00000
      103.900       0.00000
      104.000       0.00000
      104.100       0.00000
      104.200       0.00000
      104.300       0.00000
      104.400       0.00000
      104.500       0.00000
      104.600       0.00000
      104.700       0.00000
      104.800       0.00000
      104.900       0.00000
      105.000       0.00000
      105.100       0.00000
      105.200       0.00000
      105.300       0.00000
      105.400       0.00000
      105.500       0.00000
      105.600       0.00000
      105.700       0.00000
      105.800       0.00000
      105.900       0.00000
      106.000       0.00000
      106.100       0.00000
      106.200       0.00000
      106.300       0.00000
      106.400       0.00000
      106.500       0.00000
      106.600       0.00000
      106.700       0.00000
      106.800       0.00000
      106.900       0.00000
      107.000       0.00000
      107.100       0.00000
      107.200       0.00000
      107.300       0.00000
      107.400       0.00000
      107.500       0.00000
      107.600       0.00000
      107.700       0.00000
      107.800       0.00000
      107.900       0.00000
      108.000       0.00000
      108.100       0.00000
      108.200       0.00000
      108.300       0.00000
      108.400       0.00000
      108.500       0.00000
      108.600       0.00000
      108.700       0.00000
      108.800       0.00000
      108.900       0.00000
      109.000       0.00000
      109.100       0.00000
      109.200       0.00000
      109.300       0.00000
      109.400       0.00000
      109.500       0.00000
      109.600       0.00000
      109.700       0.00000
      109.800       0.00000
      109.900       0.00000
      110.000       0.00000
      110.100       0.00000
      110.200       0.00000
      110.300       0.00000
      110.400       0.00000
      110.500       0.00000
      110.600       0.00000
      110.700       0.00000
      110.800       0.00000
      110.900       0.00000
      111.000       0.00000
      111.100       0.00000
      111.200       0.00000
      111.300       0.00000
      111.400       0.00000
      111.500       0.00000
      111.600       0.00000
      111.700       0.00000
      111.800       0.00000
      111.900       0.00000
      112.000       0.00000
      112.100       0.00000
      112.200       0.00000
      112.300       0.00000
      112.400       0.00000
      112.500       0.00000
      112.600       0.00000
      112.700       0.00000
      112.800       0.00000
      112.900       0.00000
      113.000       0.00000
      113.100       0.00000
      113.200       0.00000
      113.300       0.00000
      113.400       0.00000
      113.500       0.00000
      113.600       0.00000
      113.700       0.00000
      113.800       0.00000
      113.900       0.00000
      114.000       0.00000
      114.100       0.00000
      114.200       0.00000
      114.300       0.00000
      114.400       0.00000
      114.500       0.00000
      114.600       0.00000
      114.700       0.00000
      114.800       0.00000
      114.900       0.00000
      115.000       0.00000
      115.100       0.00000
      115.200       0.00000
      115.300       0.00000
      115.400       0.00000
      115.500       0.00000
      115.600       0.00000
      115.700       0.00000
      115.800       0.00000
      115.900       0.00000
      116.000       0.00000
      116.100       0.00000
      116.200       0.00000
      116.300       0.00000
      116.400       0.00000
      116.500       0.00000
      116.600       0.00000
      116.700       0.00000
      116.800       0.00000
      116.900       0.00000
      117.000       0.00000
      117.100       0.00000
      117.200       0.00000
      117.300       0.00000
      117.400       0.00000
      117.500       0.00000
      117.600       0.00000
      117.700       0.00000
      117.800       0.00000
      117.900       0.00000
      118.000       0.00000
      118.100       0.00000
      118.200       0.00000
      118.300       0.00000
      118.400       0.00000
      118.500       0.00000
      118.600       0.00000
      118.700       0.00000
      118.800       0.00000
      118.900       0.00000
      119.000       0.00000
      119.100       0.00000
      119.200       0.00000
      119.300       0.00000
      119.400       0.00000
      119.500       0.00000
      119.600       0.00000
      119.700       0.00000
      119.800       0.00000
      119.900       0.00000
      120.000       0.00000
      120.100       0.00000
      120.200       0.00000
      120.300       0.00000
      120.400       0.00000
      120.500       0.00000
      120.600       0.00000
      120.700       0.00000
      120.800       0.00000
      120.900       0.00000
      121.000       0.00000
      121.100       0.00000
      121.200       0.00000
      121.300       0.00000
      121.400       0.00000
      121.500       0.00000
      121.600       0.00000
      121.700       0.00000
      121.800       0.00000
      121.900       0.00000
      122.000       0.00000
      122.100       0.00000
      122.200       0.00000
      122.300       0.00000
      122.400       0.00000
      122.500       0.00000
      122.600       0.00000
      122.700       0.00000
      122.800       0.00000
      122.900       0.00000
      123.000       0.00000
      123.100       0.00000
      123.200       0.00000
      123.300       0.00000
      123.400       0.00000
      123.500       0.00000
      123.600       0.00000
      123.700       0.00000
      123.800       0.00000
      123.900       0.00000
      124.000       0.00000
      124.100       0.00000
      124.200       0.00000
      124.300       0.00000
      124.400       0.00000
      124.500       0.00000
      124.600       0.00000
      124.700       0.00000
      124.800       0.00000
      124.900       0.00000
      125.000       0.00000
      125.100       0.00000
      125.200       0.00000
      125.300       0.00000
      125.400       0.00000
      125.500       0.00000
      125.600       0.00000
      125.700       0.00000
      125.800       0.00000
      125.900       0.00000
      126.000       0.00000
      126.100       0.00000
      126.200       0.00000
      126.300       0.00000
      126.400       0.00000
      126.500       0.00000
      126.600       0.00000
      126.700       0.00000
      126.800       0.00000
      126.900       0.00000
      127.000       0.00000
      127.100       0.00000
      127.200       0.00000
      127.300       0.00000
      127.400       0.00000
      127.500       0.00000
      127.600       0.00000
      127.700       0.00000
      127.800       0.00000
      127.900       0.00000
      128.000       0.00000
      128.100       0.00000
      128.200       0.00000
      128.300       0.00000
      128.400       0.00000
      128.500       0.00000
      128.600       0.00000
      128.700       0.00000
      128.800       0.00000
      128.900       0.00000
      129.000       0.00000
      129.100       0.00000
      129.200       0.00000
      129.300       0.00000
      129.400       0.00000
      129.500       0.00000
      129.600       0.00000
      129.700       0.00000
      129.800       0.00000
      129.900       0.00000
      130.000       0.00000
      130.100       0.00000
      130.200       0.00000
      130.300       0.00000
      130.400       0.00000
      130.500       0.00000
      130.600       0.00000
      130.700       0.00000
      130.800       0.00000
      130.900       0.00000
      131.000       0.00000
      131.100       0.00000
      131.200       0.00000
      131.300       0.00000
      131.400       0.00000
      131.500       0.00000
      131.600       0.00000
      131.700       0.00000
      131.800       0.00000
      131.900       0.00000
      132.000       0.00000
      132.100       0.00000
      132.200       0.00000
      132.300       0.00000
      132.400       0.00000
      132.500       0.00000
      132.600       0.00000
      132.700       0.00000
      132.800       0.00000
      132.900       0.00000
      133.000       0.00000
      133.100       0.00000
      133.200       0.00000
      133.300       0.00000
      133.400       0.00000
      133.500       0.00000
      133.600       0.00000
      133.700       0.00000
      133.800       0.00000
      133.900       0.00000
      134.000       0.00000
      134.100       0.00000
      134.200       0.00000
      134.300       0.00000
      134.400       0.00000
      134.500       0.00000
      134.600       0.00000
      134.700       0.00000
      134.800       0.00000
      134.900       0.00000
      135.000       0.00000
      135.100       0.00000
      135.200       0.00000
      135.300       0.00000
      135.400       0.00000
      135.500       0.00000
      135.600       0.00000
      135.700       0.00000
      135.800       0.00000
      135.900       0.00000
      136.000       0.00000
      136.100       0.00000
      136.200       0.00000
      136.300       0.00000
      136.400       0.00000
      136.500       0.00000
      136.600       0.00000
      136.700       0.00000
      136.800       0.00000
      136.900       0.00000
      137.000       0.00000
      137.100       0.00000
      137.200       0.00000
      137.300       0.00000
      137.400       0.00000
      137.500       0.00000
      137.600       0.00000
      137.700       0.00000
      137.800       0.00000
      137.900       0.00000
      138.000       0.00000
      138.100       0.00000
      138.200       0.00000
      138.300       0.00000
      138.400       0.00000
      138.500       0.00000
      138.600       0.00000
      138.700       0.00000
      138.800       0.00000
      138.900       0.00000
      139.000       0.00000
      139.100       0.00000
      139.200       0.00000
      139.300       0.00000
      139.400       0.00000
      139.500       0.00000
      139.600       0.00000
      139.700       0.00000
      139.800       0.00000
      139.900       0.00000
      140.000       0.00000
      140.100       0.00000
      140.200       0.00000
      140.300       0.00000
      140.400       0.00000
      140.500       0.00000
      140.600       0.00000
      140.700       0.00000
      140.800       0.00000
      140.900       0.00000
      141.000       0.00000
      141.100       0.00000
      141.200       0.00000
      141.300       0.00000
      141.400       0.00000
      141.500       0.00000
      141.600       0.00000
      141.700       0.00000
      141.800       0.00000
      141.900       0.00000
      142.000       0.00000
      142.100       0.00000
      142.200       0.00000
      142.300       0.00000
      142.400       0.00000
      142.500       0.00000
      142.600       0.00000
      142.700       0.00000
      142.800       0.00000
      142.900       0.00000
      143.000       0.00000
      143.100       0.00000
      143.200       0.00000
      143.300       0.00000
      143.400       0.00000
      143.500       0.00000
      143.600       0.00000
      143.700       0.00000
      143.800       0.00000
      143.900       0.00000
      144.000       0.00000
      144.100       0.00000
      144.200       0.00000
      144.300       0.00000
      144.400       0.00000
      144.500       0.00000
      144.600       0.00000
      144.700       0.00000
      144.800       0.00000
      144.900       0.00000
      145.000       0.00000
      145.100       0.00000
      145.200       0.00000
      145.300       0.00000
      145.400       0.00000
      145.500       0.00000
      145.600       0.00000
      145.700       0.00000
      145.800       0.00000
      145.900       0.00000
      146.000       0.00000
      146.100       0.00000
      146.200       0.00000
      146.300       0.00000
      146.400       0.00000
      146.500       0.00000
      146.600       0.00000
      146.700       0.00000
      146.800       0.00000
      146.900       0.00000
      147.000       0.00000
      147.100       0.00000
      147.200       0.00000
      147.300       0.00000
      147.400       0.00000
      147.500       0.00000
      147.600       0.00000
      147.700       0.00000
      147.800       0.00000
      147.900       0.00000
      148.000       0.00000
      148.100       0.00000
      148.200       0.00000
      148.300       0.00000
      148.400       0.00000
      148.500       0.00000
      148.600       0.00000
      148.700       0.00000
      148.800       0.00000
      148.900       0.00000
      149.000       0.00000
      149.100       0.00000
      149.200       0.00000
      149.300       0.00000
      149.400       0.00000
      149.500       0.00000
      149.600       0.00000
      149.700       0.00000
      149.800       0.00000
      149.900       0.00000
      150.000       0.00000
      150.100       0.00000
      150.200       0.00000
      150.300       0.00000
      150.400       0.00000
      150.500       0.00000
      150.600       0.00000
      150.700       0.00000
      150.800       0.00000
      150.900       0.00000
      151.000       0.00000
      151.100       0.00000
      151.200       0.00000
      151.300       0.00000
      151.400       0.00000
      151.500       0.00000
      151.600       0.00000
      151.700       0.00000
      151.800       0.00000
      151.900       0.00000
      152.000       0.00000
      152.100       0.00000
      152.200       0.00000
      152.300       0.00000
      152.400       0.00000
      152.500       0.00000
      152.600       0.00000
      152.700       0.00000
      152.800       0.00000
      152.900       0.00000
      153.000       0.00000
      153.100       0.00000
      153.200       0.00000
      153.300       0.00000
      153.400       0.00000
      153.500       0.00000
      153.600       0.00000
      153.700       0.00000
      153.800       0.00000
      153.900       0.00000
      154.000       0.00000
      154.100       0.00000
      154.200       0.00000
      154.300       0.00000
      154.400       0.00000
      154.500       0.00000
      154.600       0.00000
      154.700       0.00000
      154.800       0.00000
      154.900       0.00000
      155.000       0.00000
      155.100       0.00000
      155.200       0.00000
      155.300       0.00000
      155.400       0.00000
      155.500       0.00000
      155.600       0.00000
      155.700       0.00000
      155.800       0.00000
      155.900       0.00000
      156.000       0.00000
      156.100       0.00000
      156.200       0.00000
      156.300       0.00000
      156.400       0.00000
      156.500       0.00000
      156.600       0.00000
      156.700       0.00000
      156.800       0.00000
      156.900       0.00000
      157.000       0.00000
      157.100       0.00000
      157.200       0.00000
      157.300       0.00000
      157.400       0.00000
      157.500       0.00000
      157.600       0.00000
      157.700       0.00000
      157.800       0.00000
      157.900       0.00000
      158.000       0.00000
      158.100       0.00000
      158.200       0.00000
      158.300       0.00000
      158.400       0.00000
      158.500       0.00000
      158.600       0.00000
      158.700       0.00000
      158.800       0.00000
      158.900       0.00000
      159.000       0.00000
      159.100       0.00000
      159.200       0.00000
      159.300       0.00000
      159.400       0.00000
      159.500       0.00000
      159.600       0.00000
      159.700       0.00000
      159.800       0.00000
      159.900       0.00000
      160.000       0.00000
      160.100       0.00000
      160.200       0.00000
      160.300       0.00000
      160.400       0.00000
      160.500       0.00000
      160.600       0.00000
      160.700       0.00000
      160.800       0.00000
      160.900       0.00000
      161.000       0.00000
      161.100       0.00000
      161.200       0.00000
      161.300       0.00000
      161.400       0.00000
      161.500       0.00000
      161.600       0.00000
      161.700       0.00000
      161.800       0.00000
      161.900       0.00000
      162.000       0.00000
      162.100       0.00000
      162.200       0.00000
      162.300       0.00000
      162.400       0.00000
      162.500       0.00000
      162.600       0.00000
      162.700       0.00000
      162.800       0.00000
      162.900       0.00000
      163.000       0.00000
      163.100       0.00000
      163.200       0.00000
      163.300       0.00000
      163.400       0.00000
      163.500       0.00000
      163.600       0.00000
      163.700       0.00000
      163.800       0.00000
      163.900       0.00000
      164.000       0.00000
      164.100       0.00000
      164.200       0.00000
      164.300       0.00000
      164.400       0.00000
      164.500       0.00000
      164.600       0.00000
      164.700       0.00000
      164.800       0.00000
      164.900       0.00000
      165.000       0.00000
      165.100       0.00000
      165.200       0.00000
      165.300       0.00000
      165.400       0.00000
      165.500       0.00000
      165.600       0.00000
      165.700       0.00000
      165.800       0.00000
      165.900       0.00000
      166.000       0.00000
      166.100       0.00000
      166.200       0.00000
      166.300       0.00000
      166.400       0.00000
      166.500       0.00000
      166.600       0.00000
      166.700       0.00000
      166.800       0.00000
      166.900       0.00000
      167.000       0.00000
      167.100       0.00000
      167.200       0.00000
      167.300       0.00000
      167.400       0.00000
      167.500       0.00000
      167.600       0.00000
      167.700       0.00000
      167.800       0.00000
      167.900       0.00000
      168.000       0.00000
      168.100       0.00000
      168.200       0.00000
      168.300       0.00000
      168.400       0.00000
      168.500       0.00000
      168.600       0.00000
      168.700       0.00000
      168.800       0.00000
      168.900       0.00000
      169.000       0.00000
      169.100       0.00000
      169.200       0.00000
      169.300       0.00000
      169.400       0.00000
      169.500       0.00000
      169.600       0.00000
      169.700       0.00000
      169.800       0.00000
      169.900       0.00000
      170.000       0.00000
      170.100       0.00000
      170.200       0.00000
      170.300       0.00000
      170.400       0.00000
      170.500       0.00000
      170.600   5.47361e-40
      170.700   6.80776e-25
      170.800   9.11663e-21
      170.900   1.51436e-20
      171.000   1.54787e-20
      171.100   1.58198e-20
      171.200   1.61668e-20
      171.300   1.65203e-20
      171.400   1.68797e-20
      171.500   1.72451e-20
      171.600   1.76171e-20
      171.700   1.79959e-20
      171.800   1.83815e-20
      171.900   1.87738e-20
      172.000   1.91735e-20
      172.100   1.95814e-20
      172.200   1.99969e-20
      172.300   2.04197e-20
      172.400   2.08473e-20
      172.500   2.12824e-20
      172.600   2.17266e-20
      172.700   2.21796e-20
      172.800   2.26413e-20
      172.900   2.31130e-20
      173.000   2.35936e-20
      173.100   2.40838e-20
      173.200   2.45839e-20
      173.300   2.50941e-20
      173.400   2.56151e-20
      173.500   2.61463e-20
      173.600   2.66881e-20
      173.700   2.72408e-20
      173.800   2.78053e-20
      173.900   2.83800e-20
      174.000   2.89664e-20
      174.100   2.95654e-20
      174.200   3.01755e-20
      174.300   3.07968e-20
      174.400   3.14310e-20
      174.500   3.20770e-20
      174.600   3.27363e-20
      174.700   3.34080e-20
      174.800   3.40919e-20
      174.900   3.47891e-20
      175.000   3.55000e-20
      175.100   3.62230e-20
      175.200   3.69620e-20
      175.300   3.77136e-20
      175.400   3.84803e-20
      175.500   3.92609e-20
      175.600   4.00552e-20
      175.700   4.08647e-20
      175.800   4.16900e-20
      175.900   4.25298e-20
      176.000   4.33843e-20
      176.100   4.42550e-20
      176.200   4.51416e-20
      176.300   4.60453e-20
      176.400   4.69647e-20
      176.500   4.79006e-20
      176.600   4.88548e-20
      176.700   4.98255e-20
      176.800   5.08133e-20
      176.900   5.18189e-20
      177.000   5.28437e-20
      177.100   5.38870e-20
      177.200   5.49478e-20
      177.300   5.60274e-20
      177.400   5.71274e-20
      177.500   5.82465e-20
      177.600   5.93849e-20
      177.700   6.05430e-20
      177.800   6.17210e-20
      177.900   6.29207e-20
      178.000   6.41454e-20
      178.100   6.53902e-20
      178.200   6.66573e-20
      178.300   6.79475e-20
      178.400   6.92585e-20
      178.500   7.05921e-20
      178.600   7.19492e-20
      178.700   7.33314e-20
      178.800   7.47356e-20
      178.900   7.61630e-20
      179.000   7.76146e-20
      179.100   7.90920e-20
      179.200   8.05960e-20
      179.300   8.21241e-20
      179.400   8.36785e-20
      179.500   8.52602e-20
      179.600   8.68729e-20
      179.700   8.85102e-20
      179.800   9.01759e-20
      179.900   9.18706e-20
      180.000   9.35978e-20
      180.100   9.53518e-20
      180.200   9.71376e-20
      180.300   9.89537e-20
      180.400   1.00804e-19
      180.500   1.02687e-19
      180.600   1.04601e-19
      180.700   1.06548e-19
      180.800   1.08550e-19
      180.900   1.10623e-19
      181.000   1.12748e-19
      181.100   1.14910e-19
      181.200   1.17114e-19
      181.300   1.19360e-19
      181.400   1.21643e-19
      181.500   1.23967e-19
      181.600   1.26336e-19
      181.700   1.28748e-19
      181.800   1.31201e-19
      181.900   1.33700e-19
      182.000   1.36244e-19
      182.100   1.38832e-19
      182.200   1.41474e-19
      182.300   1.44159e-19
      182.400   1.46890e-19
      182.500   1.49671e-19
      182.600   1.52505e-19
      182.700   1.55386e-19
      182.800   1.58314e-19
      182.900   1.61298e-19
      183.000   1.64333e-19
      183.100   1.67419e-19
      183.200   1.70559e-19
      183.300   1.73754e-19
      183.400   1.77006e-19
      183.500   1.80311e-19
      183.600   1.83673e-19
      183.700   1.87208e-19
      183.800   1.91296e-19
      183.900   1.95771e-19
      184.000   2.00337e-19
      184.100   2.05013e-19
      184.200   2.09788e-19
      184.300   2.14674e-19
      184.400   2.19664e-19
      184.500   2.24759e-19
      184.600   2.29964e-19
      184.700   2.35287e-19
      184.800   2.40722e-19
      184.900   2.46272e-19
      185.000   2.51940e-19
      185.100   2.57733e-19
      185.200   2.63653e-19
      185.300   2.69692e-19
      185.400   2.75860e-19
      185.500   2.82157e-19
      185.600   2.88589e-19
      185.700   2.95165e-19
      185.800   3.01882e-19
      185.900   3.08736e-19
      186.000   3.15749e-19
      186.100   3.22898e-19
      186.200   3.30192e-19
      186.300   3.37638e-19
      186.400   3.45242e-19
      186.500   3.53005e-19
      186.600   3.60920e-19
      186.700   3.68990e-19
      186.800   3.77224e-19
      186.900   3.85631e-19
      187.000   3.94208e-19
      187.100   4.02945e-19
      187.200   4.11866e-19
      187.300   4.20983e-19
      187.400   4.30279e-19
      187.500   4.39758e-19
      187.600   4.49422e-19
      187.700   4.59278e-19
      187.800   4.69339e-19
      187.900   4.79599e-19
      188.000   4.90049e-19
      188.100   5.00704e-19
      188.200   5.11574e-19
      188.300   5.22663e-19
      188.400   5.33974e-19
      188.500   5.45500e-19
      188.600   5.57262e-19
      188.700   5.69281e-19
      188.800   5.81527e-19
      188.900   5.94007e-19
      189.000   6.06736e-19
      189.100   6.19729e-19
      189.200   6.32975e-19
      189.300   6.46472e-19
      189.400   6.60233e-19
      189.500   6.74270e-19
      189.600   6.88602e-19
      189.700   7.03195e-19
      189.800   7.18143e-19
      189.900   7.33418e-19
      190.000   7.49019e-19
      190.100   7.64912e-19
      190.200   7.81121e-19
      190.300   7.97645e-19
      190.400   8.14507e-19
      190.500   8.31702e-19
      190.600   8.49223e-19
      190.700   8.67090e-19
      190.800   8.85303e-19
      190.900   9.03873e-19
      191.000   9.22856e-19
      191.100   9.42204e-19
      191.200   9.61934e-19
      191.300   9.82043e-19
      191.400   1.00255e-18
      191.500   1.02346e-18
      191.600   1.04476e-18
      191.700   1.06647e-18
      191.800   1.08862e-18
      191.900   1.11117e-18
      192.000   1.13415e-18
      192.100   1.15759e-18
      192.200   1.18152e-18
      192.300   1.20590e-18
      192.400   1.23078e-18
      192.500   1.25611e-18
      192.600   1.28191e-18
      192.700   1.30819e-18
      192.800   1.33387e-18
      192.900   1.35717e-18
      193.000   1.38056e-18
      193.100   1.40435e-18
      193.200   1.42857e-18
      193.300   1.45316e-18
      193.400   1.47811e-18
      193.500   1.50348e-18
      193.600   1.52925e-18
      193.700   1.55544e-18
      193.800   1.58203e-18
      193.900   1.60900e-18
      194.000   1.63643e-18
      194.100   1.66437e-18
      194.200   1.69271e-18
      194.300   1.72151e-18
      194.400   1.75076e-18
      194.500   1.78048e-18
      194.600   1.81068e-18
      194.700   1.84130e-18
      194.800   1.87240e-18
      194.900   1.90399e-18
      195.000   1.93608e-18
      195.100   1.96877e-18
      195.200   2.00190e-18
      195.300   2.03553e-18
      195.400   2.06968e-18
      195.500   2.10436e-18
      195.600   2.13957e-18
      195.700   2.17526e-18
      195.800   2.21118e-18
      195.900   2.24535e-18
      196.000   2.20096e-18
      196.100   2.15643e-18
      196.200   2.11278e-18
      196.300   2.06999e-18
      196.400   2.02804e-18
      196.500   1.98690e-18
      196.600   1.94658e-18
      196.700   1.90704e-18
      196.800   1.86831e-18
      196.900   1.83039e-18
      197.000   1.79321e-18
      197.100   1.75675e-18
      197.200   1.72101e-18
      197.300   1.68596e-18
      197.400   1.65159e-18
      197.500   1.61788e-18
      197.600   1.58484e-18
      197.700   1.55252e-18
      197.800   1.52086e-18
      197.900   1.48980e-18
      198.000   1.45935e-18
      198.100   1.42949e-18
      198.200   1.40022e-18
      198.300   1.37153e-18
      198.400   1.34341e-18
      198.500   1.31590e-18
      198.600   1.28895e-18
      198.700   1.26253e-18
      198.800   1.23664e-18
      198.900   1.21127e-18
      199.000   1.18639e-18
      199.100   1.16201e-18
      199.200   1.13812e-18
      199.300   1.11477e-18
      199.400   1.09190e-18
      199.500   1.06949e-18
      199.600   1.04752e-18
      199.700   1.02600e-18
      199.800   1.00491e-18
      199.900   9.84241e-19
      200.000   9.63986e-19
      200.100   9.44232e-19
      200.200   9.24836e-19
      200.300   9.05847e-19
      200.400   8.87238e-19
      200.500   8.69006e-19
      200.600   8.51154e-19
      200.700   8.33661e-19
      200.800   8.16516e-19
      200.900   7.99736e-19
      201.000   7.83304e-19
      201.100   7.67219e-19
      201.200   7.51465e-19
      201.300   7.36029e-19
      201.400   7.20915e-19
      201.500   7.06103e-19
      201.600   6.91594e-19
      201.700   6.77385e-19
      201.800   6.63466e-19
      201.900   6.49835e-19
      202.000   6.36502e-19
      202.100   6.23439e-19
      202.200   6.10646e-19
      202.300   5.98162e-19
      202.400   5.86045e-19
      202.500   5.74202e-19
      202.600   5.62589e-19
      202.700   5.51222e-19
      202.800   5.40088e-19
      202.900   5.29186e-19
      203.000   5.18508e-19
      203.100   5.08053e-19
      203.200   4.97803e-19
      203.300   4.87762e-19
      203.400   4.77924e-19
      203.500   4.68286e-19
      203.600   4.58844e-19
      203.700   4.49597e-19
      203.800   4.40543e-19
      203.900   4.31684e-19
      204.000   4.23002e-19
      204.100   4.14497e-19
      204.200   4.06168e-19
      204.300   3.98008e-19
      204.400   3.90015e-19
      204.500   3.82184e-19
      204.600   3.74511e-19
      204.700   3.66995e-19
      204.800   3.59641e-19
      204.900   3.52440e-19
      205.000   3.45384e-19
      205.100   3.38473e-19
      205.200   3.31701e-19
      205.300   3.25068e-19
      205.400   3.18569e-19
      205.500   3.12202e-19
      205.600   3.05436e-19
      205.700   2.98340e-19
      205.800   2.91340e-19
      205.900   2.84511e-19
      206.000   2.77848e-19
      206.100   2.71339e-19
      206.200   2.64982e-19
      206.300   2.58775e-19
      206.400   2.52714e-19
      206.500   2.46791e-19
      206.600   2.41007e-19
      206.700   2.35360e-19
      206.800   2.29841e-19
      206.900   2.24450e-19
      207.000   2.19186e-19
      207.100   2.14049e-19
      207.200   2.09034e-19
      207.300   2.04133e-19
      207.400   1.99346e-19
      207.500   1.94668e-19
      207.600   1.90099e-19
      207.700   1.85635e-19
      207.800   1.81273e-19
      207.900   1.77012e-19
      208.000   1.72849e-19
      208.100   1.68783e-19
      208.200   1.64810e-19
      208.300   1.60929e-19
      208.400   1.57142e-19
      208.500   1.53443e-19
      208.600   1.49827e-19
      208.700   1.46295e-19
      208.800   1.42845e-19
      208.900   1.39073e-19
      209.000   1.34688e-19
      209.100   1.30270e-19
      209.200   1.25993e-19
      209.300   1.21854e-19
      209.400   1.17849e-19
      209.500   1.13972e-19
      209.600   1.10221e-19
      209.700   1.06593e-19
      209.800   1.03088e-19
      209.900   9.96944e-20
      210.000   9.64116e-20
      210.100   9.32350e-20
      210.200   9.01610e-20
      210.300   8.71867e-20
      210.400   8.43089e-20
      210.500   8.15245e-20
      210.600   7.88309e-20
      210.700   7.62245e-20
      210.800   7.37031e-20
      210.900   7.12635e-20
      211.000   6.89034e-20
      211.100   6.66213e-20
      211.200   6.44124e-20
      211.300   6.22796e-20
      211.400   6.02173e-20
      211.500   5.82215e-20
      211.600   5.62914e-20
      211.700   5.44246e-20
      211.800   5.26176e-20
      211.900   5.08700e-20
      212.000   4.91807e-20
      212.100   4.75461e-20
      212.200   4.59649e-20
      212.300   4.44357e-20
      212.400   4.29564e-20
      212.500   4.15260e-20
      212.600   4.01426e-20
      212.700   3.88047e-20
      212.800   3.75106e-20
      212.900   3.62595e-20
      213.000   3.50498e-20
      213.100   3.38812e-20
      213.200   3.27513e-20
      213.300   3.16584e-20
      213.400   3.06015e-20
      213.500   2.95795e-20
      213.600   2.85912e-20
      213.700   2.76358e-20
      213.800   2.67117e-20
      213.900   2.58186e-20
      214.000   2.49547e-20
      214.100   2.41195e-20
      214.200   2.33123e-20
      214.300   2.25316e-20
      214.400   2.17767e-20
      214.500   2.10471e-20
      214.600   2.03419e-20
      214.700   1.96599e-20
      214.800   1.90008e-20
      214.900   1.83637e-20
      215.000   1.77476e-20
      215.100   1.71524e-20
      215.200   1.65774e-20
      215.300   1.60219e-20
      215.400   1.54847e-20
      215.500   1.49655e-20
      215.600   1.44641e-20
      215.700   1.39790e-20
      215.800   1.35101e-20
      215.900   1.30572e-20
      216.000   1.26193e-20
      216.100   1.21960e-20
      216.200   1.17869e-20
      216.300   1.13916e-20
      216.400   1.10095e-20
      216.500   1.06402e-20
      216.600   1.02833e-20
      216.700   9.93840e-21
      216.800   9.60502e-21
      216.900   9.28283e-21
      217.000   8.97144e-21
      217.100   8.67044e-21
      217.200   8.37962e-21
      217.300   8.09851e-21
      217.400   7.82674e-21
      217.500   7.56425e-21
      217.600   7.31046e-21
      217.700   7.06506e-21
      217.800   6.82799e-21
      217.900   6.59894e-21
      218.000   6.37766e-21
      218.100   6.16373e-21
      218.200   5.95701e-21
      218.300   5.75723e-21
      218.400   5.56414e-21
      218.500   5.37741e-21
      218.600   5.19697e-21
      218.700   5.02253e-21
      218.800   4.85390e-21
      218.900   4.69099e-21
      219.000   4.53344e-21
      219.100   4.38112e-21
      219.200   4.23392e-21
      219.300   4.09161e-21
      219.400   3.95401e-21
      219.500   3.82101e-21
      219.600   3.69246e-21
      219.700   3.56820e-21
      219.800   3.44811e-21
      219.900   3.33200e-21
      220.000   3.21975e-21
      220.100   3.11125e-21
      220.200   3.00636e-21
      220.300   2.90499e-21
      220.400   2.80699e-21
      220.500   2.71230e-21
      220.600   2.62076e-21
      220.700   2.53225e-21
      220.800   2.44668e-21
      220.900   2.36403e-21
      221.000   2.28410e-21
      221.100   2.20684e-21
      221.200   2.13219e-21
      221.300   2.06003e-21
      221.400   1.99029e-21
      221.500   1.92288e-21
      221.600   1.85774e-21
      221.700   1.79476e-21
      221.800   1.73388e-21
      221.900   1.67506e-21
      222.000   1.61824e-21
      222.100   1.56328e-21
      222.200   1.51020e-21
      222.300   1.45888e-21
      222.400   1.40930e-21
      222.500   1.36137e-21
      222.600   1.31507e-21
      222.700   1.27032e-21
      222.800   1.22706e-21
      222.900   1.18528e-21
      223.000   1.14489e-21
      223.100   1.10586e-21
      223.200   1.06816e-21
      223.300   1.03172e-21
      223.400   9.96513e-22
      223.500   9.62480e-22
      223.600   9.29614e-22
      223.700   8.97848e-22
      223.800   8.67149e-22
      223.900   8.37512e-22
      224.000   8.08856e-22
      224.100   7.81173e-22
      224.200   7.54422e-22
      224.300   7.28583e-22
      224.400   7.03612e-22
      224.500   6.79492e-22
      224.600   6.56179e-22
      224.700   6.33671e-22
      224.800   6.11920e-22
      224.900   5.90904e-22
      225.000   5.70604e-22
      225.100   5.50988e-22
      225.200   5.32037e-22
      225.300   5.13744e-22
      225.400   4.96061e-22
      225.500   4.78977e-22
      225.600   4.62475e-22
      225.700   4.46542e-22
      225.800   4.31144e-22
      225.900   4.16274e-22
      226.000   4.01913e-22
      226.100   3.88039e-22
      226.200   3.74638e-22
      226.300   3.61725e-22
      226.400   3.49263e-22
      226.500   3.37215e-22
      226.600   3.25573e-22
      226.700   3.14328e-22
      226.800   3.03460e-22
      226.900   2.92963e-22
      227.000   2.82827e-22
      227.100   2.73035e-22
      227.200   2.63582e-22
      227.300   2.54452e-22
      227.400   2.45636e-22
      227.500   2.37123e-22
      227.600   2.28902e-22
      227.700   2.20964e-22
      227.800   2.13299e-22
      227.900   2.05899e-22
      228.000   1.98755e-22
      228.100   1.91856e-22
      228.200   1.85194e-22
      228.300   1.78763e-22
      228.400   1.72556e-22
      228.500   1.66561e-22
      228.600   1.60774e-22
      228.700   1.55187e-22
      228.800   1.49793e-22
      228.900   1.44588e-22
      229.000   1.39562e-22
      229.100   1.34710e-22
      229.200   1.30026e-22
      229.300   1.25505e-22
      229.400   1.21141e-22
      229.500   1.16928e-22
      229.600   1.12861e-22
      229.700   1.08936e-22
      229.800   1.05146e-22
      229.900   1.01489e-22
      230.000   9.79197e-23
      230.100   9.42045e-23
      230.200   9.06206e-23
      230.300   8.71744e-23
      230.400   8.38582e-23
      230.500   8.06683e-23
      230.600   7.76017e-23
      230.700   7.46503e-23
      230.800   7.18115e-23
      230.900   6.90806e-23
      231.000   6.64526e-23
      231.100   6.39244e-23
      231.200   6.14920e-23
      231.300   5.91523e-23
      231.400   5.69022e-23
      231.500   5.47358e-23
      231.600   5.26513e-23
      231.700   5.06468e-23
      231.800   4.87182e-23
      231.900   4.68626e-23
      232.000   4.50773e-23
      232.100   4.33594e-23
      232.200   4.17070e-23
      232.300   4.01175e-23
      232.400   3.85879e-23
      232.500   3.71159e-23
      232.600   3.57002e-23
      232.700   3.43382e-23
      232.800   3.30278e-23
      232.900   3.17670e-23
      233.000   3.05540e-23
      233.100   2.93873e-23
      233.200   2.82646e-23
      233.300   2.71847e-23
      233.400   2.61459e-23
      233.500   2.51472e-23
      233.600   2.41870e-23
      233.700   2.32627e-23
      233.800   2.22639e-23
      233.900   2.12933e-23
      234.000   2.03642e-23
      234.100   1.94755e-23
      234.200   1.86254e-23
      234.300   1.78119e-23
      234.400   1.70336e-23
      234.500   1.62890e-23
      234.600   1.55765e-23
      234.700   1.48950e-23
      234.800   1.42431e-23
      234.900   1.36194e-23
      235.000   1.30225e-23
      235.100   1.24516e-23
      235.200   1.19056e-23
      235.300   1.13832e-23
      235.400   1.08834e-23
      235.500   1.04054e-23
      235.600   9.94827e-24
      235.700   9.51104e-24
      235.800   9.09359e-24
      235.900   8.69427e-24
      236.000   8.31233e-24
      236.100   7.94692e-24
      236.200   7.59739e-24
      236.300   7.26304e-24
      236.400   6.94334e-24
      236.500   6.63748e-24
      236.600   6.34493e-24
      236.700   6.06514e-24
      236.800   5.79750e-24
      236.900   5.54154e-24
      237.000   5.29674e-24
      237.100   5.06258e-24
      237.200   4.83870e-24
      237.300   4.62457e-24
      237.400   4.41979e-24
      237.500   4.22393e-24
      237.600   4.03672e-24
      237.700   3.85804e-24
      237.800   3.68716e-24
      237.900   3.52375e-24
      238.000   3.36751e-24
      238.100   3.21805e-24
      238.200   3.07514e-24
      238.300   2.93848e-24
      238.400   2.80781e-24
      238.500   2.68284e-24
      238.600   2.56336e-24
      238.700   2.44916e-24
      238.800   2.33993e-24
      238.900   2.23551e-24
      239.000   2.13565e-24
      239.100   2.04020e-24
      239.200   1.94897e-24
      239.300   1.86187e-24
      239.400   1.77872e-24
      239.500   1.69922e-24
      239.600   1.62320e-24
      239.700   1.55057e-24
      239.800   1.48111e-24
      239.900   1.41471e-24
      240.000   1.35125e-24
      240.100   1.29056e-24
      240.200   1.23256e-24
      240.300   1.17713e-24
      240.400   1.12413e-24
      240.500   1.07350e-24
      240.600   1.02511e-24
      240.700   9.78865e-25
      240.800   9.34734e-25
      240.900   8.92624e-25
      241.000   8.52389e-25
      241.100   8.13930e-25
      241.200   7.77184e-25
      241.300   7.42062e-25
      241.400   7.08508e-25
      241.500   6.76444e-25
      241.600   6.45808e-25
      241.700   6.16535e-25
      241.800   5.88562e-25
      241.900   5.61836e-25
      242.000   5.36307e-25
      242.100   5.11923e-25
      242.200   4.88677e-25
      242.300   4.66505e-25
      242.400   4.45317e-25
      242.500   4.25076e-25
      242.600   4.05742e-25
      242.700   3.87270e-25
      242.800   3.69630e-25
      242.900   3.52780e-25
      243.000   3.36686e-25
      243.100   3.21315e-25
      243.200   3.06629e-25
      243.300   2.92607e-25
      243.400   2.79222e-25
      243.500   2.66461e-25
      243.600   2.54301e-25
      243.700   2.42682e-25
      243.800   2.31587e-25
      243.900   2.20995e-25
      244.000   2.10878e-25
      244.100   2.01217e-25
      244.200   1.91993e-25
      244.300   1.83183e-25
      244.400   1.74773e-25
      244.500   1.66744e-25
      244.600   1.59077e-25
      244.700   1.51769e-25
      244.800   1.44811e-25
      244.900   1.38168e-25
      245.000   1.31823e-25
      245.100   1.25765e-25
      245.200   1.19984e-25
      245.300   1.14465e-25
      245.400   1.09194e-25
      245.500   1.04165e-25
      245.600   9.93629e-26
      245.700   9.47781e-26
      245.800   9.04014e-26
      245.900   8.62385e-26
      246.000   8.22703e-26
      246.100   7.84808e-26
      246.200   7.48637e-26
      246.300   7.14103e-26
      246.400   6.81150e-26
      246.500   6.49690e-26
      246.600   6.19661e-26
      246.700   5.91003e-26
      246.800   5.63640e-26
      246.900   5.37530e-26
      247.000   5.12693e-26
      247.100   4.89018e-26
      247.200   4.66425e-26
      247.300   4.44862e-26
      247.400   4.24278e-26
      247.500   4.04631e-26
      247.600   3.85881e-26
      247.700   3.67986e-26
      247.800   3.50907e-26
      247.900   3.34607e-26
      248.000   3.19056e-26
      248.100   3.04297e-26
      248.200   2.90205e-26
      248.300   2.76754e-26
      248.400   2.63917e-26
      248.500   2.51664e-26
      248.600   2.39971e-26
      248.700   2.28815e-26
      248.800   2.18167e-26
      248.900   2.08008e-26
      249.000   1.98315e-26
      249.100   1.89105e-26
      249.200   1.80327e-26
      249.300   1.71945e-26
      249.400   1.63947e-26
      249.500   1.56317e-26
      249.600   1.49033e-26
      249.700   1.42084e-26
      249.800   1.35453e-26
      249.900   1.29126e-26
      250.000   1.23091e-26
      250.100   1.17351e-26
      250.200   1.11882e-26
      250.300   1.06669e-26
      250.400   1.01694e-26
      250.500   9.69493e-27
      250.600   9.24233e-27
      250.700   8.81053e-27
      250.800   8.39866e-27
      250.900   8.00581e-27
      251.000   7.63110e-27
      251.100   7.27368e-27
      251.200   6.93334e-27
      251.300   6.60941e-27
      251.400   6.30048e-27
      251.500   6.00566e-27
      251.600   5.72449e-27
      251.700   5.45649e-27
      251.800   5.20080e-27
      251.900   4.95692e-27
      252.000   4.72431e-27
      252.100   4.50257e-27
      252.200   4.29104e-27
      252.300   4.08964e-27
      252.400   3.89786e-27
      252.500   3.71508e-27
      252.600   3.54070e-27
      252.700   3.37443e-27
      252.800   3.21589e-27
      252.900   3.06471e-27
      253.000   2.92053e-27
      253.100   2.78307e-27
      253.200   2.65200e-27
      253.300   2.52760e-27
      253.400   2.40923e-27
      253.500   2.29649e-27
      253.600   2.18916e-27
      253.700   2.08676e-27
      253.800   1.98911e-27
      253.900   1.89599e-27
      254.000   1.80716e-27
      254.100   1.72243e-27
      254.200   1.64162e-27
      254.300   1.56456e-27
      254.400   1.49107e-27
      254.500   1.42098e-27
      254.600   1.35414e-27
      254.700   1.29042e-27
      254.800   1.22982e-27
      254.900   1.17203e-27
      255.000   1.11694e-27
      255.100   1.06438e-27
      255.200   1.01426e-27
      255.300   9.66481e-28
      255.400   9.20916e-28
      255.500   8.77475e-28
      255.600   8.36061e-28
      255.700   7.96572e-28
      255.800   7.58920e-28
      255.900   7.23016e-28
      256.000   6.88791e-28
      256.100   6.56205e-28
      256.200   6.25183e-28
      256.300   5.95608e-28
      256.400   5.67431e-28
      256.500   5.40546e-28
      256.600   5.14929e-28
      256.700   4.90512e-28
      256.800   4.67232e-28
      256.900   4.45040e-28
      257.000   4.23891e-28
      257.100   4.03732e-28
      257.200   3.84525e-28
      257.300   3.66213e-28
      257.400   3.51188e-28
      257.500   3.37644e-28
      257.600   3.24677e-28
      257.700   3.12209e-28
      257.800   3.00212e-28
      257.900   2.88672e-28
      258.000   2.77570e-28
      258.100   2.66887e-28
      258.200   2.56614e-28
      258.300   2.46733e-28
      258.400   2.37222e-28
      258.500   2.28072e-28
      258.600   2.19275e-28
      258.700   2.10812e-28
      258.800   2.02670e-28
      258.900   1.94843e-28
      259.000   1.87309e-28
      259.100   1.80066e-28
      259.200   1.73104e-28
      259.300   1.66417e-28
      259.400   1.59985e-28
      259.500   1.53796e-28
      259.600   1.47845e-28
      259.700   1.42123e-28
      259.800   1.36618e-28
      259.900   1.31322e-28
      260.000   1.26233e-28
      260.100   1.21337e-28
      260.200   1.16629e-28
      260.300   1.12102e-28
      260.400   1.07749e-28
      260.500   1.03564e-28
      260.600   9.95388e-29
      260.700   9.56679e-29
      260.800   9.19491e-29
      260.900   8.83702e-29
      261.000   8.49327e-29
      261.100   8.16307e-29
      261.200   7.84556e-29
      261.300   7.54024e-29
      261.400   7.24683e-29
      261.500   6.99498e-29
      261.600   6.85010e-29
      261.700   6.72521e-29
      261.800   6.60266e-29
      261.900   6.48224e-29
      262.000   6.36403e-29
      262.100   6.24796e-29
      262.200   6.13406e-29
      262.300   6.02216e-29
      262.400   5.91230e-29
      262.500   5.80448e-29
      262.600   5.69858e-29
      262.700   5.59464e-29
      262.800   5.49257e-29
      262.900   5.39225e-29
      263.000   5.29398e-29
      263.100   5.19739e-29
      263.200   5.10260e-29
      263.300   5.00957e-29
      263.400   4.91819e-29
      263.500   4.82850e-29
      263.600   4.74051e-29
      263.700   4.65407e-29
      263.800   4.56917e-29
      263.900   4.48593e-29
      264.000   4.40417e-29
      264.100   4.32387e-29
      264.200   4.24504e-29
      264.300   4.16771e-29
      264.400   4.09178e-29
      264.500   4.01722e-29
      264.600   3.94400e-29
      264.700   3.87216e-29
      264.800   3.80162e-29
      264.900   3.73242e-29
      265.000   3.66446e-29
      265.100   3.59772e-29
      265.200   3.53223e-29
      265.300   3.46793e-29
      265.400   3.40484e-29
      265.500   3.34290e-29
      265.600   3.28209e-29
      265.700   3.22238e-29
      265.800   3.16385e-29
      265.900   3.10638e-29
      266.000   3.05001e-29
      266.100   2.99469e-29
      266.200   2.94034e-29
      266.300   2.88700e-29
      266.400   2.83465e-29
      266.500   2.78325e-29
      266.600   2.73281e-29
      266.700   2.68327e-29
      266.800   2.63469e-29
      266.900   2.58698e-29
      267.000   2.54014e-29
      267.100   2.49418e-29
      267.200   2.44909e-29
      267.300   2.40481e-29
      267.400   2.36131e-29
      267.500   2.31863e-29
      267.600   2.27674e-29
      267.700   2.23561e-29
      267.800   2.19523e-29
      267.900   2.15561e-29
      268.000   2.11673e-29
      268.100   2.07856e-29
      268.200   2.04109e-29
      268.300   2.00431e-29
      268.400   1.96819e-29
      268.500   1.93275e-29
      268.600   1.89794e-29
      268.700   1.86381e-29
      268.800   1.83027e-29
      268.900   1.79736e-29
      269.000   1.76507e-29
      269.100   1.73335e-29
      269.200   1.70223e-29
      269.300   1.67167e-29
      269.400   1.64167e-29
      269.500   1.61220e-29
      269.600   1.58332e-29
      269.700   1.55492e-29
      269.800   1.52708e-29
      269.900   1.49971e-29
      270.000   1.47289e-29
      270.100   1.44653e-29
      270.200   1.42070e-29
      270.300   1.39531e-29
      270.400   1.37038e-29
      270.500   1.34592e-29
      270.600   1.32190e-29
      270.700   1.29832e-29
      270.800   1.27517e-29
      270.900   1.25244e-29
      271.000   1.23012e-29
      271.100   1.20819e-29
      271.200   1.18667e-29
      271.300   1.16555e-29
      271.400   1.14480e-29
      271.500   1.12444e-29
      271.600   1.10443e-29
      271.700   1.08479e-29
      271.800   1.06550e-29
      271.900   1.04656e-29
      272.000   1.02797e-29
      272.100   1.00971e-29
      272.200   9.91768e-30
      272.300   9.74152e-30
      272.400   9.56852e-30
      272.500   9.39869e-30
      272.600   9.23185e-30
      272.700   9.06803e-30
      272.800   8.90710e-30
      272.900   8.74905e-30
      273.000   8.59391e-30
      273.100   8.44150e-30
      273.200   8.29182e-30
      273.300   8.14481e-30
      273.400   8.00037e-30
      273.500   7.85853e-30
      273.600   7.71923e-30
      273.700   7.58233e-30
      273.800   7.44788e-30
      273.900   7.31593e-30
      274.000   7.18626e-30
      274.100   7.05891e-30
      274.200   6.93378e-30
      274.300   6.81090e-30
      274.400   6.68937e-30
      274.500   6.56796e-30
      274.600   6.44841e-30
      274.700   6.33106e-30
      274.800   6.21583e-30
      274.900   6.10265e-30
      275.000   5.99150e-30
      275.100   5.88241e-30
      275.200   5.77524e-30
      275.300   5.67000e-30
      275.400   5.56674e-30
      275.500   5.46534e-30
      275.600   5.36570e-30
      275.700   5.26788e-30
      275.800   5.17185e-30
      275.900   5.07758e-30
      276.000   4.98500e-30
      276.100   4.89405e-30
      276.200   4.80472e-30
      276.300   4.71704e-30
      276.400   4.63093e-30
      276.500   4.54639e-30
      276.600   4.46338e-30
      276.700   4.38183e-30
      276.800   4.30179e-30
      276.900   4.22314e-30
      277.000   4.14596e-30
      277.100   4.07012e-30
      277.200   3.99568e-30
      277.300   3.92259e-30
      277.400   3.85081e-30
      277.500   3.78027e-30
      277.600   3.71107e-30
      277.700   3.64308e-30
      277.800   3.57627e-30
      277.900   3.51072e-30
      278.000   3.44639e-30
      278.100   3.38319e-30
      278.200   3.32112e-30
      278.300   3.26017e-30
      278.400   3.20034e-30
      278.500   3.14153e-30
      278.600   3.08381e-30
      278.700   3.02716e-30
      278.800   2.97153e-30
      278.900   2.91678e-30
      279.000   2.86300e-30
      279.100   2.81020e-30
      279.200   2.75832e-30
      279.300   2.70743e-30
      279.400   2.65742e-30
      279.500   2.60832e-30
      279.600   2.56013e-30
      279.700   2.51283e-30
      279.800   2.46638e-30
      279.900   2.42075e-30
      280.000   2.37596e-30
      280.100   2.33197e-30
      280.200   2.28880e-30
      280.300   2.24640e-30
      280.400   2.20478e-30
      280.500   2.16394e-30
      280.600   2.12383e-30
      280.700   2.08443e-30
      280.800   2.04577e-30
      280.900   2.00780e-30
      281.000   1.97052e-30
      281.100   1.93392e-30
      281.200   1.89799e-30
      281.300   1.86273e-30
      281.400   1.82812e-30
      281.500   1.79412e-30
      281.600   1.76073e-30
      281.700   1.72797e-30
      281.800   1.69582e-30
      281.900   1.66425e-30
      282.000   1.63326e-30
      282.100   1.60283e-30
      282.200   1.57298e-30
      282.300   1.54365e-30
      282.400   1.51487e-30
      282.500   1.48661e-30
      282.600   1.45888e-30
      282.700   1.43164e-30
      282.800   1.40492e-30
      282.900   1.37871e-30
      283.000   1.35296e-30
      283.100   1.32769e-30
      283.200   1.30291e-30
      283.300   1.27856e-30
      283.400   1.25468e-30
      283.500   1.23124e-30
      283.600   1.20823e-30
      283.700   1.18563e-30
      283.800   1.16346e-30
      283.900   1.14171e-30
      284.000   1.12035e-30
      284.100   1.09938e-30
      284.200   1.07880e-30
      284.300   1.05861e-30
      284.400   1.03879e-30
      284.500   1.01935e-30
      284.600   1.00026e-30
      284.700   9.81534e-31
      284.800   9.63153e-31
      284.900   9.45112e-31
      285.000   9.27395e-31
      285.100   9.10015e-31
      285.200   8.92968e-31
      285.300   8.76230e-31
      285.400   8.59804e-31
      285.500   8.43680e-31
      285.600   8.27879e-31
      285.700   8.12353e-31
      285.800   7.97129e-31
      285.900   7.82185e-31
      286.000   7.67524e-31
      286.100   7.53150e-31
      286.200   7.39034e-31
      286.300   7.25193e-31
      286.400   7.11608e-31
      286.500   6.98272e-31
      286.600   6.85184e-31
      286.700   6.72342e-31
      286.800   6.59749e-31
      286.900   6.47389e-31
      287.000   6.35259e-31
      287.100   6.23354e-31
      287.200   6.11680e-31
      287.300   6.00222e-31
      287.400   5.88978e-31
      287.500   5.77948e-31
      287.600   5.67129e-31
      287.700   5.56508e-31
      287.800   5.46090e-31
      287.900   5.35867e-31
      288.000   5.25841e-31
      288.100   5.15999e-31
      288.200   5.06352e-31
      288.300   4.96887e-31
      288.400   4.87600e-31
      288.500   4.78490e-31
      288.600   4.69544e-31
      288.700   4.60774e-31
      288.800   4.52166e-31
      288.900   4.43726e-31
      289.000   4.35442e-31
      289.100   4.27312e-31
      289.200   4.19336e-31
      289.300   4.11514e-31
      289.400   4.03837e-31
      289.500   3.96304e-31
      289.600   3.88913e-31
      289.700   3.81669e-31
      289.800   3.74554e-31
      289.900   3.67569e-31
      290.000   3.60728e-31
      290.100   3.54006e-31
      290.200   3.47424e-31
      290.300   3.40960e-31
      290.400   3.34619e-31
      290.500   3.28404e-31
      290.600   3.22299e-31
      290.700   3.16310e-31
      290.800   3.10439e-31
      290.900   3.04676e-31
      291.000   2.99017e-31
      291.100   2.93465e-31
      291.200   2.88021e-31
      291.300   2.82678e-31
      291.400   2.77437e-31
      291.500   2.72292e-31
      291.600   2.67245e-31
      291.700   2.62294e-31
      291.800   2.57434e-31
      291.900   2.52671e-31
      292.000   2.48001e-31
      292.100   2.43415e-31
      292.200   2.38917e-31
      292.300   2.34500e-31
      292.400   2.30167e-31
      292.500   2.25914e-31
      292.600   2.21741e-31
      292.700   2.17647e-31
      292.800   2.13629e-31
      292.900   2.09686e-31
      293.000   2.05818e-31
      293.100   2.02022e-31
      293.200   1.98295e-31
      293.300   1.94637e-31
      293.400   1.91053e-31
      293.500   1.87534e-31
      293.600   1.84083e-31
      293.700   1.80693e-31
      293.800   1.77370e-31
      293.900   1.74107e-31
      294.000   1.70904e-31
      294.100   1.67761e-31
      294.200   1.64679e-31
      294.300   1.61653e-31
      294.400   1.58682e-31
      294.500   1.55767e-31
      294.600   1.52904e-31
      294.700   1.50096e-31
      294.800   1.47340e-31
      294.900   1.44634e-31
      295.000   1.41982e-31
      295.100   1.39380e-31
      295.200   1.36825e-31
      295.300   1.34315e-31
      295.400   1.31854e-31
      295.500   1.29438e-31
      295.600   1.27066e-31
      295.700   1.24738e-31
      295.800   1.22453e-31
      295.900   1.20208e-31
      296.000   1.18007e-31
      296.100   1.15844e-31
      296.200   1.13723e-31
      296.300   1.11641e-31
      296.400   1.09601e-31
      296.500   1.07595e-31
      296.600   1.05627e-31
      296.700   1.03695e-31
      296.800   1.01799e-31
      296.900   9.99372e-32
      297.000   9.81092e-32
      297.100   9.63142e-32
      297.200   9.45527e-32
      297.300   9.28234e-32
      297.400   9.11260e-32
      297.500   8.94582e-32
      297.600   8.78236e-32
      297.700   8.62185e-32
      297.800   8.46431e-32
      297.900   8.30971e-32
      298.000   8.15792e-32
      298.100   8.00882e-32
      298.200   7.86245e-32
      298.300   7.71879e-32
      298.400   7.57769e-32
      298.500   7.43913e-32
      298.600   7.30312e-32
      298.700   7.16956e-32
      298.800   7.03837e-32
      298.900   6.90976e-32
      299.000   6.78357e-32
      299.100   6.65966e-32
      299.200   6.53788e-32
      299.300   6.41836e-32
      299.400   6.30101e-32
      299.500   6.18580e-32
      299.600   6.07265e-32
      299.700   5.96153e-32
      299.800   5.85241e-32
      299.900   5.74533e-32
      300.000   5.64015e-32
      300.100   5.53690e-32
      300.192   5.44365e-32
      300.285   5.35082e-32
      300.377   5.26065e-32
      300.470   5.17107e-32
      300.562   5.08389e-32
      300.654   4.99816e-32
      300.747   4.91295e-32
      300.839   4.83011e-32
      300.932   4.74768e-32
      301.025   4.66671e-32
      301.117   4.58800e-32
      301.210   4.50964e-32
      301.303   4.43273e-32
      301.395   4.35793e-32
      301.488   4.28347e-32
      301.581   4.21035e-32
      301.674   4.13844e-32
      301.766   4.06846e-32
      301.859   3.99893e-32
      301.952   3.93061e-32
      302.045   3.86342e-32
      302.138   3.80302e-32
      302.231   3.75626e-32
      302.324   3.71061e-32
      302.417   3.66557e-32
      302.510   3.62098e-32
      302.603   3.57701e-32
      302.696   3.53348e-32
      302.789   3.49046e-32
      302.882   3.44796e-32
      302.976   3.40558e-32
      303.069   3.36410e-32
      303.162   3.32309e-32
      303.255   3.28255e-32
      303.349   3.24209e-32
      303.442   3.20251e-32
      303.535   3.16342e-32
      303.629   3.12437e-32
      303.722   3.08621e-32
      303.816   3.04811e-32
      303.909   3.01082e-32
      304.003   2.97359e-32
      304.096   2.93721e-32
      304.190   2.90087e-32
      304.283   2.86532e-32
      304.377   2.82984e-32
      304.471   2.79475e-32
      304.564   2.76046e-32
      304.658   2.72627e-32
      304.752   2.69242e-32
      304.846   2.65900e-32
      304.939   2.62633e-32
      305.033   2.59369e-32
      305.127   2.56144e-32
      305.221   2.52958e-32
      305.315   2.49814e-32
      305.409   2.46701e-32
      305.503   2.43629e-32
      305.597   2.40596e-32
      305.691   2.37596e-32
      305.785   2.34635e-32
      305.879   2.31706e-32
      305.973   2.28814e-32
      306.067   2.25956e-32
      306.161   2.23133e-32
      306.255   2.20345e-32
      306.350   2.17560e-32
      306.444   2.14837e-32
      306.538   2.12150e-32
      306.633   2.09467e-32
      306.727   2.06843e-32
      306.821   2.04251e-32
      306.916   2.01664e-32
      307.010   1.99184e-32
      307.105   1.96868e-32
      307.199   1.94627e-32
      307.294   1.92385e-32
      307.388   1.90194e-32
      307.483   1.88004e-32
      307.577   1.85861e-32
      307.672   1.83718e-32
      307.767   1.81600e-32
      307.861   1.79527e-32
      307.956   1.77452e-32
      308.051   1.75403e-32
      308.146   1.73378e-32
      308.240   1.71394e-32
      308.335   1.69411e-32
      308.430   1.67450e-32
      308.525   1.65513e-32
      308.620   1.63597e-32
      308.715   1.61702e-32
      308.810   1.59830e-32
      308.905   1.57977e-32
      309.000   1.56144e-32
      309.095   1.54333e-32
      309.190   1.52543e-32
      309.285   1.50773e-32
      309.380   1.49023e-32
      309.476   1.47276e-32
      309.571   1.45564e-32
      309.666   1.43873e-32
      309.761   1.42201e-32
      309.857   1.40531e-32
      309.952   1.38895e-32
      310.047   1.37280e-32
      310.143   1.35666e-32
      310.238   1.34087e-32
      310.334   1.32510e-32
      310.429   1.30967e-32
      310.525   1.29425e-32
      310.620   1.27918e-32
      310.716   1.26412e-32
      310.811   1.24941e-32
      310.907   1.23469e-32
      311.003   1.22015e-32
      311.098   1.20592e-32
      311.194   1.19171e-32
      311.290   1.17768e-32
      311.386   1.16381e-32
      311.481   1.15024e-32
      311.577   1.13668e-32
      311.673   1.12329e-32
      311.769   1.11005e-32
      311.865   1.09695e-32
      311.961   1.08406e-32
      312.057   1.07145e-32
      312.153   1.05906e-32
      312.249   1.04680e-32
      312.345   1.03469e-32
      312.441   1.02271e-32
      312.537   1.01088e-32
      312.633   9.99180e-33
      312.730   9.87491e-33
      312.826   9.76063e-33
      312.922   9.64763e-33
      313.018   9.53603e-33
      313.115   9.42456e-33
      313.211   9.31546e-33
      313.307   9.20771e-33
      313.404   9.10013e-33
      313.500   8.99485e-33
      313.597   8.88980e-33
      313.693   8.78701e-33
      313.790   8.68437e-33
      313.886   8.58399e-33
      313.983   8.48371e-33
      314.079   8.38565e-33
      314.176   8.28775e-33
      314.273   8.19100e-33
      314.369   8.09653e-33
      314.466   8.00211e-33
      314.563   7.90877e-33
      314.660   7.81651e-33
      314.756   7.72632e-33
      314.853   7.63621e-33
      314.950   7.54724e-33
      315.047   7.45936e-33
      315.144   7.37252e-33
      315.241   7.28668e-33
      315.338   7.20188e-33
      315.435   7.11806e-33
      315.532   7.03522e-33
      315.629   6.95339e-33
      315.726   6.87259e-33
      315.823   6.79265e-33
      315.921   6.71293e-33
      316.018   6.63498e-33
      316.115   6.55796e-33
      316.212   6.48182e-33
      316.310   6.40583e-33
      316.407   6.33151e-33
      316.504   6.25807e-33
      316.602   6.18480e-33
      316.699   6.11318e-33
      316.796   6.04231e-33
      316.894   5.97165e-33
      316.991   5.90266e-33
      317.089   5.83461e-33
      317.187   5.76787e-33
      317.284   5.70256e-33
      317.382   5.63735e-33
      317.479   5.57352e-33
      317.577   5.50980e-33
      317.675   5.44686e-33
      317.773   5.38464e-33
      317.870   5.32383e-33
      317.968   5.26307e-33
      318.066   5.20302e-33
      318.164   5.14369e-33
      318.262   5.08506e-33
      318.360   5.02713e-33
      318.458   4.96992e-33
      318.556   4.91341e-33
      318.654   4.85753e-33
      318.752   4.80226e-33
      318.850   4.74770e-33
      318.948   4.69376e-33
      319.046   4.64047e-33
      319.144   4.58778e-33
      319.242   4.53573e-33
      319.341   4.48378e-33
      319.439   4.43296e-33
      319.537   4.38277e-33
      319.635   4.33314e-33
      319.734   4.28358e-33
      319.832   4.23513e-33
      319.930   4.18721e-33
      320.029   4.13939e-33
      320.127   4.09263e-33
      320.226   4.04595e-33
      320.324   4.00025e-33
      320.423   3.95461e-33
      320.522   3.90960e-33
      320.620   3.86553e-33
      320.719   3.82150e-33
      320.818   3.77803e-33
      320.916   3.73548e-33
      321.015   3.69301e-33
      321.114   3.65102e-33
      321.213   3.60953e-33
      321.311   3.56898e-33
      321.410   3.52848e-33
      321.509   3.48841e-33
      321.608   3.44884e-33
      321.707   3.40974e-33
      321.806   3.37110e-33
      321.905   3.33291e-33
      322.004   3.29517e-33
      322.103   3.25787e-33
      322.202   3.22097e-33
      322.301   3.18454e-33
      322.401   3.14819e-33
      322.500   3.11261e-33
      322.599   3.07744e-33
      322.698   3.04266e-33
      322.798   3.00795e-33
      322.897   2.97400e-33
      322.996   2.94044e-33
      323.096   2.90692e-33
      323.195   2.87413e-33
      323.294   2.84170e-33
      323.394   2.80934e-33
      323.493   2.77768e-33
      323.593   2.74610e-33
      323.692   2.71516e-33
      323.792   2.68427e-33
      323.892   2.65373e-33
      323.991   2.62384e-33
      324.091   2.59404e-33
      324.191   2.56457e-33
      324.291   2.53542e-33
      324.390   2.50692e-33
      324.490   2.47845e-33
      324.590   2.45031e-33
      324.690   2.42248e-33
      324.790   2.39499e-33
      324.890   2.36782e-33
      324.990   2.34096e-33
      325.090   2.31441e-33
      325.190   2.28814e-33
      325.290   2.26220e-33
      325.390   2.23652e-33
      325.490   2.21118e-33
      325.590   2.18612e-33
      325.690   2.16130e-33
      325.790   2.13679e-33
      325.891   2.11233e-33
      325.991   2.08838e-33
      326.091   2.06470e-33
      326.192   2.04106e-33
      326.292   2.01793e-33
      326.392   1.99506e-33
      326.493   1.97222e-33
      326.593   1.94986e-33
      326.694   1.92755e-33
      326.794   1.90569e-33
      326.895   1.88387e-33
      326.995   1.86251e-33
      327.096   1.84118e-33
      327.197   1.82010e-33
      327.297   1.79946e-33
      327.398   1.77885e-33
      327.499   1.75849e-33
      327.599   1.73854e-33
      327.700   1.71862e-33
      327.801   1.69892e-33
      327.902   1.67946e-33
      328.003   1.66021e-33
      328.104   1.64118e-33
      328.205   1.62238e-33
      328.306   1.60378e-33
      328.407   1.58539e-33
      328.508   1.56719e-33
      328.609   1.54920e-33
      328.710   1.53141e-33
      328.811   1.51383e-33
      328.912   1.49645e-33
      329.013   1.47926e-33
      329.115   1.46211e-33
      329.216   1.44532e-33
      329.317   1.42869e-33
      329.419   1.41211e-33
      329.520   1.39587e-33
      329.621   1.37979e-33
      329.723   1.36375e-33
      329.824   1.34806e-33
      329.926   1.33238e-33
      330.027   1.31703e-33
      330.129   1.30170e-33
      330.230   1.28670e-33
      330.332   1.27171e-33
      330.434   1.25689e-33
      330.535   1.24239e-33
      330.637   1.22790e-33
      330.739   1.21357e-33
      330.840   1.19954e-33
      330.942   1.18554e-33
      331.044   1.17169e-33
      331.146   1.15799e-33
      331.248   1.14445e-33
      331.350   1.13108e-33
      331.452   1.11785e-33
      331.554   1.10504e-33
      331.656   1.09277e-33
      331.758   1.08063e-33
      331.860   1.06861e-33
      331.962   1.05674e-33
      332.064   1.04498e-33
      332.166   1.03337e-33
      332.268   1.02186e-33
      332.371   1.01037e-33
      332.473   9.99108e-34
      332.575   9.87957e-34
      332.677   9.76935e-34
      332.780   9.65923e-34
      332.882   9.55137e-34
      332.985   9.44362e-34
      333.087   9.33800e-34
      333.190   9.23258e-34
      333.292   9.12802e-34
      333.395   9.02032e-34
      333.497   8.91375e-34
      333.600   8.80738e-34
      333.702   8.70323e-34
      333.805   8.59922e-34
      333.908   8.49640e-34
      334.011   8.39479e-34
      334.113   8.29527e-34
      334.216   8.19592e-34
      334.319   8.09775e-34
      334.422   8.00059e-34
      334.525   7.90462e-34
      334.628   7.80971e-34
      334.731   7.71596e-34
      334.834   7.62328e-34
      334.937   7.53164e-34
      335.040   7.44102e-34
      335.143   7.35149e-34
      335.246   7.26295e-34
      335.349   7.17540e-34
      335.452   7.08890e-34
      335.555   7.00338e-34
      335.659   6.91807e-34
      335.762   6.83458e-34
      335.865   6.75209e-34
      335.969   6.66967e-34
      336.072   6.58891e-34
      336.175   6.50920e-34
      336.279   6.42965e-34
      336.382   6.35181e-34
      336.486   6.27405e-34
      336.589   6.19792e-34
      336.693   6.12209e-34
      336.796   6.04778e-34
      336.900   5.97366e-34
      337.004   5.90035e-34
      337.107   5.82863e-34
      337.211   5.75708e-34
      337.315   5.68646e-34
      337.419   5.61654e-34
      337.523   5.54741e-34
      337.626   5.47982e-34
      337.730   5.41248e-34
      337.834   5.34579e-34
      337.938   5.28000e-34
      338.042   5.21510e-34
      338.146   5.15161e-34
      338.250   5.08897e-34
      338.354   5.02707e-34
      338.458   4.96585e-34
      338.562   4.90539e-34
      338.667   4.84505e-34
      338.771   4.78597e-34
      338.875   4.72763e-34
      338.979   4.66995e-34
      339.084   4.61248e-34
      339.188   4.55614e-34
      339.292   4.50057e-34
      339.397   4.44503e-34
      339.501   4.39077e-34
      339.606   4.33660e-34
      339.710   4.28357e-34
      339.815   4.23072e-34
      339.919   4.17900e-34
      340.024   4.12736e-34
      340.128   4.07688e-34
      340.233   4.02650e-34
      340.338   3.97678e-34
      340.442   3.92806e-34
      340.547   3.87950e-34
      340.652   3.83153e-34
      340.757   3.78411e-34
      340.862   3.73729e-34
      340.966   3.69150e-34
      341.071   3.64575e-34
      341.176   3.60061e-34
      341.281   3.55603e-34
      341.386   3.51204e-34
      341.491   3.46851e-34
      341.596   3.42561e-34
      341.702   3.38278e-34
      341.807   3.34083e-34
      341.912   3.29946e-34
      342.017   3.25861e-34
      342.122   3.21822e-34
      342.228   3.17794e-34
      342.333   3.13856e-34
      342.438   3.09967e-34
      342.544   3.06092e-34
      342.649   3.02295e-34
      342.754   2.98553e-34
      342.860   2.94815e-34
      342.965   2.91159e-34
      343.071   2.87520e-34
      343.176   2.83958e-34
      343.282   2.80404e-34
      343.388   2.76899e-34
      343.493   2.73485e-34
      343.599   2.70232e-34
      343.705   2.67039e-34
      343.810   2.63906e-34
      343.916   2.60783e-34
      344.022   2.57701e-34
      344.128   2.54652e-34
      344.234   2.51639e-34
      344.340   2.48666e-34
      344.446   2.45722e-34
      344.552   2.42817e-34
      344.658   2.39952e-34
      344.764   2.37116e-34
      344.870   2.34315e-34
      344.976   2.31547e-34
      345.082   2.28813e-34
      345.188   2.26114e-34
      345.294   2.23444e-34
      345.401   2.20783e-34
      345.507   2.18178e-34
      345.613   2.15606e-34
      345.719   2.13064e-34
      345.826   2.10530e-34
      345.932   2.08049e-34
      346.039   2.05576e-34
      346.145   2.03154e-34
      346.252   2.00741e-34
      346.358   1.98380e-34
      346.465   1.96023e-34
      346.571   1.93718e-34
      346.678   1.91419e-34
      346.785   1.89148e-34
      346.891   1.86926e-34
      346.998   1.84710e-34
      347.105   1.82524e-34
      347.212   1.80361e-34
      347.319   1.78227e-34
      347.425   1.76135e-34
      347.532   1.74051e-34
      347.639   1.71994e-34
      347.746   1.69960e-34
      347.853   1.67954e-34
      347.960   1.65968e-34
      348.067   1.64011e-34
      348.174   1.62079e-34
      348.281   1.60164e-34
      348.389   1.58261e-34
      348.496   1.56392e-34
      348.603   1.54553e-34
      348.710   1.52732e-34
      348.818   1.50920e-34
      348.925   1.49144e-34
      349.032   1.47392e-34
      349.140   1.45640e-34
      349.247   1.43926e-34
      349.355   1.42221e-34
      349.462   1.40550e-34
      349.570   1.38882e-34
      349.677   1.37252e-34
      349.785   1.35625e-34
      349.892   1.34036e-34
      350.000   1.32451e-34
      350.100   1.30999e-34
      350.193   1.29666e-34
      350.287   1.28332e-34
      350.380   1.27024e-34
      350.473   1.25733e-34
      350.567   1.24440e-34
      350.660   1.23175e-34
      350.754   1.21910e-34
      350.847   1.20674e-34
      350.941   1.19435e-34
      351.034   1.18222e-34
      351.128   1.17011e-34
      351.221   1.15825e-34
      351.315   1.14640e-34
      351.409   1.13465e-34
      351.502   1.12317e-34
      351.596   1.11168e-34
      351.690   1.10031e-34
      351.783   1.08919e-34
      351.877   1.07808e-34
      351.971   1.06706e-34
      352.065   1.05618e-34
      352.159   1.04541e-34
      352.252   1.03486e-34
      352.346   1.02431e-34
      352.440   1.01387e-34
      352.534   1.00356e-34
      352.628   9.93357e-35
      352.722   9.83246e-35
      352.816   9.73244e-35
      352.910   9.63356e-35
      353.004   9.53569e-35
      353.098   9.43880e-35
      353.192   9.34296e-35
      353.287   9.24719e-35
      353.381   9.15342e-35
      353.475   9.06068e-35
      353.569   8.96874e-35
      353.663   8.87783e-35
      353.758   8.78710e-35
      353.852   8.69823e-35
      353.946   8.61025e-35
      354.041   8.52220e-35
      354.135   8.43604e-35
      354.229   8.35074e-35
      354.324   8.26561e-35
      354.418   8.18201e-35
      354.513   8.09853e-35
      354.607   8.01698e-35
      354.702   7.93497e-35
      354.796   7.85407e-35
      354.891   7.77296e-35
      354.985   7.69369e-35
      355.080   7.61432e-35
      355.175   7.53591e-35
      355.269   7.45899e-35
      355.364   7.38216e-35
      355.459   7.30613e-35
      355.553   7.23174e-35
      355.648   7.15730e-35
      355.743   7.08369e-35
      355.838   7.01076e-35
      355.933   6.93874e-35
      356.027   6.86820e-35
      356.122   6.79759e-35
      356.217   6.72773e-35
      356.312   6.65867e-35
      356.407   6.59029e-35
      356.502   6.52265e-35
      356.597   6.45561e-35
      356.692   6.38946e-35
      356.787   6.32392e-35
      356.882   6.25903e-35
      356.977   6.19486e-35
      357.073   6.13075e-35
      357.168   6.06784e-35
      357.263   6.00566e-35
      357.358   5.94414e-35
      357.453   5.88328e-35
      357.549   5.82242e-35
      357.644   5.76279e-35
      357.739   5.70381e-35
      357.835   5.64486e-35
      357.930   5.58710e-35
      358.025   5.52990e-35
      358.121   5.47272e-35
      358.216   5.41672e-35
      358.312   5.36072e-35
      358.407   5.30592e-35
      358.503   5.25108e-35
      358.598   5.19746e-35
      358.694   5.14378e-35
      358.790   5.09064e-35
      358.885   5.03857e-35
      358.981   4.98656e-35
      359.076   4.93557e-35
      359.172   4.88465e-35
      359.268   4.83416e-35
      359.364   4.78421e-35
      359.459   4.73538e-35
      359.555   4.68653e-35
      359.651   4.63812e-35
      359.747   4.59023e-35
      359.843   4.54286e-35
      359.939   4.49593e-35
      360.035   4.44953e-35
      360.131   4.40359e-35
      360.227   4.35812e-35
      360.323   4.31314e-35
      360.419   4.26863e-35
      360.515   4.22458e-35
      360.611   4.18097e-35
      360.707   4.13776e-35
      360.803   4.09505e-35
      360.899   4.05273e-35
      360.995   4.01094e-35
      361.092   3.96909e-35
      361.188   3.92808e-35
      361.284   3.88752e-35
      361.380   3.84738e-35
      361.477   3.80721e-35
      361.573   3.76789e-35
      361.669   3.72895e-35
      361.766   3.68997e-35
      361.862   3.65185e-35
      361.959   3.61372e-35
      362.055   3.57629e-35
      362.152   3.53894e-35
      362.248   3.50231e-35
      362.345   3.46567e-35
      362.441   3.42984e-35
      362.538   3.39399e-35
      362.635   3.35850e-35
      362.731   3.32368e-35
      362.828   3.28886e-35
      362.925   3.25444e-35
      363.021   3.22073e-35
      363.118   3.18700e-35
      363.215   3.15358e-35
      363.312   3.12051e-35
      363.409   3.08782e-35
      363.505   3.05576e-35
      363.602   3.02369e-35
      363.699   2.99200e-35
      363.796   2.96058e-35
      363.893   2.92948e-35
      363.990   2.89870e-35
      364.087   2.86824e-35
      364.184   2.83810e-35
      364.281   2.80826e-35
      364.378   2.77875e-35
      364.475   2.74951e-35
      364.573   2.72024e-35
      364.670   2.69158e-35
      364.767   2.66324e-35
      364.864   2.63519e-35
      364.961   2.60739e-35
      365.059   2.57962e-35
      365.156   2.55241e-35
      365.253   2.52547e-35
      365.351   2.49852e-35
      365.448   2.47212e-35
      365.545   2.44601e-35
      365.643   2.41988e-35
      365.740   2.39427e-35
      365.838   2.36867e-35
      365.935   2.34360e-35
      366.033   2.31854e-35
      366.130   2.29395e-35
      366.228   2.26939e-35
      366.326   2.24508e-35
      366.423   2.22124e-35
      366.521   2.19741e-35
      366.618   2.17405e-35
      366.716   2.15070e-35
      366.814   2.12759e-35
      366.912   2.10473e-35
      367.010   2.08211e-35
      367.107   2.05994e-35
      367.205   2.03775e-35
      367.303   2.01580e-35
      367.401   1.99407e-35
      367.499   1.97257e-35
      367.597   1.95129e-35
      367.695   1.93021e-35
      367.793   1.90937e-35
      367.891   1.88876e-35
      367.989   1.86834e-35
      368.087   1.84813e-35
      368.185   1.82812e-35
      368.283   1.80833e-35
      368.381   1.78873e-35
      368.480   1.76914e-35
      368.578   1.74995e-35
      368.676   1.73096e-35
      368.774   1.71218e-35
      368.873   1.69340e-35
      368.971   1.67499e-35
      369.069   1.65679e-35
      369.168   1.63857e-35
      369.266   1.62071e-35
      369.364   1.60306e-35
      369.463   1.58543e-35
      369.561   1.56814e-35
      369.660   1.55086e-35
      369.758   1.53393e-35
      369.857   1.51701e-35
      369.955   1.50044e-35
      370.054   1.48385e-35
      370.153   1.46745e-35
      370.251   1.45139e-35
      370.350   1.43534e-35
      370.449   1.41946e-35
      370.547   1.40390e-35
      370.646   1.38833e-35
      370.745   1.37295e-35
      370.844   1.35772e-35
      370.943   1.34265e-35
      371.041   1.32790e-35
      371.140   1.31314e-35
      371.239   1.29853e-35
      371.338   1.28410e-35
      371.437   1.26982e-35
      371.536   1.25568e-35
      371.635   1.24168e-35
      371.734   1.22786e-35
      371.833   1.21417e-35
      371.932   1.20062e-35
      372.032   1.18709e-35
      372.131   1.17383e-35
      372.230   1.16072e-35
      372.329   1.14776e-35
      372.428   1.13493e-35
      372.528   1.12212e-35
      372.627   1.10957e-35
      372.726   1.09716e-35
      372.826   1.08476e-35
      372.925   1.07261e-35
      373.024   1.06059e-35
      373.124   1.04858e-35
      373.223   1.03682e-35
      373.323   1.02508e-35
      373.422   1.01357e-35
      373.522   1.00207e-35
      373.621   9.90817e-36
      373.721   9.79571e-36
      373.820   9.68556e-36
      373.920   9.57549e-36
      374.020   9.46661e-36
      374.119   9.36003e-36
      374.219   9.25349e-36
      374.319   9.14824e-36
      374.419   9.04412e-36
      374.518   8.94211e-36
      374.618   8.84022e-36
      374.718   8.73934e-36
      374.818   8.63969e-36
      374.918   8.54116e-36
      375.018   8.44366e-36
      375.118   8.34732e-36
      375.218   8.25194e-36
      375.318   8.15768e-36
      375.418   8.06442e-36
      375.518   7.97229e-36
      375.618   7.88115e-36
      375.718   7.79091e-36
      375.818   7.70175e-36
      375.918   7.61357e-36
      376.019   7.52558e-36
      376.119   7.43940e-36
      376.219   7.35416e-36
      376.319   7.26986e-36
      376.420   7.18571e-36
      376.520   7.10328e-36
      376.620   7.02185e-36
      376.721   6.94047e-36
      376.821   6.86083e-36
      376.922   6.78128e-36
      377.022   6.70339e-36
      377.122   6.62646e-36
      377.223   6.54961e-36
      377.323   6.47437e-36
      377.424   6.39923e-36
      377.525   6.32498e-36
      377.625   6.25225e-36
      377.726   6.17965e-36
      377.827   6.10792e-36
      377.927   6.03765e-36
      378.028   5.96754e-36
      378.129   5.89822e-36
      378.230   5.84380e-36
      378.330   5.81200e-36
      378.431   5.78367e-36
      378.532   5.75552e-36
      378.633   5.72742e-36
      378.734   5.69950e-36
      378.835   5.67169e-36
      378.936   5.64401e-36
      379.037   5.61641e-36
      379.138   5.58888e-36
      379.239   5.56153e-36
      379.340   5.53437e-36
      379.441   5.50731e-36
      379.542   5.48032e-36
      379.643   5.45348e-36
      379.745   5.42648e-36
      379.846   5.39989e-36
      379.947   5.37333e-36
      380.048   5.34697e-36
      380.150   5.32048e-36
      380.251   5.29435e-36
      380.352   5.26836e-36
      380.454   5.24226e-36
      380.555   5.21647e-36
      380.656   5.19078e-36
      380.758   5.16502e-36
      380.859   5.13959e-36
      380.961   5.11406e-36
      381.062   5.08890e-36
      381.164   5.06362e-36
      381.266   5.03844e-36
      381.367   5.01365e-36
      381.469   4.98874e-36
      381.570   4.96420e-36
      381.672   4.93949e-36
      381.774   4.91493e-36
      381.876   4.89048e-36
      381.977   4.86642e-36
      382.079   4.84219e-36
      382.181   4.81810e-36
      382.283   4.79417e-36
      382.385   4.77032e-36
      382.487   4.74662e-36
      382.589   4.72301e-36
      382.691   4.69951e-36
      382.793   4.67615e-36
      382.895   4.65293e-36
      382.997   4.62983e-36
      383.099   4.60682e-36
      383.201   4.58392e-36
      383.303   4.56119e-36
      383.405   4.53850e-36
      383.507   4.51592e-36
      383.610   4.49330e-36
      383.712   4.47099e-36
      383.814   4.44881e-36
      383.916   4.42678e-36
      384.019   4.40460e-36
      384.121   4.38278e-36
      384.223   4.36101e-36
      384.326   4.34084e-36
      384.428   4.32506e-36
      384.531   4.31039e-36
      384.633   4.29595e-36
      384.736   4.28141e-36
      384.838   4.26702e-36
      384.941   4.25258e-36
      385.043   4.23832e-36
      385.146   4.22405e-36
      385.249   4.20975e-36
      385.351   4.19565e-36
      385.454   4.18151e-36
      385.557   4.16740e-36
      385.660   4.15337e-36
      385.762   4.13952e-36
      385.865   4.12559e-36
      385.968   4.11169e-36
      386.071   4.09787e-36
      386.174   4.08408e-36
      386.277   4.07035e-36
      386.380   4.05668e-36
      386.483   4.04304e-36
      386.586   4.02955e-36
      386.689   4.01605e-36
      386.792   4.00259e-36
      386.895   3.98918e-36
      386.998   3.97586e-36
      387.101   3.96256e-36
      387.204   3.94928e-36
      387.308   3.93601e-36
      387.411   3.92290e-36
      387.514   3.90982e-36
      387.617   3.89678e-36
      387.721   3.88369e-36
      387.824   3.87080e-36
      387.927   3.85793e-36
      388.031   3.84500e-36
      388.134   3.83222e-36
      388.238   3.81942e-36
      388.341   3.80676e-36
      388.445   3.79406e-36
      388.548   3.78148e-36
      388.652   3.76892e-36
      388.755   3.75649e-36
      388.859   3.74395e-36
      388.962   3.73160e-36
      389.066   3.71918e-36
      389.170   3.70683e-36
      389.274   3.69455e-36
      389.377   3.68246e-36
      389.481   3.67023e-36
      389.585   3.65807e-36
      389.689   3.64595e-36
      389.793   3.63392e-36
      389.897   3.62191e-36
      390.000   3.61010e-36
      390.104   3.59821e-36
      390.208   3.58634e-36
      390.312   3.57453e-36
      390.416   3.56274e-36
      390.520   3.55097e-36
      390.625   3.53916e-36
      390.729   3.52747e-36
      390.833   3.51584e-36
      390.937   3.50427e-36
      391.041   3.49275e-36
      391.145   3.48122e-36
      391.250   3.46970e-36
      391.354   3.45829e-36
      391.458   3.44693e-36
      391.563   3.43552e-36
      391.667   3.42427e-36
      391.771   3.41308e-36
      391.876   3.40182e-36
      391.980   3.39068e-36
      392.085   3.37951e-36
      392.189   3.36850e-36
      392.294   3.35742e-36
      392.398   3.34648e-36
      392.503   3.33549e-36
      392.607   3.32462e-36
      392.712   3.31375e-36
      392.817   3.30285e-36
      392.921   3.29217e-36
      393.026   3.28137e-36
      393.131   3.27065e-36
      393.236   3.25993e-36
      393.340   3.24942e-36
      393.445   3.23885e-36
      393.550   3.22826e-36
      393.655   3.21775e-36
      393.760   3.20727e-36
      393.865   3.19687e-36
      393.970   3.18645e-36
      394.075   3.17609e-36
      394.180   3.16582e-36
      394.285   3.15557e-36
      394.390   3.14531e-36
      394.495   3.13511e-36
      394.600   3.12498e-36
      394.706   3.11476e-36
      394.811   3.10472e-36
      394.916   3.09463e-36
      395.021   3.08464e-36
      395.126   3.07469e-36
      395.232   3.06467e-36
      395.337   3.05475e-36
      395.443   3.04483e-36
      395.548   3.03499e-36
      395.653   3.02519e-36
      395.759   3.01538e-36
      395.864   3.00569e-36
      395.970   2.99593e-36
      396.075   2.98629e-36
      396.181   2.97660e-36
      396.286   2.96699e-36
      396.392   2.95739e-36
      396.498   2.94782e-36
      396.603   2.93832e-36
      396.709   2.92878e-36
      396.815   2.91923e-36
      396.921   2.90978e-36
      397.026   2.90043e-36
      397.132   2.89106e-36
      397.238   2.88170e-36
      397.344   2.87236e-36
      397.450   2.86308e-36
      397.556   2.85380e-36
      397.662   2.84454e-36
      397.768   2.83533e-36
      397.874   2.82621e-36
      397.980   2.81700e-36
      398.086   2.80792e-36
      398.192   2.79879e-36
      398.298   2.78971e-36
      398.404   2.78073e-36
      398.510   2.77171e-36
      398.617   2.76263e-36
      398.723   2.75368e-36
      398.829   2.74476e-36
      398.935   2.73583e-36
      399.042   2.72692e-36
      399.148   2.71804e-36
      399.255   2.70913e-36
      399.361   2.70034e-36
      399.467   2.69155e-36
      399.574   2.68276e-36
      399.680   2.67401e-36
      399.787   2.66519e-36
      399.893       0.00000
      400.000       0.00000
