Filter Al-thick
observation_date 22-Sept-2022 22:45:45
wavelength effective area
      1.00000   2.52796e-10
      1.10000   6.99231e-10
      1.20000   1.75056e-09
      1.30000   4.00500e-09
      1.40000   8.63385e-09
      1.50000   1.73695e-08
      1.60000   3.28989e-08
      1.70000   5.92531e-08
      1.80000   1.01463e-07
      1.90000   1.66197e-07
      2.00000   2.60862e-07
      2.10000   3.93887e-07
      2.20000   5.74567e-07
      2.30000   8.08488e-07
      2.40000   1.09910e-06
      2.50000   1.43834e-06
      2.60000   1.85767e-06
      2.70000   2.31637e-06
      2.80000   2.80056e-06
      2.90000   3.30647e-06
      3.00000   3.79655e-06
      3.10000   4.24843e-06
      3.20000   4.64044e-06
      3.30000   4.95010e-06
      3.40000   5.15613e-06
      3.50000   5.24838e-06
      3.60000   5.23824e-06
      3.70000   5.10659e-06
      3.80000   4.88302e-06
      3.90000   4.57770e-06
      4.00000   4.20493e-06
      4.10000   3.78875e-06
      4.20000   3.35195e-06
      4.30000   2.91297e-06
      4.40000   2.48756e-06
      4.50000   2.08726e-06
      4.60000   1.71976e-06
      4.70000   1.39609e-06
      4.80000   1.11482e-06
      4.90000   8.65813e-07
      5.00000   6.79627e-07
      5.10000   5.18282e-07
      5.20000   3.90616e-07
      5.30000   2.87417e-07
      5.40000   2.08094e-07
      5.50000   1.48863e-07
      5.60000   1.01584e-07
      5.70000   7.18519e-08
      5.80000   4.51225e-08
      5.90000   3.65381e-08
      6.00000   2.57029e-08
      6.10000   1.69531e-08
      6.20000   1.07819e-08
      6.30000   6.46260e-09
      6.40000   3.64721e-09
      6.50000   1.94471e-09
      6.60000   9.73384e-10
      6.70000   4.69404e-10
      6.80000   2.19299e-10
      6.90000   1.32068e-10
      7.00000   6.59186e-11
      7.10000   3.13941e-11
      7.20000   1.44795e-11
      7.30000   6.58391e-12
      7.40000   3.04816e-12
      7.50000   1.35190e-12
      7.60000   5.72441e-13
      7.70000   2.49896e-13
      7.80000   1.03034e-13
      7.90000   4.15187e-14
      8.00000     0.0716782
      8.10000     0.0717250
      8.20000     0.0664526
      8.30000     0.0611492
      8.40000     0.0562179
      8.50000     0.0515332
      8.60000     0.0471274
      8.70000     0.0429538
      8.80000     0.0390528
      8.90000     0.0353795
      9.00000     0.0319620
      9.10000     0.0287929
      9.20000     0.0258439
      9.30000     0.0231562
      9.40000     0.0206795
      9.50000     0.0184021
      9.60000     0.0163534
      9.70000     0.0144850
      9.80000     0.0127794
      9.90000     0.0112450
      10.0000    0.00986571
      10.1000    0.00862228
      10.2000    0.00750616
      10.3000    0.00652017
      10.4000    0.00565222
      10.5000    0.00488348
      10.6000    0.00420524
      10.7000    0.00360905
      10.8000    0.00308960
      10.9000    0.00264129
      11.0000    0.00225083
      11.1000    0.00191200
      11.2000    0.00161898
      11.3000    0.00136655
      11.4000    0.00114985
      11.5000   0.000964434
      11.6000   0.000806378
      11.7000   0.000673451
      11.8000   0.000560859
      11.9000   0.000466647
      12.0000   0.000387260
      12.1000   0.000321952
      12.2000   0.000271993
      12.3000   0.000226143
      12.4000   0.000185783
      12.5000   0.000152031
      12.6000   0.000123978
      12.7000   0.000100757
      12.8000   8.16221e-05
      12.9000   6.59207e-05
      13.0000   5.30757e-05
      13.1000   4.25975e-05
      13.2000   3.40773e-05
      13.3000   2.71707e-05
      13.4000   2.15911e-05
      13.5000   1.71075e-05
      13.6000   1.35733e-05
      13.7000   1.07361e-05
      13.8000   8.46417e-06
      13.9000   6.65038e-06
      14.0000   5.20645e-06
      14.1000   4.06035e-06
      14.2000   3.15362e-06
      14.3000   2.43892e-06
      14.4000   1.87788e-06
      14.5000   1.44537e-06
      14.6000   1.11559e-06
      14.7000   8.56999e-07
      14.8000   6.54988e-07
      14.9000   4.97849e-07
      15.0000   3.76211e-07
      15.1000   2.82549e-07
      15.2000   2.14182e-07
      15.3000   1.61781e-07
      15.4000   1.21335e-07
      15.5000   9.03258e-08
      15.6000   6.67245e-08
      15.7000   4.94812e-08
      15.8000   3.69212e-08
      15.9000   2.73033e-08
      16.0000   2.00097e-08
      16.1000   1.45333e-08
      16.2000   1.07226e-08
      16.3000   7.89027e-09
      16.4000   5.73707e-09
      16.5000   4.12245e-09
      16.6000   2.98234e-09
      16.7000   2.17605e-09
      16.8000   1.56338e-09
      16.9000   1.10664e-09
      17.0000   7.91376e-10
      17.1000   5.70280e-10
      17.2000   4.03179e-10
      17.3000   2.80062e-10
      17.4000   2.00939e-10
      17.5000   1.43292e-10
      17.6000   1.00459e-10
      17.7000   7.06433e-11
      17.8000   5.12960e-11
      17.9000   3.63998e-11
      18.0000   2.52465e-11
      18.1000   1.81928e-11
      18.2000   1.27799e-11
      18.3000   8.69218e-12
      18.4000   6.04303e-12
      18.5000   4.14192e-12
      18.6000   2.72106e-12
      18.7000   1.81804e-12
      18.8000   1.21219e-12
      18.9000   7.72485e-13
      19.0000   5.10497e-13
      19.1000   3.36412e-13
      19.2000   2.11173e-13
      19.3000   1.40205e-13
      19.4000   9.14390e-14
      19.5000   5.67209e-14
      19.6000   3.82773e-14
      19.7000   2.46559e-14
      19.8000   1.52971e-14
      19.9000   1.03823e-14
      20.0000   6.54925e-15
      20.1000   4.19294e-15
      20.2000   2.74958e-15
      20.3000   1.67767e-15
      20.4000   1.10903e-15
      20.5000   6.97261e-16
      20.6000   4.24911e-16
      20.7000   2.80083e-16
      20.8000   1.67878e-16
      20.9000   1.08078e-16
      21.0000   6.69269e-17
      21.1000   3.97073e-17
      21.2000   2.58626e-17
      21.3000   1.50340e-17
      21.4000   9.64668e-18
      21.5000   5.77988e-18
      21.6000   3.45192e-18
      21.7000   2.16223e-18
      21.8000   1.19998e-18
      21.9000   7.87509e-19
      22.0000   4.47969e-19
      22.1000   2.78424e-19
      22.2000   1.63077e-19
      22.3000   9.46952e-20
      22.4000   5.72386e-20
      22.5000   2.96732e-20
      22.6000   1.79946e-20
      22.7000   8.39556e-21
      22.8000   6.33106e-21
      22.9000   4.66528e-21
      23.0000   3.61654e-21
      23.1000   2.61708e-21
      23.2000   1.66443e-21
      23.3000   1.04615e-21
      23.4000   5.94233e-22
      23.5000   3.68372e-22
      23.6000   1.97793e-22
      23.7000   1.26739e-22
      23.8000   6.51529e-23
      23.9000   4.25452e-23
      24.0000   2.19105e-23
      24.1000   1.40133e-23
      24.2000   7.21354e-24
      24.3000   4.53173e-24
      24.4000   2.33657e-24
      24.5000   1.44682e-24
      24.6000   7.47332e-25
      24.7000   4.57226e-25
      24.8000   2.35887e-25
      24.9000   1.43587e-25
      25.0000   7.41370e-26
      25.1000   4.49005e-26
      25.2000   2.29615e-26
      25.3000   1.39224e-26
      25.4000   7.04503e-27
      25.5000   4.28315e-27
      25.6000   2.12506e-27
      25.7000   1.30125e-27
      25.8000   6.30576e-28
      25.9000   3.90147e-28
      26.0000   1.83643e-28
      26.1000   1.15191e-28
      26.2000   5.24556e-29
      26.3000   3.34441e-29
      26.4000   1.46769e-29
      26.5000   9.53095e-30
      26.6000   4.41358e-30
      26.7000   2.66116e-30
      26.8000   1.31280e-30
      26.9000   7.27169e-31
      27.0000   3.81229e-31
      27.1000   1.94126e-31
      27.2000   1.07720e-31
      27.3000   5.05485e-32
      27.4000   2.96580e-32
      27.5000   1.29523e-32
      27.6000   7.95760e-33
      27.7000   3.20589e-33
      27.8000   2.05610e-33
      27.9000   9.12684e-34
      28.0000   5.12944e-34
      28.1000   2.58885e-34
      28.2000   1.24553e-34
      28.3000   6.99418e-35
      28.4000   3.01627e-35
      28.5000   1.82953e-35
      28.6000   7.14247e-36
      28.7000   4.66148e-36
      28.8000   2.19457e-36
      28.9000   1.21322e-36
      29.0000   6.56539e-37
      29.1000   3.04027e-37
      29.2000   1.81799e-37
      29.3000   7.34535e-38
      29.4000   4.73425e-38
      29.5000   2.13828e-38
      29.6000   1.16952e-38
      29.7000   6.30510e-39
      29.8000   2.75560e-39
      29.9000   1.66818e-39
      30.0000   6.21378e-40
      30.1000   4.08329e-40
      30.2000   1.96510e-40
      30.3000   9.42541e-41
      30.4000   5.45890e-41
      30.5000   2.17958e-41
      30.6000   1.38785e-41
      30.7000   6.01297e-42
      30.8000   3.10528e-42
      30.9000   1.70258e-42
      31.0000   6.58610e-43
      31.1000   4.11982e-43
      31.2000   1.66755e-43
      31.3000   9.24857e-44
      31.4000   4.48416e-44
      31.5000   1.96182e-44
      31.6000   9.80909e-45
      31.7000   2.80260e-45
      31.8000   2.80260e-45
      31.9000   2.80260e-45
      32.0000       0.00000
      32.1000       0.00000
      32.2000       0.00000
      32.3000       0.00000
      32.4000       0.00000
      32.5000       0.00000
      32.6000       0.00000
      32.7000       0.00000
      32.8000       0.00000
      32.9000       0.00000
      33.0000       0.00000
      33.1000       0.00000
      33.2000       0.00000
      33.3000       0.00000
      33.4000       0.00000
      33.5000       0.00000
      33.6000       0.00000
      33.7000       0.00000
      33.8000       0.00000
      33.9000       0.00000
      34.0000       0.00000
      34.1000       0.00000
      34.2000       0.00000
      34.3000       0.00000
      34.4000       0.00000
      34.5000       0.00000
      34.6000       0.00000
      34.7000       0.00000
      34.8000       0.00000
      34.9000       0.00000
      35.0000       0.00000
      35.1000       0.00000
      35.2000       0.00000
      35.3000       0.00000
      35.4000       0.00000
      35.5000       0.00000
      35.6000       0.00000
      35.7000       0.00000
      35.8000       0.00000
      35.9000       0.00000
      36.0000       0.00000
      36.1000       0.00000
      36.2000       0.00000
      36.3000       0.00000
      36.4000       0.00000
      36.5000       0.00000
      36.6000       0.00000
      36.7000       0.00000
      36.8000       0.00000
      36.9000       0.00000
      37.0000       0.00000
      37.1000       0.00000
      37.2000       0.00000
      37.3000       0.00000
      37.4000       0.00000
      37.5000       0.00000
      37.6000       0.00000
      37.7000       0.00000
      37.8000       0.00000
      37.9000       0.00000
      38.0000       0.00000
      38.1000       0.00000
      38.2000       0.00000
      38.3000       0.00000
      38.4000       0.00000
      38.5000       0.00000
      38.6000       0.00000
      38.7000       0.00000
      38.8000       0.00000
      38.9000       0.00000
      39.0000       0.00000
      39.1000       0.00000
      39.2000       0.00000
      39.3000       0.00000
      39.4000       0.00000
      39.5000       0.00000
      39.6000       0.00000
      39.7000       0.00000
      39.8000       0.00000
      39.9000       0.00000
      40.0000       0.00000
      40.1000       0.00000
      40.2000       0.00000
      40.3000       0.00000
      40.4000       0.00000
      40.5000       0.00000
      40.6000       0.00000
      40.7000       0.00000
      40.8000       0.00000
      40.9000       0.00000
      41.0000       0.00000
      41.1000       0.00000
      41.2000       0.00000
      41.3000       0.00000
      41.4000       0.00000
      41.5000       0.00000
      41.6000       0.00000
      41.7000       0.00000
      41.8000       0.00000
      41.9000       0.00000
      42.0000       0.00000
      42.1000       0.00000
      42.2000       0.00000
      42.3000       0.00000
      42.4000       0.00000
      42.5000       0.00000
      42.6000       0.00000
      42.7000       0.00000
      42.8000       0.00000
      42.9000       0.00000
      43.0000       0.00000
      43.1000       0.00000
      43.2000       0.00000
      43.3000       0.00000
      43.4000       0.00000
      43.5000       0.00000
      43.6000       0.00000
      43.7000       0.00000
      43.8000       0.00000
      43.9000       0.00000
      44.0000       0.00000
      44.1000       0.00000
      44.2000       0.00000
      44.3000       0.00000
      44.4000       0.00000
      44.5000       0.00000
      44.6000       0.00000
      44.7000       0.00000
      44.8000       0.00000
      44.9000       0.00000
      45.0000       0.00000
      45.1000       0.00000
      45.2000       0.00000
      45.3000       0.00000
      45.4000       0.00000
      45.5000       0.00000
      45.6000       0.00000
      45.7000       0.00000
      45.8000       0.00000
      45.9000       0.00000
      46.0000       0.00000
      46.1000       0.00000
      46.2000       0.00000
      46.3000       0.00000
      46.4000       0.00000
      46.5000       0.00000
      46.6000       0.00000
      46.7000       0.00000
      46.8000       0.00000
      46.9000       0.00000
      47.0000       0.00000
      47.1000       0.00000
      47.2000       0.00000
      47.3000       0.00000
      47.4000       0.00000
      47.5000       0.00000
      47.6000       0.00000
      47.7000       0.00000
      47.8000       0.00000
      47.9000       0.00000
      48.0000       0.00000
      48.1000       0.00000
      48.2000       0.00000
      48.3000       0.00000
      48.4000       0.00000
      48.5000       0.00000
      48.6000       0.00000
      48.7000       0.00000
      48.8000       0.00000
      48.9000       0.00000
      49.0000       0.00000
      49.1000       0.00000
      49.2000       0.00000
      49.3000       0.00000
      49.4000       0.00000
      49.5000       0.00000
      49.6000       0.00000
      49.7000       0.00000
      49.8000       0.00000
      49.9000       0.00000
      50.0000       0.00000
      50.1000       0.00000
      50.2000       0.00000
      50.3000       0.00000
      50.4000       0.00000
      50.5000       0.00000
      50.6000       0.00000
      50.7000       0.00000
      50.8000       0.00000
      50.9000       0.00000
      51.0000       0.00000
      51.1000       0.00000
      51.2000       0.00000
      51.3000       0.00000
      51.4000       0.00000
      51.5000       0.00000
      51.6000       0.00000
      51.7000       0.00000
      51.8000       0.00000
      51.9000       0.00000
      52.0000       0.00000
      52.1000       0.00000
      52.2000       0.00000
      52.3000       0.00000
      52.4000       0.00000
      52.5000       0.00000
      52.6000       0.00000
      52.7000       0.00000
      52.8000       0.00000
      52.9000       0.00000
      53.0000       0.00000
      53.1000       0.00000
      53.2000       0.00000
      53.3000       0.00000
      53.4000       0.00000
      53.5000       0.00000
      53.6000       0.00000
      53.7000       0.00000
      53.8000       0.00000
      53.9000       0.00000
      54.0000       0.00000
      54.1000       0.00000
      54.2000       0.00000
      54.3000       0.00000
      54.4000       0.00000
      54.5000       0.00000
      54.6000       0.00000
      54.7000       0.00000
      54.8000       0.00000
      54.9000       0.00000
      55.0000       0.00000
      55.1000       0.00000
      55.2000       0.00000
      55.3000       0.00000
      55.4000       0.00000
      55.5000       0.00000
      55.6000       0.00000
      55.7000       0.00000
      55.8000       0.00000
      55.9000       0.00000
      56.0000       0.00000
      56.1000       0.00000
      56.2000       0.00000
      56.3000       0.00000
      56.4000       0.00000
      56.5000       0.00000
      56.6000       0.00000
      56.7000       0.00000
      56.8000       0.00000
      56.9000       0.00000
      57.0000       0.00000
      57.1000       0.00000
      57.2000       0.00000
      57.3000       0.00000
      57.4000       0.00000
      57.5000       0.00000
      57.6000       0.00000
      57.7000       0.00000
      57.8000       0.00000
      57.9000       0.00000
      58.0000       0.00000
      58.1000       0.00000
      58.2000       0.00000
      58.3000       0.00000
      58.4000       0.00000
      58.5000       0.00000
      58.6000       0.00000
      58.7000       0.00000
      58.8000       0.00000
      58.9000       0.00000
      59.0000       0.00000
      59.1000       0.00000
      59.2000       0.00000
      59.3000       0.00000
      59.4000       0.00000
      59.5000       0.00000
      59.6000       0.00000
      59.7000       0.00000
      59.8000       0.00000
      59.9000       0.00000
      60.0000       0.00000
      60.1000       0.00000
      60.2000       0.00000
      60.3000       0.00000
      60.4000       0.00000
      60.5000       0.00000
      60.6000       0.00000
      60.7000       0.00000
      60.8000       0.00000
      60.9000       0.00000
      61.0000       0.00000
      61.1000       0.00000
      61.2000       0.00000
      61.3000       0.00000
      61.4000       0.00000
      61.5000       0.00000
      61.6000       0.00000
      61.7000       0.00000
      61.8000       0.00000
      61.9000       0.00000
      62.0000       0.00000
      62.1000       0.00000
      62.2000       0.00000
      62.3000       0.00000
      62.4000       0.00000
      62.5000       0.00000
      62.6000       0.00000
      62.7000       0.00000
      62.8000       0.00000
      62.9000       0.00000
      63.0000       0.00000
      63.1000       0.00000
      63.2000       0.00000
      63.3000       0.00000
      63.4000       0.00000
      63.5000       0.00000
      63.6000       0.00000
      63.7000       0.00000
      63.8000       0.00000
      63.9000       0.00000
      64.0000       0.00000
      64.1000       0.00000
      64.2000       0.00000
      64.3000       0.00000
      64.4000       0.00000
      64.5000       0.00000
      64.6000       0.00000
      64.7000       0.00000
      64.8000       0.00000
      64.9000       0.00000
      65.0000       0.00000
      65.1000       0.00000
      65.2000       0.00000
      65.3000       0.00000
      65.4000       0.00000
      65.5000       0.00000
      65.6000       0.00000
      65.7000       0.00000
      65.8000       0.00000
      65.9000       0.00000
      66.0000       0.00000
      66.1000       0.00000
      66.2000       0.00000
      66.3000       0.00000
      66.4000       0.00000
      66.5000       0.00000
      66.6000       0.00000
      66.7000       0.00000
      66.8000       0.00000
      66.9000       0.00000
      67.0000       0.00000
      67.1000       0.00000
      67.2000       0.00000
      67.3000       0.00000
      67.4000       0.00000
      67.5000       0.00000
      67.6000       0.00000
      67.7000       0.00000
      67.8000       0.00000
      67.9000       0.00000
      68.0000       0.00000
      68.1000       0.00000
      68.2000       0.00000
      68.3000       0.00000
      68.4000       0.00000
      68.5000       0.00000
      68.6000       0.00000
      68.7000       0.00000
      68.8000       0.00000
      68.9000       0.00000
      69.0000       0.00000
      69.1000       0.00000
      69.2000       0.00000
      69.3000       0.00000
      69.4000       0.00000
      69.5000       0.00000
      69.6000       0.00000
      69.7000       0.00000
      69.8000       0.00000
      69.9000       0.00000
      70.0000       0.00000
      70.1000       0.00000
      70.2000       0.00000
      70.3000       0.00000
      70.4000       0.00000
      70.5000       0.00000
      70.6000       0.00000
      70.7000       0.00000
      70.8000       0.00000
      70.9000       0.00000
      71.0000       0.00000
      71.1000       0.00000
      71.2000       0.00000
      71.3000       0.00000
      71.4000       0.00000
      71.5000       0.00000
      71.6000       0.00000
      71.7000       0.00000
      71.8000       0.00000
      71.9000       0.00000
      72.0000       0.00000
      72.1000       0.00000
      72.2000       0.00000
      72.3000       0.00000
      72.4000       0.00000
      72.5000       0.00000
      72.6000       0.00000
      72.7000       0.00000
      72.8000       0.00000
      72.9000       0.00000
      73.0000       0.00000
      73.1000       0.00000
      73.2000       0.00000
      73.3000       0.00000
      73.4000       0.00000
      73.5000       0.00000
      73.6000       0.00000
      73.7000       0.00000
      73.8000       0.00000
      73.9000       0.00000
      74.0000       0.00000
      74.1000       0.00000
      74.2000       0.00000
      74.3000       0.00000
      74.4000       0.00000
      74.5000       0.00000
      74.6000       0.00000
      74.7000       0.00000
      74.8000       0.00000
      74.9000       0.00000
      75.0000       0.00000
      75.1000       0.00000
      75.2000       0.00000
      75.3000       0.00000
      75.4000       0.00000
      75.5000       0.00000
      75.6000       0.00000
      75.7000       0.00000
      75.8000       0.00000
      75.9000       0.00000
      76.0000       0.00000
      76.1000       0.00000
      76.2000       0.00000
      76.3000       0.00000
      76.4000       0.00000
      76.5000       0.00000
      76.6000       0.00000
      76.7000       0.00000
      76.8000       0.00000
      76.9000       0.00000
      77.0000       0.00000
      77.1000       0.00000
      77.2000       0.00000
      77.3000       0.00000
      77.4000       0.00000
      77.5000       0.00000
      77.6000       0.00000
      77.7000       0.00000
      77.8000       0.00000
      77.9000       0.00000
      78.0000       0.00000
      78.1000       0.00000
      78.2000       0.00000
      78.3000       0.00000
      78.4000       0.00000
      78.5000       0.00000
      78.6000       0.00000
      78.7000       0.00000
      78.8000       0.00000
      78.9000       0.00000
      79.0000       0.00000
      79.1000       0.00000
      79.2000       0.00000
      79.3000       0.00000
      79.4000       0.00000
      79.5000       0.00000
      79.6000       0.00000
      79.7000       0.00000
      79.8000       0.00000
      79.9000       0.00000
      80.0000       0.00000
      80.1000       0.00000
      80.2000       0.00000
      80.3000       0.00000
      80.4000       0.00000
      80.5000       0.00000
      80.6000       0.00000
      80.7000       0.00000
      80.8000       0.00000
      80.9000       0.00000
      81.0000       0.00000
      81.1000       0.00000
      81.2000       0.00000
      81.3000       0.00000
      81.4000       0.00000
      81.5000       0.00000
      81.6000       0.00000
      81.7000       0.00000
      81.8000       0.00000
      81.9000       0.00000
      82.0000       0.00000
      82.1000       0.00000
      82.2000       0.00000
      82.3000       0.00000
      82.4000       0.00000
      82.5000       0.00000
      82.6000       0.00000
      82.7000       0.00000
      82.8000       0.00000
      82.9000       0.00000
      83.0000       0.00000
      83.1000       0.00000
      83.2000       0.00000
      83.3000       0.00000
      83.4000       0.00000
      83.5000       0.00000
      83.6000       0.00000
      83.7000       0.00000
      83.8000       0.00000
      83.9000       0.00000
      84.0000       0.00000
      84.1000       0.00000
      84.2000       0.00000
      84.3000       0.00000
      84.4000       0.00000
      84.5000       0.00000
      84.6000       0.00000
      84.7000       0.00000
      84.8000       0.00000
      84.9000       0.00000
      85.0000       0.00000
      85.1000       0.00000
      85.2000       0.00000
      85.3000       0.00000
      85.4000       0.00000
      85.5000       0.00000
      85.6000       0.00000
      85.7000       0.00000
      85.8000       0.00000
      85.9000       0.00000
      86.0000       0.00000
      86.1000       0.00000
      86.2000       0.00000
      86.3000       0.00000
      86.4000       0.00000
      86.5000       0.00000
      86.6000       0.00000
      86.7000       0.00000
      86.8000       0.00000
      86.9000       0.00000
      87.0000       0.00000
      87.1000       0.00000
      87.2000       0.00000
      87.3000       0.00000
      87.4000       0.00000
      87.5000       0.00000
      87.6000       0.00000
      87.7000       0.00000
      87.8000       0.00000
      87.9000       0.00000
      88.0000       0.00000
      88.1000       0.00000
      88.2000       0.00000
      88.3000       0.00000
      88.4000       0.00000
      88.5000       0.00000
      88.6000       0.00000
      88.7000       0.00000
      88.8000       0.00000
      88.9000       0.00000
      89.0000       0.00000
      89.1000       0.00000
      89.2000       0.00000
      89.3000       0.00000
      89.4000       0.00000
      89.5000       0.00000
      89.6000       0.00000
      89.7000       0.00000
      89.8000       0.00000
      89.9000       0.00000
      90.0000       0.00000
      90.1000       0.00000
      90.2000       0.00000
      90.3000       0.00000
      90.4000       0.00000
      90.5000       0.00000
      90.6000       0.00000
      90.7000       0.00000
      90.8000       0.00000
      90.9000       0.00000
      91.0000       0.00000
      91.1000       0.00000
      91.2000       0.00000
      91.3000       0.00000
      91.4000       0.00000
      91.5000       0.00000
      91.6000       0.00000
      91.7000       0.00000
      91.8000       0.00000
      91.9000       0.00000
      92.0000       0.00000
      92.1000       0.00000
      92.2000       0.00000
      92.3000       0.00000
      92.4000       0.00000
      92.5000       0.00000
      92.6000       0.00000
      92.7000       0.00000
      92.8000       0.00000
      92.9000       0.00000
      93.0000       0.00000
      93.1000       0.00000
      93.2000       0.00000
      93.3000       0.00000
      93.4000       0.00000
      93.5000       0.00000
      93.6000       0.00000
      93.7000       0.00000
      93.8000       0.00000
      93.9000       0.00000
      94.0000       0.00000
      94.1000       0.00000
      94.2000       0.00000
      94.3000       0.00000
      94.4000       0.00000
      94.5000       0.00000
      94.6000       0.00000
      94.7000       0.00000
      94.8000       0.00000
      94.9000       0.00000
      95.0000       0.00000
      95.1000       0.00000
      95.2000       0.00000
      95.3000       0.00000
      95.4000       0.00000
      95.5000       0.00000
      95.6000       0.00000
      95.7000       0.00000
      95.8000       0.00000
      95.9000       0.00000
      96.0000       0.00000
      96.1000       0.00000
      96.2000       0.00000
      96.3000       0.00000
      96.4000       0.00000
      96.5000       0.00000
      96.6000       0.00000
      96.7000       0.00000
      96.8000       0.00000
      96.9000       0.00000
      97.0000       0.00000
      97.1000       0.00000
      97.2000       0.00000
      97.3000       0.00000
      97.4000       0.00000
      97.5000       0.00000
      97.6000       0.00000
      97.7000       0.00000
      97.8000       0.00000
      97.9000       0.00000
      98.0000       0.00000
      98.1000       0.00000
      98.2000       0.00000
      98.3000       0.00000
      98.4000       0.00000
      98.5000       0.00000
      98.6000       0.00000
      98.7000       0.00000
      98.8000       0.00000
      98.9000       0.00000
      99.0000       0.00000
      99.1000       0.00000
      99.2000       0.00000
      99.3000       0.00000
      99.4000       0.00000
      99.5000       0.00000
      99.6000       0.00000
      99.7000       0.00000
      99.8000       0.00000
      99.9000       0.00000
      100.000       0.00000
      100.100       0.00000
      100.200       0.00000
      100.300       0.00000
      100.400       0.00000
      100.500       0.00000
      100.600       0.00000
      100.700       0.00000
      100.800       0.00000
      100.900       0.00000
      101.000       0.00000
      101.100       0.00000
      101.200       0.00000
      101.300       0.00000
      101.400       0.00000
      101.500       0.00000
      101.600       0.00000
      101.700       0.00000
      101.800       0.00000
      101.900       0.00000
      102.000       0.00000
      102.100       0.00000
      102.200       0.00000
      102.300       0.00000
      102.400       0.00000
      102.500       0.00000
      102.600       0.00000
      102.700       0.00000
      102.800       0.00000
      102.900       0.00000
      103.000       0.00000
      103.100       0.00000
      103.200       0.00000
      103.300       0.00000
      103.400       0.00000
      103.500       0.00000
      103.600       0.00000
      103.700       0.00000
      103.800       0.00000
      103.900       0.00000
      104.000       0.00000
      104.100       0.00000
      104.200       0.00000
      104.300       0.00000
      104.400       0.00000
      104.500       0.00000
      104.600       0.00000
      104.700       0.00000
      104.800       0.00000
      104.900       0.00000
      105.000       0.00000
      105.100       0.00000
      105.200       0.00000
      105.300       0.00000
      105.400       0.00000
      105.500       0.00000
      105.600       0.00000
      105.700       0.00000
      105.800       0.00000
      105.900       0.00000
      106.000       0.00000
      106.100       0.00000
      106.200       0.00000
      106.300       0.00000
      106.400       0.00000
      106.500       0.00000
      106.600       0.00000
      106.700       0.00000
      106.800       0.00000
      106.900       0.00000
      107.000       0.00000
      107.100       0.00000
      107.200       0.00000
      107.300       0.00000
      107.400       0.00000
      107.500       0.00000
      107.600       0.00000
      107.700       0.00000
      107.800       0.00000
      107.900       0.00000
      108.000       0.00000
      108.100       0.00000
      108.200       0.00000
      108.300       0.00000
      108.400       0.00000
      108.500       0.00000
      108.600       0.00000
      108.700       0.00000
      108.800       0.00000
      108.900       0.00000
      109.000       0.00000
      109.100       0.00000
      109.200       0.00000
      109.300       0.00000
      109.400       0.00000
      109.500       0.00000
      109.600       0.00000
      109.700       0.00000
      109.800       0.00000
      109.900       0.00000
      110.000       0.00000
      110.100       0.00000
      110.200       0.00000
      110.300       0.00000
      110.400       0.00000
      110.500       0.00000
      110.600       0.00000
      110.700       0.00000
      110.800       0.00000
      110.900       0.00000
      111.000       0.00000
      111.100       0.00000
      111.200       0.00000
      111.300       0.00000
      111.400       0.00000
      111.500       0.00000
      111.600       0.00000
      111.700       0.00000
      111.800       0.00000
      111.900       0.00000
      112.000       0.00000
      112.100       0.00000
      112.200       0.00000
      112.300       0.00000
      112.400       0.00000
      112.500       0.00000
      112.600       0.00000
      112.700       0.00000
      112.800       0.00000
      112.900       0.00000
      113.000       0.00000
      113.100       0.00000
      113.200       0.00000
      113.300       0.00000
      113.400       0.00000
      113.500       0.00000
      113.600       0.00000
      113.700       0.00000
      113.800       0.00000
      113.900       0.00000
      114.000       0.00000
      114.100       0.00000
      114.200       0.00000
      114.300       0.00000
      114.400       0.00000
      114.500       0.00000
      114.600       0.00000
      114.700       0.00000
      114.800       0.00000
      114.900       0.00000
      115.000       0.00000
      115.100       0.00000
      115.200       0.00000
      115.300       0.00000
      115.400       0.00000
      115.500       0.00000
      115.600       0.00000
      115.700       0.00000
      115.800       0.00000
      115.900       0.00000
      116.000       0.00000
      116.100       0.00000
      116.200       0.00000
      116.300       0.00000
      116.400       0.00000
      116.500       0.00000
      116.600       0.00000
      116.700       0.00000
      116.800       0.00000
      116.900       0.00000
      117.000       0.00000
      117.100       0.00000
      117.200       0.00000
      117.300       0.00000
      117.400       0.00000
      117.500       0.00000
      117.600       0.00000
      117.700       0.00000
      117.800       0.00000
      117.900       0.00000
      118.000       0.00000
      118.100       0.00000
      118.200       0.00000
      118.300       0.00000
      118.400       0.00000
      118.500       0.00000
      118.600       0.00000
      118.700       0.00000
      118.800       0.00000
      118.900       0.00000
      119.000       0.00000
      119.100       0.00000
      119.200       0.00000
      119.300       0.00000
      119.400       0.00000
      119.500       0.00000
      119.600       0.00000
      119.700       0.00000
      119.800       0.00000
      119.900       0.00000
      120.000       0.00000
      120.100       0.00000
      120.200       0.00000
      120.300       0.00000
      120.400       0.00000
      120.500       0.00000
      120.600       0.00000
      120.700       0.00000
      120.800       0.00000
      120.900       0.00000
      121.000       0.00000
      121.100       0.00000
      121.200       0.00000
      121.300       0.00000
      121.400       0.00000
      121.500       0.00000
      121.600       0.00000
      121.700       0.00000
      121.800       0.00000
      121.900       0.00000
      122.000       0.00000
      122.100       0.00000
      122.200       0.00000
      122.300       0.00000
      122.400       0.00000
      122.500       0.00000
      122.600       0.00000
      122.700       0.00000
      122.800       0.00000
      122.900       0.00000
      123.000       0.00000
      123.100       0.00000
      123.200       0.00000
      123.300       0.00000
      123.400       0.00000
      123.500       0.00000
      123.600       0.00000
      123.700       0.00000
      123.800       0.00000
      123.900       0.00000
      124.000       0.00000
      124.100       0.00000
      124.200       0.00000
      124.300       0.00000
      124.400       0.00000
      124.500       0.00000
      124.600       0.00000
      124.700       0.00000
      124.800       0.00000
      124.900       0.00000
      125.000       0.00000
      125.100       0.00000
      125.200       0.00000
      125.300       0.00000
      125.400       0.00000
      125.500       0.00000
      125.600       0.00000
      125.700       0.00000
      125.800       0.00000
      125.900       0.00000
      126.000       0.00000
      126.100       0.00000
      126.200       0.00000
      126.300       0.00000
      126.400       0.00000
      126.500       0.00000
      126.600       0.00000
      126.700       0.00000
      126.800       0.00000
      126.900       0.00000
      127.000       0.00000
      127.100       0.00000
      127.200       0.00000
      127.300       0.00000
      127.400       0.00000
      127.500       0.00000
      127.600       0.00000
      127.700       0.00000
      127.800       0.00000
      127.900       0.00000
      128.000       0.00000
      128.100       0.00000
      128.200       0.00000
      128.300       0.00000
      128.400       0.00000
      128.500       0.00000
      128.600       0.00000
      128.700       0.00000
      128.800       0.00000
      128.900       0.00000
      129.000       0.00000
      129.100       0.00000
      129.200       0.00000
      129.300       0.00000
      129.400       0.00000
      129.500       0.00000
      129.600       0.00000
      129.700       0.00000
      129.800       0.00000
      129.900       0.00000
      130.000       0.00000
      130.100       0.00000
      130.200       0.00000
      130.300       0.00000
      130.400       0.00000
      130.500       0.00000
      130.600       0.00000
      130.700       0.00000
      130.800       0.00000
      130.900       0.00000
      131.000       0.00000
      131.100       0.00000
      131.200       0.00000
      131.300       0.00000
      131.400       0.00000
      131.500       0.00000
      131.600       0.00000
      131.700       0.00000
      131.800       0.00000
      131.900       0.00000
      132.000       0.00000
      132.100       0.00000
      132.200       0.00000
      132.300       0.00000
      132.400       0.00000
      132.500       0.00000
      132.600       0.00000
      132.700       0.00000
      132.800       0.00000
      132.900       0.00000
      133.000       0.00000
      133.100       0.00000
      133.200       0.00000
      133.300       0.00000
      133.400       0.00000
      133.500       0.00000
      133.600       0.00000
      133.700       0.00000
      133.800       0.00000
      133.900       0.00000
      134.000       0.00000
      134.100       0.00000
      134.200       0.00000
      134.300       0.00000
      134.400       0.00000
      134.500       0.00000
      134.600       0.00000
      134.700       0.00000
      134.800       0.00000
      134.900       0.00000
      135.000       0.00000
      135.100       0.00000
      135.200       0.00000
      135.300       0.00000
      135.400       0.00000
      135.500       0.00000
      135.600       0.00000
      135.700       0.00000
      135.800       0.00000
      135.900       0.00000
      136.000       0.00000
      136.100       0.00000
      136.200       0.00000
      136.300       0.00000
      136.400       0.00000
      136.500       0.00000
      136.600       0.00000
      136.700       0.00000
      136.800       0.00000
      136.900       0.00000
      137.000       0.00000
      137.100       0.00000
      137.200       0.00000
      137.300       0.00000
      137.400       0.00000
      137.500       0.00000
      137.600       0.00000
      137.700       0.00000
      137.800       0.00000
      137.900       0.00000
      138.000       0.00000
      138.100       0.00000
      138.200       0.00000
      138.300       0.00000
      138.400       0.00000
      138.500       0.00000
      138.600       0.00000
      138.700       0.00000
      138.800       0.00000
      138.900       0.00000
      139.000       0.00000
      139.100       0.00000
      139.200       0.00000
      139.300       0.00000
      139.400       0.00000
      139.500       0.00000
      139.600       0.00000
      139.700       0.00000
      139.800       0.00000
      139.900       0.00000
      140.000       0.00000
      140.100       0.00000
      140.200       0.00000
      140.300       0.00000
      140.400       0.00000
      140.500       0.00000
      140.600       0.00000
      140.700       0.00000
      140.800       0.00000
      140.900       0.00000
      141.000       0.00000
      141.100       0.00000
      141.200       0.00000
      141.300       0.00000
      141.400       0.00000
      141.500       0.00000
      141.600       0.00000
      141.700       0.00000
      141.800       0.00000
      141.900       0.00000
      142.000       0.00000
      142.100       0.00000
      142.200       0.00000
      142.300       0.00000
      142.400       0.00000
      142.500       0.00000
      142.600       0.00000
      142.700       0.00000
      142.800       0.00000
      142.900       0.00000
      143.000       0.00000
      143.100       0.00000
      143.200       0.00000
      143.300       0.00000
      143.400       0.00000
      143.500       0.00000
      143.600       0.00000
      143.700       0.00000
      143.800       0.00000
      143.900       0.00000
      144.000       0.00000
      144.100       0.00000
      144.200       0.00000
      144.300       0.00000
      144.400       0.00000
      144.500       0.00000
      144.600       0.00000
      144.700       0.00000
      144.800       0.00000
      144.900       0.00000
      145.000       0.00000
      145.100       0.00000
      145.200       0.00000
      145.300       0.00000
      145.400       0.00000
      145.500       0.00000
      145.600       0.00000
      145.700       0.00000
      145.800       0.00000
      145.900       0.00000
      146.000       0.00000
      146.100       0.00000
      146.200       0.00000
      146.300       0.00000
      146.400       0.00000
      146.500       0.00000
      146.600       0.00000
      146.700       0.00000
      146.800       0.00000
      146.900       0.00000
      147.000       0.00000
      147.100       0.00000
      147.200       0.00000
      147.300       0.00000
      147.400       0.00000
      147.500       0.00000
      147.600       0.00000
      147.700       0.00000
      147.800       0.00000
      147.900       0.00000
      148.000       0.00000
      148.100       0.00000
      148.200       0.00000
      148.300       0.00000
      148.400       0.00000
      148.500       0.00000
      148.600       0.00000
      148.700       0.00000
      148.800       0.00000
      148.900       0.00000
      149.000       0.00000
      149.100       0.00000
      149.200       0.00000
      149.300       0.00000
      149.400       0.00000
      149.500       0.00000
      149.600       0.00000
      149.700       0.00000
      149.800       0.00000
      149.900       0.00000
      150.000       0.00000
      150.100       0.00000
      150.200       0.00000
      150.300       0.00000
      150.400       0.00000
      150.500       0.00000
      150.600       0.00000
      150.700       0.00000
      150.800       0.00000
      150.900       0.00000
      151.000       0.00000
      151.100       0.00000
      151.200       0.00000
      151.300       0.00000
      151.400       0.00000
      151.500       0.00000
      151.600       0.00000
      151.700       0.00000
      151.800       0.00000
      151.900       0.00000
      152.000       0.00000
      152.100       0.00000
      152.200       0.00000
      152.300       0.00000
      152.400       0.00000
      152.500       0.00000
      152.600       0.00000
      152.700       0.00000
      152.800       0.00000
      152.900       0.00000
      153.000       0.00000
      153.100       0.00000
      153.200       0.00000
      153.300       0.00000
      153.400       0.00000
      153.500       0.00000
      153.600       0.00000
      153.700       0.00000
      153.800       0.00000
      153.900       0.00000
      154.000       0.00000
      154.100       0.00000
      154.200       0.00000
      154.300       0.00000
      154.400       0.00000
      154.500       0.00000
      154.600       0.00000
      154.700       0.00000
      154.800       0.00000
      154.900       0.00000
      155.000       0.00000
      155.100       0.00000
      155.200       0.00000
      155.300       0.00000
      155.400       0.00000
      155.500       0.00000
      155.600       0.00000
      155.700       0.00000
      155.800       0.00000
      155.900       0.00000
      156.000       0.00000
      156.100       0.00000
      156.200       0.00000
      156.300       0.00000
      156.400       0.00000
      156.500       0.00000
      156.600       0.00000
      156.700       0.00000
      156.800       0.00000
      156.900       0.00000
      157.000       0.00000
      157.100       0.00000
      157.200       0.00000
      157.300       0.00000
      157.400       0.00000
      157.500       0.00000
      157.600       0.00000
      157.700       0.00000
      157.800       0.00000
      157.900       0.00000
      158.000       0.00000
      158.100       0.00000
      158.200       0.00000
      158.300       0.00000
      158.400       0.00000
      158.500       0.00000
      158.600       0.00000
      158.700       0.00000
      158.800       0.00000
      158.900       0.00000
      159.000       0.00000
      159.100       0.00000
      159.200       0.00000
      159.300       0.00000
      159.400       0.00000
      159.500       0.00000
      159.600       0.00000
      159.700       0.00000
      159.800       0.00000
      159.900       0.00000
      160.000       0.00000
      160.100       0.00000
      160.200       0.00000
      160.300       0.00000
      160.400       0.00000
      160.500       0.00000
      160.600       0.00000
      160.700       0.00000
      160.800       0.00000
      160.900       0.00000
      161.000       0.00000
      161.100       0.00000
      161.200       0.00000
      161.300       0.00000
      161.400       0.00000
      161.500       0.00000
      161.600       0.00000
      161.700       0.00000
      161.800       0.00000
      161.900       0.00000
      162.000       0.00000
      162.100       0.00000
      162.200       0.00000
      162.300       0.00000
      162.400       0.00000
      162.500       0.00000
      162.600       0.00000
      162.700       0.00000
      162.800       0.00000
      162.900       0.00000
      163.000       0.00000
      163.100       0.00000
      163.200       0.00000
      163.300       0.00000
      163.400       0.00000
      163.500       0.00000
      163.600       0.00000
      163.700       0.00000
      163.800       0.00000
      163.900       0.00000
      164.000       0.00000
      164.100       0.00000
      164.200       0.00000
      164.300       0.00000
      164.400       0.00000
      164.500       0.00000
      164.600       0.00000
      164.700       0.00000
      164.800       0.00000
      164.900       0.00000
      165.000       0.00000
      165.100       0.00000
      165.200       0.00000
      165.300       0.00000
      165.400       0.00000
      165.500       0.00000
      165.600       0.00000
      165.700       0.00000
      165.800       0.00000
      165.900       0.00000
      166.000       0.00000
      166.100       0.00000
      166.200       0.00000
      166.300       0.00000
      166.400       0.00000
      166.500       0.00000
      166.600       0.00000
      166.700       0.00000
      166.800       0.00000
      166.900       0.00000
      167.000       0.00000
      167.100       0.00000
      167.200       0.00000
      167.300       0.00000
      167.400       0.00000
      167.500       0.00000
      167.600       0.00000
      167.700       0.00000
      167.800       0.00000
      167.900       0.00000
      168.000       0.00000
      168.100       0.00000
      168.200       0.00000
      168.300       0.00000
      168.400       0.00000
      168.500       0.00000
      168.600       0.00000
      168.700       0.00000
      168.800       0.00000
      168.900       0.00000
      169.000       0.00000
      169.100       0.00000
      169.200       0.00000
      169.300       0.00000
      169.400       0.00000
      169.500       0.00000
      169.600       0.00000
      169.700       0.00000
      169.800       0.00000
      169.900       0.00000
      170.000       0.00000
      170.100       0.00000
      170.200       0.00000
      170.300       0.00000
      170.400       0.00000
      170.500       0.00000
      170.600   5.96032e-40
      170.700   7.41367e-25
      170.800   9.92882e-21
      170.900   1.64941e-20
      171.000   1.68604e-20
      171.100   1.72333e-20
      171.200   1.76127e-20
      171.300   1.79992e-20
      171.400   1.83922e-20
      171.500   1.87920e-20
      171.600   1.91988e-20
      171.700   1.96132e-20
      171.800   2.00350e-20
      171.900   2.04643e-20
      172.000   2.09017e-20
      172.100   2.13481e-20
      172.200   2.18028e-20
      172.300   2.22657e-20
      172.400   2.27338e-20
      172.500   2.32102e-20
      172.600   2.36966e-20
      172.700   2.41927e-20
      172.800   2.46984e-20
      172.900   2.52151e-20
      173.000   2.57416e-20
      173.100   2.62786e-20
      173.200   2.68267e-20
      173.300   2.73858e-20
      173.400   2.79569e-20
      173.500   2.85391e-20
      173.600   2.91332e-20
      173.700   2.97392e-20
      173.800   3.03582e-20
      173.900   3.09885e-20
      174.000   3.16317e-20
      174.100   3.22890e-20
      174.200   3.29583e-20
      174.300   3.36401e-20
      174.400   3.43362e-20
      174.500   3.50454e-20
      174.600   3.57691e-20
      174.700   3.65067e-20
      174.800   3.72578e-20
      174.900   3.80235e-20
      175.000   3.88045e-20
      175.100   3.95989e-20
      175.200   4.04109e-20
      175.300   4.12370e-20
      175.400   4.20798e-20
      175.500   4.29380e-20
      175.600   4.38114e-20
      175.700   4.47016e-20
      175.800   4.56095e-20
      175.900   4.65334e-20
      176.000   4.74736e-20
      176.100   4.84318e-20
      176.200   4.94078e-20
      176.300   5.04026e-20
      176.400   5.14149e-20
      176.500   5.24456e-20
      176.600   5.34966e-20
      176.700   5.45661e-20
      176.800   5.56545e-20
      176.900   5.67627e-20
      177.000   5.78923e-20
      177.100   5.90424e-20
      177.200   6.02122e-20
      177.300   6.14028e-20
      177.400   6.26160e-20
      177.500   6.38507e-20
      177.600   6.51068e-20
      177.700   6.63849e-20
      177.800   6.76851e-20
      177.900   6.90095e-20
      178.000   7.03618e-20
      178.100   7.17365e-20
      178.200   7.31361e-20
      178.300   7.45615e-20
      178.400   7.60101e-20
      178.500   7.74839e-20
      178.600   7.89839e-20
      178.700   8.05119e-20
      178.800   8.20646e-20
      178.900   8.36431e-20
      179.000   8.52486e-20
      179.100   8.68831e-20
      179.200   8.85471e-20
      179.300   9.02381e-20
      179.400   9.19585e-20
      179.500   9.37094e-20
      179.600   9.54948e-20
      179.700   9.73078e-20
      179.800   9.91525e-20
      179.900   1.01030e-19
      180.000   1.02943e-19
      180.100   1.04886e-19
      180.200   1.06865e-19
      180.300   1.08878e-19
      180.400   1.10929e-19
      180.500   1.13016e-19
      180.600   1.15138e-19
      180.700   1.17298e-19
      180.800   1.19518e-19
      180.900   1.21816e-19
      181.000   1.24174e-19
      181.100   1.26571e-19
      181.200   1.29016e-19
      181.300   1.31507e-19
      181.400   1.34041e-19
      181.500   1.36620e-19
      181.600   1.39249e-19
      181.700   1.41927e-19
      181.800   1.44650e-19
      181.900   1.47424e-19
      182.000   1.50249e-19
      182.100   1.53123e-19
      182.200   1.56056e-19
      182.300   1.59038e-19
      182.400   1.62073e-19
      182.500   1.65162e-19
      182.600   1.68311e-19
      182.700   1.71511e-19
      182.800   1.74766e-19
      182.900   1.78081e-19
      183.000   1.81454e-19
      183.100   1.84885e-19
      183.200   1.88375e-19
      183.300   1.91927e-19
      183.400   1.95542e-19
      183.500   1.99218e-19
      183.600   2.02957e-19
      183.700   2.06887e-19
      183.800   2.11429e-19
      183.900   2.16401e-19
      184.000   2.21474e-19
      184.100   2.26668e-19
      184.200   2.31975e-19
      184.300   2.37404e-19
      184.400   2.42949e-19
      184.500   2.48612e-19
      184.600   2.54398e-19
      184.700   2.60313e-19
      184.800   2.66356e-19
      184.900   2.72526e-19
      185.000   2.78828e-19
      185.100   2.85270e-19
      185.200   2.91852e-19
      185.300   2.98568e-19
      185.400   3.05429e-19
      185.500   3.12432e-19
      185.600   3.19587e-19
      185.700   3.26902e-19
      185.800   3.34374e-19
      185.900   3.42000e-19
      186.000   3.49802e-19
      186.100   3.57758e-19
      186.200   3.65875e-19
      186.300   3.74161e-19
      186.400   3.82624e-19
      186.500   3.91264e-19
      186.600   4.00075e-19
      186.700   4.09059e-19
      186.800   4.18225e-19
      186.900   4.27585e-19
      187.000   4.37135e-19
      187.100   4.46864e-19
      187.200   4.56799e-19
      187.300   4.66953e-19
      187.400   4.77307e-19
      187.500   4.87864e-19
      187.600   4.98630e-19
      187.700   5.09609e-19
      187.800   5.20818e-19
      187.900   5.32249e-19
      188.000   5.43894e-19
      188.100   5.55768e-19
      188.200   5.67882e-19
      188.300   5.80242e-19
      188.400   5.92849e-19
      188.500   6.05698e-19
      188.600   6.18810e-19
      188.700   6.32210e-19
      188.800   6.45864e-19
      188.900   6.59781e-19
      189.000   6.73976e-19
      189.100   6.88468e-19
      189.200   7.03243e-19
      189.300   7.18299e-19
      189.400   7.33651e-19
      189.500   7.49312e-19
      189.600   7.65304e-19
      189.700   7.81588e-19
      189.800   7.98271e-19
      189.900   8.15320e-19
      190.000   8.32734e-19
      190.100   8.50476e-19
      190.200   8.68573e-19
      190.300   8.87025e-19
      190.400   9.05855e-19
      190.500   9.25058e-19
      190.600   9.44629e-19
      190.700   9.64588e-19
      190.800   9.84935e-19
      190.900   1.00568e-18
      191.000   1.02690e-18
      191.100   1.04852e-18
      191.200   1.07057e-18
      191.300   1.09305e-18
      191.400   1.11598e-18
      191.500   1.13936e-18
      191.600   1.16318e-18
      191.700   1.18746e-18
      191.800   1.21224e-18
      191.900   1.23747e-18
      192.000   1.26318e-18
      192.100   1.28942e-18
      192.200   1.31620e-18
      192.300   1.34349e-18
      192.400   1.37133e-18
      192.500   1.39970e-18
      192.600   1.42859e-18
      192.700   1.45803e-18
      192.800   1.48679e-18
      192.900   1.51293e-18
      193.000   1.53916e-18
      193.100   1.56584e-18
      193.200   1.59302e-18
      193.300   1.62061e-18
      193.400   1.64862e-18
      193.500   1.67709e-18
      193.600   1.70603e-18
      193.700   1.73543e-18
      193.800   1.76529e-18
      193.900   1.79559e-18
      194.000   1.82641e-18
      194.100   1.85780e-18
      194.200   1.88966e-18
      194.300   1.92203e-18
      194.400   1.95491e-18
      194.500   1.98834e-18
      194.600   2.02229e-18
      194.700   2.05674e-18
      194.800   2.09173e-18
      194.900   2.12728e-18
      195.000   2.16340e-18
      195.100   2.20020e-18
      195.200   2.23750e-18
      195.300   2.27538e-18
      195.400   2.31384e-18
      195.500   2.35292e-18
      195.600   2.39259e-18
      195.700   2.43281e-18
      195.800   2.47331e-18
      195.900   2.51186e-18
      196.000   2.46252e-18
      196.100   2.41303e-18
      196.200   2.36450e-18
      196.300   2.31692e-18
      196.400   2.27027e-18
      196.500   2.22452e-18
      196.600   2.17967e-18
      196.700   2.13569e-18
      196.800   2.09261e-18
      196.900   2.05042e-18
      197.000   2.00906e-18
      197.100   1.96849e-18
      197.200   1.92871e-18
      197.300   1.88970e-18
      197.400   1.85144e-18
      197.500   1.81391e-18
      197.600   1.77712e-18
      197.700   1.74113e-18
      197.800   1.70587e-18
      197.900   1.67127e-18
      198.000   1.63735e-18
      198.100   1.60409e-18
      198.200   1.57148e-18
      198.300   1.53951e-18
      198.400   1.50816e-18
      198.500   1.47749e-18
      198.600   1.44745e-18
      198.700   1.41799e-18
      198.800   1.38912e-18
      198.900   1.36083e-18
      199.000   1.33308e-18
      199.100   1.30588e-18
      199.200   1.27923e-18
      199.300   1.25317e-18
      199.400   1.22765e-18
      199.500   1.20264e-18
      199.600   1.17811e-18
      199.700   1.15408e-18
      199.800   1.13053e-18
      199.900   1.10745e-18
      200.000   1.08482e-18
      200.100   1.06275e-18
      200.200   1.04108e-18
      200.300   1.01986e-18
      200.400   9.99060e-19
      200.500   9.78678e-19
      200.600   9.58719e-19
      200.700   9.39158e-19
      200.800   9.19983e-19
      200.900   9.01214e-19
      201.000   8.82830e-19
      201.100   8.64832e-19
      201.200   8.47202e-19
      201.300   8.29924e-19
      201.400   8.13005e-19
      201.500   7.96421e-19
      201.600   7.80173e-19
      201.700   7.64258e-19
      201.800   7.48666e-19
      201.900   7.33394e-19
      202.000   7.18454e-19
      202.100   7.03813e-19
      202.200   6.89472e-19
      202.300   6.75475e-19
      202.400   6.61882e-19
      202.500   6.48592e-19
      202.600   6.35560e-19
      202.700   6.22802e-19
      202.800   6.10303e-19
      202.900   5.98063e-19
      203.000   5.86072e-19
      203.100   5.74329e-19
      203.200   5.62815e-19
      203.300   5.51535e-19
      203.400   5.40481e-19
      203.500   5.29649e-19
      203.600   5.19036e-19
      203.700   5.08641e-19
      203.800   4.98461e-19
      203.900   4.88499e-19
      204.000   4.78735e-19
      204.100   4.69167e-19
      204.200   4.59797e-19
      204.300   4.50615e-19
      204.400   4.41619e-19
      204.500   4.32805e-19
      204.600   4.24167e-19
      204.700   4.15705e-19
      204.800   4.07423e-19
      204.900   3.99313e-19
      205.000   3.91365e-19
      205.100   3.83579e-19
      205.200   3.75948e-19
      205.300   3.68473e-19
      205.400   3.61148e-19
      205.500   3.53970e-19
      205.600   3.46338e-19
      205.700   3.38329e-19
      205.800   3.30426e-19
      205.900   3.22715e-19
      206.000   3.15191e-19
      206.100   3.07840e-19
      206.200   3.00658e-19
      206.300   2.93647e-19
      206.400   2.86798e-19
      206.500   2.80105e-19
      206.600   2.73568e-19
      206.700   2.67185e-19
      206.800   2.60945e-19
      206.900   2.54851e-19
      207.000   2.48899e-19
      207.100   2.43089e-19
      207.200   2.37417e-19
      207.300   2.31873e-19
      207.400   2.26456e-19
      207.500   2.21164e-19
      207.600   2.15994e-19
      207.700   2.10941e-19
      207.800   2.06004e-19
      207.900   2.01180e-19
      208.000   1.96468e-19
      208.100   1.91864e-19
      208.200   1.87364e-19
      208.300   1.82969e-19
      208.400   1.78679e-19
      208.500   1.74489e-19
      208.600   1.70392e-19
      208.700   1.66390e-19
      208.800   1.62480e-19
      208.900   1.58204e-19
      209.000   1.53229e-19
      209.100   1.48215e-19
      209.200   1.43362e-19
      209.300   1.38664e-19
      209.400   1.34118e-19
      209.500   1.29717e-19
      209.600   1.25458e-19
      209.700   1.21340e-19
      209.800   1.17360e-19
      209.900   1.13505e-19
      210.000   1.09777e-19
      210.100   1.06169e-19
      210.200   1.02677e-19
      210.300   9.92980e-20
      210.400   9.60285e-20
      210.500   9.28647e-20
      210.600   8.98038e-20
      210.700   8.68418e-20
      210.800   8.39761e-20
      210.900   8.12031e-20
      211.000   7.85202e-20
      211.100   7.59258e-20
      211.200   7.34144e-20
      211.300   7.09893e-20
      211.400   6.86443e-20
      211.500   6.63746e-20
      211.600   6.41794e-20
      211.700   6.20561e-20
      211.800   6.00006e-20
      211.900   5.80125e-20
      212.000   5.60906e-20
      212.100   5.42309e-20
      212.200   5.24316e-20
      212.300   5.06915e-20
      212.400   4.90079e-20
      212.500   4.73799e-20
      212.600   4.58053e-20
      212.700   4.42823e-20
      212.800   4.28092e-20
      212.900   4.13848e-20
      213.000   4.00073e-20
      213.100   3.86768e-20
      213.200   3.73901e-20
      213.300   3.61453e-20
      213.400   3.49417e-20
      213.500   3.37776e-20
      213.600   3.26518e-20
      213.700   3.15634e-20
      213.800   3.05106e-20
      213.900   2.94930e-20
      214.000   2.85087e-20
      214.100   2.75569e-20
      214.200   2.66370e-20
      214.300   2.57472e-20
      214.400   2.48868e-20
      214.500   2.40551e-20
      214.600   2.32512e-20
      214.700   2.24737e-20
      214.800   2.17222e-20
      214.900   2.09958e-20
      215.000   2.02933e-20
      215.100   1.96145e-20
      215.200   1.89587e-20
      215.300   1.83251e-20
      215.400   1.77124e-20
      215.500   1.71201e-20
      215.600   1.65480e-20
      215.700   1.59946e-20
      215.800   1.54596e-20
      215.900   1.49428e-20
      216.000   1.44430e-20
      216.100   1.39599e-20
      216.200   1.34930e-20
      216.300   1.30417e-20
      216.400   1.26056e-20
      216.500   1.21839e-20
      216.600   1.17764e-20
      216.700   1.13826e-20
      216.800   1.10019e-20
      216.900   1.06340e-20
      217.000   1.02783e-20
      217.100   9.93452e-21
      217.200   9.60230e-21
      217.300   9.28115e-21
      217.400   8.97065e-21
      217.500   8.67072e-21
      217.600   8.38071e-21
      217.700   8.10026e-21
      217.800   7.82932e-21
      217.900   7.56750e-21
      218.000   7.31455e-21
      218.100   7.06998e-21
      218.200   6.83363e-21
      218.300   6.60519e-21
      218.400   6.38438e-21
      218.500   6.17082e-21
      218.600   5.96445e-21
      218.700   5.76490e-21
      218.800   5.57200e-21
      218.900   5.38561e-21
      219.000   5.20534e-21
      219.100   5.03104e-21
      219.200   4.86257e-21
      219.300   4.69969e-21
      219.400   4.54219e-21
      219.500   4.38993e-21
      219.600   4.24275e-21
      219.700   4.10047e-21
      219.800   3.96295e-21
      219.900   3.82998e-21
      220.000   3.70140e-21
      220.100   3.57712e-21
      220.200   3.45695e-21
      220.300   3.34080e-21
      220.400   3.22851e-21
      220.500   3.11999e-21
      220.600   3.01508e-21
      220.700   2.91362e-21
      220.800   2.81552e-21
      220.900   2.72076e-21
      221.000   2.62911e-21
      221.100   2.54050e-21
      221.200   2.45488e-21
      221.300   2.37211e-21
      221.400   2.29210e-21
      221.500   2.21477e-21
      221.600   2.14002e-21
      221.700   2.06774e-21
      221.800   1.99787e-21
      221.900   1.93035e-21
      222.000   1.86511e-21
      222.100   1.80201e-21
      222.200   1.74106e-21
      222.300   1.68212e-21
      222.400   1.62518e-21
      222.500   1.57011e-21
      222.600   1.51692e-21
      222.700   1.46550e-21
      222.800   1.41579e-21
      222.900   1.36776e-21
      223.000   1.32134e-21
      223.100   1.27647e-21
      223.200   1.23312e-21
      223.300   1.19121e-21
      223.400   1.15073e-21
      223.500   1.11158e-21
      223.600   1.07377e-21
      223.700   1.03722e-21
      223.800   1.00190e-21
      223.900   9.67788e-22
      224.000   9.34805e-22
      224.100   9.02936e-22
      224.200   8.72137e-22
      224.300   8.42384e-22
      224.400   8.13626e-22
      224.500   7.85844e-22
      224.600   7.58988e-22
      224.700   7.33056e-22
      224.800   7.07993e-22
      224.900   6.83773e-22
      225.000   6.60375e-22
      225.100   6.37762e-22
      225.200   6.15912e-22
      225.300   5.94818e-22
      225.400   5.74425e-22
      225.500   5.54720e-22
      225.600   5.35683e-22
      225.700   5.17301e-22
      225.800   4.99533e-22
      225.900   4.82371e-22
      226.000   4.65795e-22
      226.100   4.49779e-22
      226.200   4.34306e-22
      226.300   4.19394e-22
      226.400   4.05002e-22
      226.500   3.91086e-22
      226.600   3.77636e-22
      226.700   3.64644e-22
      226.800   3.52085e-22
      226.900   3.39953e-22
      227.000   3.28237e-22
      227.100   3.16916e-22
      227.200   3.05986e-22
      227.300   2.95428e-22
      227.400   2.85231e-22
      227.500   2.75384e-22
      227.600   2.65873e-22
      227.700   2.56687e-22
      227.800   2.47818e-22
      227.900   2.39253e-22
      228.000   2.30982e-22
      228.100   2.22995e-22
      228.200   2.15281e-22
      228.300   2.07833e-22
      228.400   2.00644e-22
      228.500   1.93699e-22
      228.600   1.86995e-22
      228.700   1.80521e-22
      228.800   1.74269e-22
      228.900   1.68236e-22
      229.000   1.62409e-22
      229.100   1.56784e-22
      229.200   1.51353e-22
      229.300   1.46109e-22
      229.400   1.41047e-22
      229.500   1.36160e-22
      229.600   1.31441e-22
      229.700   1.26886e-22
      229.800   1.22488e-22
      229.900   1.18243e-22
      230.000   1.14099e-22
      230.100   1.09785e-22
      230.200   1.05623e-22
      230.300   1.01620e-22
      230.400   9.77672e-23
      230.500   9.40608e-23
      230.600   9.04971e-23
      230.700   8.70669e-23
      230.800   8.37671e-23
      230.900   8.05921e-23
      231.000   7.75364e-23
      231.100   7.45963e-23
      231.200   7.17672e-23
      231.300   6.90456e-23
      231.400   6.64278e-23
      231.500   6.39070e-23
      231.600   6.14813e-23
      231.700   5.91482e-23
      231.800   5.69033e-23
      231.900   5.47429e-23
      232.000   5.26641e-23
      232.100   5.06635e-23
      232.200   4.87390e-23
      232.300   4.68873e-23
      232.400   4.51053e-23
      232.500   4.33902e-23
      232.600   4.17404e-23
      232.700   4.01529e-23
      232.800   3.86255e-23
      232.900   3.71556e-23
      233.000   3.57413e-23
      233.100   3.43808e-23
      233.200   3.30713e-23
      233.300   3.18118e-23
      233.400   3.05998e-23
      233.500   2.94346e-23
      233.600   2.83141e-23
      233.700   2.72355e-23
      233.800   2.60695e-23
      233.900   2.49362e-23
      234.000   2.38512e-23
      234.100   2.28132e-23
      234.200   2.18202e-23
      234.300   2.08699e-23
      234.400   1.99604e-23
      234.500   1.90903e-23
      234.600   1.82576e-23
      234.700   1.74610e-23
      234.800   1.66990e-23
      234.900   1.59696e-23
      235.000   1.52717e-23
      235.100   1.46041e-23
      235.200   1.39653e-23
      235.300   1.33542e-23
      235.400   1.27695e-23
      235.500   1.22102e-23
      235.600   1.16752e-23
      235.700   1.11635e-23
      235.800   1.06748e-23
      235.900   1.02073e-23
      236.000   9.76011e-24
      236.100   9.33220e-24
      236.200   8.92284e-24
      236.300   8.53119e-24
      236.400   8.15667e-24
      236.500   7.79832e-24
      236.600   7.45552e-24
      236.700   7.12762e-24
      236.800   6.81393e-24
      236.900   6.51388e-24
      237.000   6.22689e-24
      237.100   5.95233e-24
      237.200   5.68979e-24
      237.300   5.43866e-24
      237.400   5.19846e-24
      237.500   4.96869e-24
      237.600   4.74905e-24
      237.700   4.53938e-24
      237.800   4.33885e-24
      237.900   4.14705e-24
      238.000   3.96365e-24
      238.100   3.78819e-24
      238.200   3.62040e-24
      238.300   3.45993e-24
      238.400   3.30647e-24
      238.500   3.15968e-24
      238.600   3.01933e-24
      238.700   2.88516e-24
      238.800   2.75682e-24
      238.900   2.63411e-24
      239.000   2.51675e-24
      239.100   2.40456e-24
      239.200   2.29731e-24
      239.300   2.19491e-24
      239.400   2.09714e-24
      239.500   2.00365e-24
      239.600   1.91424e-24
      239.700   1.82881e-24
      239.800   1.74710e-24
      239.900   1.66898e-24
      240.000   1.59429e-24
      240.100   1.52288e-24
      240.200   1.45461e-24
      240.300   1.38936e-24
      240.400   1.32697e-24
      240.500   1.26736e-24
      240.600   1.21038e-24
      240.700   1.15591e-24
      240.800   1.10394e-24
      240.900   1.05433e-24
      241.000   1.00693e-24
      241.100   9.61618e-25
      241.200   9.18317e-25
      241.300   8.76924e-25
      241.400   8.37375e-25
      241.500   7.99577e-25
      241.600   7.63459e-25
      241.700   7.28943e-25
      241.800   6.95956e-25
      241.900   6.64436e-25
      242.000   6.34323e-25
      242.100   6.05559e-25
      242.200   5.78133e-25
      242.300   5.51971e-25
      242.400   5.26967e-25
      242.500   5.03077e-25
      242.600   4.80256e-25
      242.700   4.58449e-25
      242.800   4.37622e-25
      242.900   4.17725e-25
      243.000   3.98719e-25
      243.100   3.80564e-25
      243.200   3.63217e-25
      243.300   3.46651e-25
      243.400   3.30836e-25
      243.500   3.15756e-25
      243.600   3.01386e-25
      243.700   2.87652e-25
      243.800   2.74536e-25
      243.900   2.62015e-25
      244.000   2.50051e-25
      244.100   2.38627e-25
      244.200   2.27718e-25
      244.300   2.17297e-25
      244.400   2.07348e-25
      244.500   1.97848e-25
      244.600   1.88775e-25
      244.700   1.80127e-25
      244.800   1.71891e-25
      244.900   1.64028e-25
      245.000   1.56515e-25
      245.100   1.49343e-25
      245.200   1.42497e-25
      245.300   1.35961e-25
      245.400   1.29718e-25
      245.500   1.23759e-25
      245.600   1.18070e-25
      245.700   1.12637e-25
      245.800   1.07450e-25
      245.900   1.02516e-25
      246.000   9.78122e-26
      246.100   9.33194e-26
      246.200   8.90306e-26
      246.300   8.49352e-26
      246.400   8.10269e-26
      246.500   7.72952e-26
      246.600   7.37327e-26
      246.700   7.03324e-26
      246.800   6.70853e-26
      246.900   6.39865e-26
      247.000   6.10384e-26
      247.100   5.82280e-26
      247.200   5.55454e-26
      247.300   5.29850e-26
      247.400   5.05405e-26
      247.500   4.82068e-26
      247.600   4.59794e-26
      247.700   4.38533e-26
      247.800   4.18239e-26
      247.900   3.98869e-26
      248.000   3.80385e-26
      248.100   3.62840e-26
      248.200   3.46087e-26
      248.300   3.30093e-26
      248.400   3.14827e-26
      248.500   3.00253e-26
      248.600   2.86344e-26
      248.700   2.73071e-26
      248.800   2.60402e-26
      248.900   2.48312e-26
      249.000   2.36775e-26
      249.100   2.25812e-26
      249.200   2.15361e-26
      249.300   2.05381e-26
      249.400   1.95856e-26
      249.500   1.86768e-26
      249.600   1.78092e-26
      249.700   1.69812e-26
      249.800   1.61911e-26
      249.900   1.54371e-26
      250.000   1.47177e-26
      250.100   1.40335e-26
      250.200   1.33815e-26
      250.300   1.27599e-26
      250.400   1.21666e-26
      250.500   1.16007e-26
      250.600   1.10607e-26
      250.700   1.05456e-26
      250.800   1.00541e-26
      250.900   9.58523e-27
      251.000   9.13797e-27
      251.100   8.71127e-27
      251.200   8.30492e-27
      251.300   7.91810e-27
      251.400   7.54914e-27
      251.500   7.19698e-27
      251.600   6.86107e-27
      251.700   6.54086e-27
      251.800   6.23529e-27
      251.900   5.94381e-27
      252.000   5.66574e-27
      252.100   5.40064e-27
      252.200   5.14771e-27
      252.300   4.90685e-27
      252.400   4.67746e-27
      252.500   4.45880e-27
      252.600   4.25016e-27
      252.700   4.05120e-27
      252.800   3.86146e-27
      252.900   3.68049e-27
      253.000   3.50788e-27
      253.100   3.34329e-27
      253.200   3.18633e-27
      253.300   3.03732e-27
      253.400   2.89550e-27
      253.500   2.76042e-27
      253.600   2.63179e-27
      253.700   2.50906e-27
      253.800   2.39201e-27
      253.900   2.28036e-27
      254.000   2.17385e-27
      254.100   2.07223e-27
      254.200   1.97530e-27
      254.300   1.88287e-27
      254.400   1.79468e-27
      254.500   1.71057e-27
      254.600   1.63036e-27
      254.700   1.55388e-27
      254.800   1.48112e-27
      254.900   1.41174e-27
      255.000   1.34558e-27
      255.100   1.28244e-27
      255.200   1.22224e-27
      255.300   1.16484e-27
      255.400   1.11009e-27
      255.500   1.05788e-27
      255.600   1.00811e-27
      255.700   9.60636e-28
      255.800   9.15366e-28
      255.900   8.72192e-28
      256.000   8.31030e-28
      256.100   7.91833e-28
      256.200   7.54513e-28
      256.300   7.18928e-28
      256.400   6.85018e-28
      256.500   6.52660e-28
      256.600   6.21823e-28
      256.700   5.92427e-28
      256.800   5.64394e-28
      256.900   5.37668e-28
      257.000   5.12194e-28
      257.100   4.87909e-28
      257.200   4.64767e-28
      257.300   4.42701e-28
      257.400   4.24601e-28
      257.500   4.08285e-28
      257.600   3.92663e-28
      257.700   3.77640e-28
      257.800   3.63182e-28
      257.900   3.49273e-28
      258.000   3.35889e-28
      258.100   3.23010e-28
      258.200   3.10622e-28
      258.300   2.98706e-28
      258.400   2.87233e-28
      258.500   2.76195e-28
      258.600   2.65581e-28
      258.700   2.55368e-28
      258.800   2.45541e-28
      258.900   2.36094e-28
      259.000   2.26998e-28
      259.100   2.18252e-28
      259.200   2.09844e-28
      259.300   2.01768e-28
      259.400   1.93998e-28
      259.500   1.86520e-28
      259.600   1.79330e-28
      259.700   1.72415e-28
      259.800   1.65761e-28
      259.900   1.59359e-28
      260.000   1.53205e-28
      260.100   1.47285e-28
      260.200   1.41591e-28
      260.300   1.36114e-28
      260.400   1.30848e-28
      260.500   1.25785e-28
      260.600   1.20914e-28
      260.700   1.16228e-28
      260.800   1.11727e-28
      260.900   1.07394e-28
      261.000   1.03231e-28
      261.100   9.92324e-29
      261.200   9.53867e-29
      261.300   9.16880e-29
      261.400   8.81330e-29
      261.500   8.50825e-29
      261.600   8.33324e-29
      261.700   8.18251e-29
      261.800   8.03457e-29
      261.900   7.88919e-29
      262.000   7.74645e-29
      262.100   7.60627e-29
      262.200   7.46870e-29
      262.300   7.33352e-29
      262.400   7.20079e-29
      262.500   7.07050e-29
      262.600   6.94252e-29
      262.700   6.81687e-29
      262.800   6.69348e-29
      262.900   6.57218e-29
      263.000   6.45335e-29
      263.100   6.33653e-29
      263.200   6.22187e-29
      263.300   6.10931e-29
      263.400   5.99875e-29
      263.500   5.89020e-29
      263.600   5.78370e-29
      263.700   5.67906e-29
      263.800   5.57628e-29
      263.900   5.47548e-29
      264.000   5.37646e-29
      264.100   5.27921e-29
      264.200   5.18371e-29
      264.300   5.09002e-29
      264.400   4.99800e-29
      264.500   4.90765e-29
      264.600   4.81890e-29
      264.700   4.73180e-29
      264.800   4.64628e-29
      264.900   4.56236e-29
      265.000   4.47994e-29
      265.100   4.39898e-29
      265.200   4.31953e-29
      265.300   4.24151e-29
      265.400   4.16495e-29
      265.500   4.08977e-29
      265.600   4.01596e-29
      265.700   3.94347e-29
      265.800   3.87240e-29
      265.900   3.80261e-29
      266.000   3.73414e-29
      266.100   3.66694e-29
      266.200   3.60092e-29
      266.300   3.53611e-29
      266.400   3.47248e-29
      266.500   3.41001e-29
      266.600   3.34870e-29
      266.700   3.28846e-29
      266.800   3.22940e-29
      266.900   3.17137e-29
      267.000   3.11441e-29
      267.100   3.05850e-29
      267.200   3.00364e-29
      267.300   2.94975e-29
      267.400   2.89682e-29
      267.500   2.84487e-29
      267.600   2.79388e-29
      267.700   2.74380e-29
      267.800   2.69464e-29
      267.900   2.64638e-29
      268.000   2.59902e-29
      268.100   2.55252e-29
      268.200   2.50687e-29
      268.300   2.46206e-29
      268.400   2.41804e-29
      268.500   2.37484e-29
      268.600   2.33241e-29
      268.700   2.29080e-29
      268.800   2.24990e-29
      268.900   2.20977e-29
      269.000   2.17038e-29
      269.100   2.13168e-29
      269.200   2.09372e-29
      269.300   2.05643e-29
      269.400   2.01982e-29
      269.500   1.98385e-29
      269.600   1.94859e-29
      269.700   1.91392e-29
      269.800   1.87992e-29
      269.900   1.84650e-29
      270.000   1.81374e-29
      270.100   1.78154e-29
      270.200   1.74998e-29
      270.300   1.71896e-29
      270.400   1.68849e-29
      270.500   1.65859e-29
      270.600   1.62923e-29
      270.700   1.60040e-29
      270.800   1.57210e-29
      270.900   1.54429e-29
      271.000   1.51699e-29
      271.100   1.49017e-29
      271.200   1.46384e-29
      271.300   1.43800e-29
      271.400   1.41260e-29
      271.500   1.38769e-29
      271.600   1.36319e-29
      271.700   1.33914e-29
      271.800   1.31552e-29
      271.900   1.29233e-29
      272.000   1.26956e-29
      272.100   1.24719e-29
      272.200   1.22521e-29
      272.300   1.20362e-29
      272.400   1.18242e-29
      272.500   1.16161e-29
      272.600   1.14116e-29
      272.700   1.12107e-29
      272.800   1.10134e-29
      272.900   1.08195e-29
      273.000   1.06292e-29
      273.100   1.04423e-29
      273.200   1.02586e-29
      273.300   1.00783e-29
      273.400   9.90099e-30
      273.500   9.72689e-30
      273.600   9.55588e-30
      273.700   9.38780e-30
      273.800   9.22270e-30
      273.900   9.06065e-30
      274.000   8.90138e-30
      274.100   8.74494e-30
      274.200   8.59120e-30
      274.300   8.44020e-30
      274.400   8.29086e-30
      274.500   8.14174e-30
      274.600   7.99489e-30
      274.700   7.85071e-30
      274.800   7.70913e-30
      274.900   7.57003e-30
      275.000   7.43341e-30
      275.100   7.29929e-30
      275.200   7.16752e-30
      275.300   7.03810e-30
      275.400   6.91109e-30
      275.500   6.78635e-30
      275.600   6.66376e-30
      275.700   6.54338e-30
      275.800   6.42519e-30
      275.900   6.30914e-30
      276.000   6.19516e-30
      276.100   6.08317e-30
      276.200   5.97315e-30
      276.300   5.86514e-30
      276.400   5.75905e-30
      276.500   5.65489e-30
      276.600   5.55258e-30
      276.700   5.45206e-30
      276.800   5.35338e-30
      276.900   5.25640e-30
      277.000   5.16121e-30
      277.100   5.06767e-30
      277.200   4.97584e-30
      277.300   4.88565e-30
      277.400   4.79708e-30
      277.500   4.71000e-30
      277.600   4.62458e-30
      277.700   4.54064e-30
      277.800   4.45813e-30
      277.900   4.37717e-30
      278.000   4.29770e-30
      278.100   4.21962e-30
      278.200   4.14291e-30
      278.300   4.06758e-30
      278.400   3.99362e-30
      278.500   3.92091e-30
      278.600   3.84953e-30
      278.700   3.77947e-30
      278.800   3.71066e-30
      278.900   3.64292e-30
      279.000   3.57638e-30
      279.100   3.51104e-30
      279.200   3.44683e-30
      279.300   3.38383e-30
      279.400   3.32190e-30
      279.500   3.26110e-30
      279.600   3.20141e-30
      279.700   3.14281e-30
      279.800   3.08525e-30
      279.900   3.02871e-30
      280.000   2.97320e-30
      280.100   2.91866e-30
      280.200   2.86513e-30
      280.300   2.81255e-30
      280.400   2.76092e-30
      280.500   2.71027e-30
      280.600   2.66050e-30
      280.700   2.61160e-30
      280.800   2.56361e-30
      280.900   2.51648e-30
      281.000   2.47019e-30
      281.100   2.42474e-30
      281.200   2.38011e-30
      281.300   2.33631e-30
      281.400   2.29331e-30
      281.500   2.25105e-30
      281.600   2.20955e-30
      281.700   2.16882e-30
      281.800   2.12884e-30
      281.900   2.08958e-30
      282.000   2.05103e-30
      282.100   2.01317e-30
      282.200   1.97603e-30
      282.300   1.93954e-30
      282.400   1.90372e-30
      282.500   1.86853e-30
      282.600   1.83400e-30
      282.700   1.80008e-30
      282.800   1.76679e-30
      282.900   1.73414e-30
      283.000   1.70206e-30
      283.100   1.67057e-30
      283.200   1.63967e-30
      283.300   1.60932e-30
      283.400   1.57953e-30
      283.500   1.55031e-30
      283.600   1.52160e-30
      283.700   1.49341e-30
      283.800   1.46575e-30
      283.900   1.43860e-30
      284.000   1.41194e-30
      284.100   1.38575e-30
      284.200   1.36005e-30
      284.300   1.33484e-30
      284.400   1.31009e-30
      284.500   1.28579e-30
      284.600   1.26194e-30
      284.700   1.23853e-30
      284.800   1.21556e-30
      284.900   1.19300e-30
      285.000   1.17085e-30
      285.100   1.14911e-30
      285.200   1.12778e-30
      285.300   1.10684e-30
      285.400   1.08629e-30
      285.500   1.06611e-30
      285.600   1.04633e-30
      285.700   1.02689e-30
      285.800   1.00782e-30
      285.900   9.89104e-31
      286.000   9.70736e-31
      286.100   9.52727e-31
      286.200   9.35037e-31
      286.300   9.17690e-31
      286.400   9.00658e-31
      286.500   8.83937e-31
      286.600   8.67524e-31
      286.700   8.51417e-31
      286.800   8.35618e-31
      286.900   8.20111e-31
      287.000   8.04886e-31
      287.100   7.89944e-31
      287.200   7.75288e-31
      287.300   7.60901e-31
      287.400   7.46780e-31
      287.500   7.32926e-31
      287.600   7.19334e-31
      287.700   7.05988e-31
      287.800   6.92896e-31
      287.900   6.80046e-31
      288.000   6.67441e-31
      288.100   6.55066e-31
      288.200   6.42933e-31
      288.300   6.31027e-31
      288.400   6.19344e-31
      288.500   6.07880e-31
      288.600   5.96622e-31
      288.700   5.85583e-31
      288.800   5.74745e-31
      288.900   5.64117e-31
      289.000   5.53685e-31
      289.100   5.43443e-31
      289.200   5.33394e-31
      289.300   5.23537e-31
      289.400   5.13862e-31
      289.500   5.04367e-31
      289.600   4.95049e-31
      289.700   4.85914e-31
      289.800   4.76941e-31
      289.900   4.68130e-31
      290.000   4.59498e-31
      290.100   4.51016e-31
      290.200   4.42709e-31
      290.300   4.34550e-31
      290.400   4.26544e-31
      290.500   4.18696e-31
      290.600   4.10986e-31
      290.700   4.03420e-31
      290.800   3.96002e-31
      290.900   3.88719e-31
      291.000   3.81567e-31
      291.100   3.74550e-31
      291.200   3.67666e-31
      291.300   3.60910e-31
      291.400   3.54282e-31
      291.500   3.47774e-31
      291.600   3.41387e-31
      291.700   3.35122e-31
      291.800   3.28971e-31
      291.900   3.22941e-31
      292.000   3.17029e-31
      292.100   3.11223e-31
      292.200   3.05525e-31
      292.300   2.99930e-31
      292.400   2.94440e-31
      292.500   2.89051e-31
      292.600   2.83762e-31
      292.700   2.78572e-31
      292.800   2.73478e-31
      292.900   2.68478e-31
      293.000   2.63572e-31
      293.100   2.58756e-31
      293.200   2.54028e-31
      293.300   2.49386e-31
      293.400   2.44837e-31
      293.500   2.40370e-31
      293.600   2.35988e-31
      293.700   2.31684e-31
      293.800   2.27462e-31
      293.900   2.23318e-31
      294.000   2.19248e-31
      294.100   2.15255e-31
      294.200   2.11337e-31
      294.300   2.07491e-31
      294.400   2.03714e-31
      294.500   2.00006e-31
      294.600   1.96365e-31
      294.700   1.92793e-31
      294.800   1.89286e-31
      294.900   1.85843e-31
      295.000   1.82468e-31
      295.100   1.79156e-31
      295.200   1.75903e-31
      295.300   1.72707e-31
      295.400   1.69571e-31
      295.500   1.66495e-31
      295.600   1.63472e-31
      295.700   1.60506e-31
      295.800   1.57593e-31
      295.900   1.54732e-31
      296.000   1.51925e-31
      296.100   1.49167e-31
      296.200   1.46462e-31
      296.300   1.43806e-31
      296.400   1.41203e-31
      296.500   1.38643e-31
      296.600   1.36132e-31
      296.700   1.33666e-31
      296.800   1.31245e-31
      296.900   1.28867e-31
      297.000   1.26533e-31
      297.100   1.24240e-31
      297.200   1.21989e-31
      297.300   1.19779e-31
      297.400   1.17610e-31
      297.500   1.15478e-31
      297.600   1.13388e-31
      297.700   1.11335e-31
      297.800   1.09320e-31
      297.900   1.07343e-31
      298.000   1.05401e-31
      298.100   1.03493e-31
      298.200   1.01619e-31
      298.300   9.97805e-32
      298.400   9.79738e-32
      298.500   9.61996e-32
      298.600   9.44576e-32
      298.700   9.27467e-32
      298.800   9.10659e-32
      298.900   8.94178e-32
      299.000   8.78005e-32
      299.100   8.62120e-32
      299.200   8.46507e-32
      299.300   8.31181e-32
      299.400   8.16131e-32
      299.500   8.01351e-32
      299.600   7.86833e-32
      299.700   7.72574e-32
      299.800   7.58569e-32
      299.900   7.44823e-32
      300.000   7.31319e-32
      300.100   7.18060e-32
      300.192   7.06083e-32
      300.285   6.94159e-32
      300.377   6.82575e-32
      300.470   6.71064e-32
      300.562   6.59860e-32
      300.654   6.48839e-32
      300.747   6.37885e-32
      300.839   6.27233e-32
      300.932   6.16633e-32
      301.025   6.06218e-32
      301.117   5.96093e-32
      301.210   5.86010e-32
      301.303   5.76113e-32
      301.395   5.66485e-32
      301.488   5.56901e-32
      301.581   5.47486e-32
      301.674   5.38226e-32
      301.766   5.29214e-32
      301.859   5.20257e-32
      301.952   5.11455e-32
      302.045   5.02797e-32
      302.138   4.95020e-32
      302.231   4.89017e-32
      302.324   4.83156e-32
      302.417   4.77372e-32
      302.510   4.71645e-32
      302.603   4.65997e-32
      302.696   4.60403e-32
      302.789   4.54876e-32
      302.882   4.49413e-32
      302.976   4.43966e-32
      303.069   4.38633e-32
      303.162   4.33360e-32
      303.255   4.28147e-32
      303.349   4.22942e-32
      303.442   4.17851e-32
      303.535   4.12821e-32
      303.629   4.07795e-32
      303.722   4.02883e-32
      303.816   3.97979e-32
      303.909   3.93177e-32
      304.003   3.88384e-32
      304.096   3.83698e-32
      304.190   3.79016e-32
      304.283   3.74436e-32
      304.377   3.69864e-32
      304.471   3.65342e-32
      304.564   3.60922e-32
      304.658   3.56513e-32
      304.752   3.52148e-32
      304.846   3.47838e-32
      304.939   3.43624e-32
      305.033   3.39413e-32
      305.127   3.35251e-32
      305.221   3.31139e-32
      305.315   3.27082e-32
      305.409   3.23063e-32
      305.503   3.19096e-32
      305.597   3.15180e-32
      305.691   3.11305e-32
      305.785   3.07479e-32
      305.879   3.03695e-32
      305.973   2.99957e-32
      306.067   2.96263e-32
      306.161   2.92614e-32
      306.255   2.89009e-32
      306.350   2.85408e-32
      306.444   2.81886e-32
      306.538   2.78409e-32
      306.633   2.74938e-32
      306.727   2.71543e-32
      306.821   2.68189e-32
      306.916   2.64839e-32
      307.010   2.61630e-32
      307.105   2.58634e-32
      307.199   2.55736e-32
      307.294   2.52837e-32
      307.388   2.50002e-32
      307.483   2.47169e-32
      307.577   2.44396e-32
      307.672   2.41622e-32
      307.767   2.38880e-32
      307.861   2.36195e-32
      307.956   2.33509e-32
      308.051   2.30854e-32
      308.146   2.28232e-32
      308.240   2.25661e-32
      308.335   2.23092e-32
      308.430   2.20550e-32
      308.525   2.18038e-32
      308.620   2.15555e-32
      308.715   2.13098e-32
      308.810   2.10669e-32
      308.905   2.08266e-32
      309.000   2.05887e-32
      309.095   2.03537e-32
      309.190   2.01214e-32
      309.285   1.98917e-32
      309.380   1.96645e-32
      309.476   1.94375e-32
      309.571   1.92153e-32
      309.666   1.89956e-32
      309.761   1.87784e-32
      309.857   1.85614e-32
      309.952   1.83487e-32
      310.047   1.81388e-32
      310.143   1.79290e-32
      310.238   1.77237e-32
      310.334   1.75185e-32
      310.429   1.73178e-32
      310.525   1.71172e-32
      310.620   1.69211e-32
      310.716   1.67251e-32
      310.811   1.65336e-32
      310.907   1.63420e-32
      311.003   1.61526e-32
      311.098   1.59673e-32
      311.194   1.57822e-32
      311.290   1.55995e-32
      311.386   1.54187e-32
      311.481   1.52418e-32
      311.577   1.50651e-32
      311.673   1.48904e-32
      311.769   1.47178e-32
      311.865   1.45471e-32
      311.961   1.43788e-32
      312.057   1.42143e-32
      312.153   1.40525e-32
      312.249   1.38925e-32
      312.345   1.37343e-32
      312.441   1.35779e-32
      312.537   1.34233e-32
      312.633   1.32705e-32
      312.730   1.31178e-32
      312.826   1.29684e-32
      312.922   1.28207e-32
      313.018   1.26748e-32
      313.115   1.25291e-32
      313.211   1.23864e-32
      313.307   1.22455e-32
      313.404   1.21047e-32
      313.500   1.19670e-32
      313.597   1.18295e-32
      313.693   1.16950e-32
      313.790   1.15606e-32
      313.886   1.14292e-32
      313.983   1.12978e-32
      314.079   1.11694e-32
      314.176   1.10412e-32
      314.273   1.09144e-32
      314.369   1.07906e-32
      314.466   1.06668e-32
      314.563   1.05445e-32
      314.660   1.04235e-32
      314.756   1.03053e-32
      314.853   1.01871e-32
      314.950   1.00703e-32
      315.047   9.95505e-33
      315.144   9.84110e-33
      315.241   9.72843e-33
      315.338   9.61711e-33
      315.435   9.50707e-33
      315.532   9.39828e-33
      315.629   9.29080e-33
      315.726   9.18465e-33
      315.823   9.07964e-33
      315.921   8.97487e-33
      316.018   8.87242e-33
      316.115   8.77118e-33
      316.212   8.67107e-33
      316.310   8.57114e-33
      316.407   8.47339e-33
      316.504   8.37679e-33
      316.602   8.28039e-33
      316.699   8.18614e-33
      316.796   8.09286e-33
      316.894   7.99984e-33
      316.991   7.90900e-33
      317.089   7.81938e-33
      317.187   7.73142e-33
      317.284   7.64536e-33
      317.382   7.55940e-33
      317.479   7.47525e-33
      317.577   7.39124e-33
      317.675   7.30822e-33
      317.773   7.22615e-33
      317.870   7.14594e-33
      317.968   7.06577e-33
      318.066   6.98651e-33
      318.164   6.90820e-33
      318.262   6.83080e-33
      318.360   6.75432e-33
      318.458   6.67876e-33
      318.556   6.60413e-33
      318.654   6.53030e-33
      318.752   6.45728e-33
      318.850   6.38518e-33
      318.948   6.31389e-33
      319.046   6.24343e-33
      319.144   6.17377e-33
      319.242   6.10493e-33
      319.341   6.03622e-33
      319.439   5.96898e-33
      319.537   5.90258e-33
      319.635   5.83690e-33
      319.734   5.77130e-33
      319.832   5.70716e-33
      319.930   5.64371e-33
      320.029   5.58037e-33
      320.127   5.51844e-33
      320.226   5.45660e-33
      320.324   5.39605e-33
      320.423   5.33556e-33
      320.522   5.27590e-33
      320.620   5.21747e-33
      320.719   5.15908e-33
      320.818   5.10143e-33
      320.916   5.04500e-33
      321.015   4.98865e-33
      321.114   4.93292e-33
      321.213   4.87787e-33
      321.311   4.82403e-33
      321.410   4.77027e-33
      321.509   4.71705e-33
      321.608   4.66450e-33
      321.707   4.61256e-33
      321.806   4.56121e-33
      321.905   4.51046e-33
      322.004   4.46030e-33
      322.103   4.41071e-33
      322.202   4.36164e-33
      322.301   4.31320e-33
      322.401   4.26484e-33
      322.500   4.21750e-33
      322.599   4.17071e-33
      322.698   4.12441e-33
      322.798   4.07821e-33
      322.897   4.03300e-33
      322.996   3.98831e-33
      323.096   3.94367e-33
      323.195   3.89999e-33
      323.294   3.85677e-33
      323.394   3.81364e-33
      323.493   3.77144e-33
      323.593   3.72933e-33
      323.692   3.68808e-33
      323.792   3.64687e-33
      323.892   3.60614e-33
      323.991   3.56625e-33
      324.091   3.52649e-33
      324.191   3.48715e-33
      324.291   3.44823e-33
      324.390   3.41017e-33
      324.490   3.37215e-33
      324.590   3.33455e-33
      324.690   3.29737e-33
      324.790   3.26063e-33
      324.890   3.22431e-33
      324.990   3.18841e-33
      325.090   3.15290e-33
      325.190   3.11776e-33
      325.290   3.08306e-33
      325.390   3.04871e-33
      325.490   3.01478e-33
      325.590   2.98124e-33
      325.690   2.94801e-33
      325.790   2.91519e-33
      325.891   2.88243e-33
      325.991   2.85035e-33
      326.091   2.81861e-33
      326.192   2.78693e-33
      326.292   2.75592e-33
      326.392   2.72526e-33
      326.493   2.69464e-33
      326.593   2.66464e-33
      326.694   2.63471e-33
      326.794   2.60537e-33
      326.895   2.57608e-33
      326.995   2.54742e-33
      327.096   2.51878e-33
      327.197   2.49045e-33
      327.297   2.46273e-33
      327.398   2.43505e-33
      327.499   2.40768e-33
      327.599   2.38086e-33
      327.700   2.35408e-33
      327.801   2.32758e-33
      327.902   2.30142e-33
      328.003   2.27552e-33
      328.104   2.24991e-33
      328.205   2.22460e-33
      328.306   2.19956e-33
      328.407   2.17480e-33
      328.508   2.15029e-33
      328.609   2.12606e-33
      328.710   2.10209e-33
      328.811   2.07839e-33
      328.912   2.05497e-33
      329.013   2.03179e-33
      329.115   2.00867e-33
      329.216   1.98601e-33
      329.317   1.96357e-33
      329.419   1.94121e-33
      329.520   1.91928e-33
      329.621   1.89757e-33
      329.723   1.87592e-33
      329.824   1.85472e-33
      329.926   1.83355e-33
      330.027   1.81280e-33
      330.129   1.79208e-33
      330.230   1.77181e-33
      330.332   1.75153e-33
      330.434   1.73149e-33
      330.535   1.71187e-33
      330.637   1.69226e-33
      330.739   1.67287e-33
      330.840   1.65388e-33
      330.942   1.63492e-33
      331.044   1.61617e-33
      331.146   1.59761e-33
      331.248   1.57927e-33
      331.350   1.56114e-33
      331.452   1.54321e-33
      331.554   1.52585e-33
      331.656   1.50922e-33
      331.758   1.49278e-33
      331.860   1.47649e-33
      331.962   1.46039e-33
      332.064   1.44445e-33
      332.166   1.42870e-33
      332.268   1.41309e-33
      332.371   1.39750e-33
      332.473   1.38221e-33
      332.575   1.36707e-33
      332.677   1.35210e-33
      332.780   1.33715e-33
      332.882   1.32249e-33
      332.985   1.30785e-33
      333.087   1.29350e-33
      333.190   1.27917e-33
      333.292   1.26494e-33
      333.395   1.25028e-33
      333.497   1.23577e-33
      333.600   1.22128e-33
      333.702   1.20710e-33
      333.805   1.19292e-33
      333.908   1.17891e-33
      334.011   1.16506e-33
      334.113   1.15148e-33
      334.216   1.13793e-33
      334.319   1.12454e-33
      334.422   1.11128e-33
      334.525   1.09818e-33
      334.628   1.08523e-33
      334.731   1.07242e-33
      334.834   1.05977e-33
      334.937   1.04725e-33
      335.040   1.03486e-33
      335.143   1.02263e-33
      335.246   1.01052e-33
      335.349   9.98552e-34
      335.452   9.86721e-34
      335.555   9.75021e-34
      335.659   9.63348e-34
      335.762   9.51920e-34
      335.865   9.40628e-34
      335.969   9.29342e-34
      336.072   9.18281e-34
      336.175   9.07361e-34
      336.279   8.96461e-34
      336.382   8.85793e-34
      336.486   8.75133e-34
      336.589   8.64694e-34
      336.693   8.54293e-34
      336.796   8.44100e-34
      336.900   8.33930e-34
      337.004   8.23868e-34
      337.107   8.14022e-34
      337.211   8.04198e-34
      337.315   7.94500e-34
      337.419   7.84894e-34
      337.523   7.75396e-34
      337.626   7.66107e-34
      337.730   7.56850e-34
      337.834   7.47681e-34
      337.938   7.38634e-34
      338.042   7.29705e-34
      338.146   7.20969e-34
      338.250   7.12348e-34
      338.354   7.03827e-34
      338.458   6.95398e-34
      338.562   6.87071e-34
      338.667   6.78760e-34
      338.771   6.70619e-34
      338.875   6.62579e-34
      338.979   6.54628e-34
      339.084   6.46705e-34
      339.188   6.38936e-34
      339.292   6.31271e-34
      339.397   6.23609e-34
      339.501   6.16120e-34
      339.606   6.08643e-34
      339.710   6.01322e-34
      339.815   5.94025e-34
      339.919   5.86881e-34
      340.024   5.79748e-34
      340.128   5.72772e-34
      340.233   5.65810e-34
      340.338   5.58936e-34
      340.442   5.52199e-34
      340.547   5.45485e-34
      340.652   5.38849e-34
      340.757   5.32288e-34
      340.862   5.25808e-34
      340.966   5.19471e-34
      341.071   5.13136e-34
      341.176   5.06885e-34
      341.281   5.00710e-34
      341.386   4.94617e-34
      341.491   4.88585e-34
      341.596   4.82639e-34
      341.702   4.76702e-34
      341.807   4.70885e-34
      341.912   4.65147e-34
      342.017   4.59481e-34
      342.122   4.53877e-34
      342.228   4.48287e-34
      342.333   4.42822e-34
      342.438   4.37422e-34
      342.544   4.32041e-34
      342.649   4.26767e-34
      342.754   4.21569e-34
      342.860   4.16375e-34
      342.965   4.11294e-34
      343.071   4.06236e-34
      343.176   4.01283e-34
      343.282   3.96341e-34
      343.388   3.91465e-34
      343.493   3.86715e-34
      343.599   3.82188e-34
      343.705   3.77743e-34
      343.810   3.73380e-34
      343.916   3.69031e-34
      344.022   3.64739e-34
      344.128   3.60490e-34
      344.234   3.56292e-34
      344.340   3.52148e-34
      344.446   3.48044e-34
      344.552   3.43993e-34
      344.658   3.39998e-34
      344.764   3.36043e-34
      344.870   3.32136e-34
      344.976   3.28273e-34
      345.082   3.24457e-34
      345.188   3.20690e-34
      345.294   3.16963e-34
      345.401   3.13246e-34
      345.507   3.09609e-34
      345.613   3.06015e-34
      345.719   3.02464e-34
      345.826   2.98923e-34
      345.932   2.95455e-34
      346.039   2.91998e-34
      346.145   2.88610e-34
      346.252   2.85236e-34
      346.358   2.81934e-34
      346.465   2.78636e-34
      346.571   2.75411e-34
      346.678   2.72193e-34
      346.785   2.69014e-34
      346.891   2.65902e-34
      346.998   2.62800e-34
      347.105   2.59738e-34
      347.212   2.56708e-34
      347.319   2.53717e-34
      347.425   2.50785e-34
      347.532   2.47865e-34
      347.639   2.44981e-34
      347.746   2.42129e-34
      347.853   2.39315e-34
      347.960   2.36530e-34
      348.067   2.33785e-34
      348.174   2.31073e-34
      348.281   2.28386e-34
      348.389   2.25714e-34
      348.496   2.23091e-34
      348.603   2.20508e-34
      348.710   2.17950e-34
      348.818   2.15406e-34
      348.925   2.12909e-34
      349.032   2.10447e-34
      349.140   2.07986e-34
      349.247   2.05576e-34
      349.355   2.03179e-34
      349.462   2.00828e-34
      349.570   1.98482e-34
      349.677   1.96190e-34
      349.785   1.93901e-34
      349.892   1.91664e-34
      350.000   1.89433e-34
      350.100   1.87390e-34
      350.193   1.85513e-34
      350.287   1.83634e-34
      350.380   1.81793e-34
      350.473   1.79974e-34
      350.567   1.78152e-34
      350.660   1.76370e-34
      350.754   1.74587e-34
      350.847   1.72844e-34
      350.941   1.71098e-34
      351.034   1.69389e-34
      351.128   1.67681e-34
      351.221   1.66008e-34
      351.315   1.64337e-34
      351.409   1.62679e-34
      351.502   1.61059e-34
      351.596   1.59436e-34
      351.690   1.57833e-34
      351.783   1.56263e-34
      351.877   1.54694e-34
      351.971   1.53138e-34
      352.065   1.51601e-34
      352.159   1.50080e-34
      352.252   1.48590e-34
      352.346   1.47099e-34
      352.440   1.45624e-34
      352.534   1.44166e-34
      352.628   1.42724e-34
      352.722   1.41294e-34
      352.816   1.39880e-34
      352.910   1.38481e-34
      353.004   1.37097e-34
      353.098   1.35726e-34
      353.192   1.34370e-34
      353.287   1.33015e-34
      353.381   1.31688e-34
      353.475   1.30375e-34
      353.569   1.29073e-34
      353.663   1.27786e-34
      353.758   1.26501e-34
      353.852   1.25242e-34
      353.946   1.23996e-34
      354.041   1.22748e-34
      354.135   1.21527e-34
      354.229   1.20318e-34
      354.324   1.19112e-34
      354.418   1.17926e-34
      354.513   1.16742e-34
      354.607   1.15586e-34
      354.702   1.14423e-34
      354.796   1.13275e-34
      354.891   1.12125e-34
      354.985   1.11000e-34
      355.080   1.09874e-34
      355.175   1.08761e-34
      355.269   1.07670e-34
      355.364   1.06579e-34
      355.459   1.05500e-34
      355.553   1.04443e-34
      355.648   1.03386e-34
      355.743   1.02340e-34
      355.838   1.01304e-34
      355.933   1.00281e-34
      356.027   9.92786e-35
      356.122   9.82749e-35
      356.217   9.72818e-35
      356.312   9.62999e-35
      356.407   9.53275e-35
      356.502   9.43656e-35
      356.597   9.34118e-35
      356.692   9.24707e-35
      356.787   9.15381e-35
      356.882   9.06146e-35
      356.977   8.97013e-35
      357.073   8.87885e-35
      357.168   8.78928e-35
      357.263   8.70073e-35
      357.358   8.61311e-35
      357.453   8.52641e-35
      357.549   8.43970e-35
      357.644   8.35473e-35
      357.739   8.27066e-35
      357.835   8.18664e-35
      357.930   8.10429e-35
      358.025   8.02273e-35
      358.121   7.94118e-35
      358.216   7.86131e-35
      358.312   7.78141e-35
      358.407   7.70323e-35
      358.503   7.62497e-35
      358.598   7.54843e-35
      358.694   7.47180e-35
      358.790   7.39593e-35
      358.885   7.32157e-35
      358.981   7.24730e-35
      359.076   7.17446e-35
      359.172   7.10171e-35
      359.268   7.02957e-35
      359.364   6.95818e-35
      359.459   6.88838e-35
      359.555   6.81855e-35
      359.651   6.74932e-35
      359.747   6.68085e-35
      359.843   6.61309e-35
      359.939   6.54596e-35
      360.035   6.47956e-35
      360.131   6.41382e-35
      360.227   6.34873e-35
      360.323   6.28435e-35
      360.419   6.22063e-35
      360.515   6.15755e-35
      360.611   6.09509e-35
      360.707   6.03319e-35
      360.803   5.97200e-35
      360.899   5.91136e-35
      360.995   5.85147e-35
      361.092   5.79148e-35
      361.188   5.73269e-35
      361.284   5.67453e-35
      361.380   5.61696e-35
      361.477   5.55934e-35
      361.573   5.50294e-35
      361.669   5.44707e-35
      361.766   5.39112e-35
      361.862   5.33641e-35
      361.959   5.28168e-35
      362.055   5.22793e-35
      362.152   5.17430e-35
      362.248   5.12169e-35
      362.345   5.06904e-35
      362.441   5.01757e-35
      362.538   4.96605e-35
      362.635   4.91504e-35
      362.731   4.86499e-35
      362.828   4.81492e-35
      362.925   4.76542e-35
      363.021   4.71694e-35
      363.118   4.66842e-35
      363.215   4.62033e-35
      363.312   4.57274e-35
      363.409   4.52569e-35
      363.505   4.47954e-35
      363.602   4.43337e-35
      363.699   4.38773e-35
      363.796   4.34247e-35
      363.893   4.29768e-35
      363.990   4.25334e-35
      364.087   4.20944e-35
      364.184   4.16600e-35
      364.281   4.12298e-35
      364.378   4.08043e-35
      364.475   4.03826e-35
      364.573   3.99605e-35
      364.670   3.95470e-35
      364.767   3.91382e-35
      364.864   3.87333e-35
      364.961   3.83321e-35
      365.059   3.79312e-35
      365.156   3.75384e-35
      365.253   3.71493e-35
      365.351   3.67601e-35
      365.448   3.63787e-35
      365.545   3.60014e-35
      365.643   3.56237e-35
      365.740   3.52535e-35
      365.838   3.48835e-35
      365.935   3.45209e-35
      366.033   3.41585e-35
      366.130   3.38029e-35
      366.228   3.34475e-35
      366.326   3.30957e-35
      366.423   3.27508e-35
      366.521   3.24058e-35
      366.618   3.20676e-35
      366.716   3.17294e-35
      366.814   3.13947e-35
      366.912   3.10636e-35
      367.010   3.07358e-35
      367.107   3.04145e-35
      367.205   3.00930e-35
      367.303   2.97746e-35
      367.401   2.94596e-35
      367.499   2.91478e-35
      367.597   2.88391e-35
      367.695   2.85333e-35
      367.793   2.82309e-35
      367.891   2.79317e-35
      367.989   2.76353e-35
      368.087   2.73419e-35
      368.185   2.70514e-35
      368.283   2.67638e-35
      368.381   2.64792e-35
      368.480   2.61945e-35
      368.578   2.59156e-35
      368.676   2.56396e-35
      368.774   2.53665e-35
      368.873   2.50934e-35
      368.971   2.48258e-35
      369.069   2.45610e-35
      369.168   2.42958e-35
      369.266   2.40361e-35
      369.364   2.37791e-35
      369.463   2.35224e-35
      369.561   2.32707e-35
      369.660   2.30190e-35
      369.758   2.27724e-35
      369.857   2.25259e-35
      369.955   2.22844e-35
      370.054   2.20427e-35
      370.153   2.18036e-35
      370.251   2.15694e-35
      370.350   2.13354e-35
      370.449   2.11038e-35
      370.547   2.08767e-35
      370.646   2.06495e-35
      370.745   2.04250e-35
      370.844   2.02027e-35
      370.943   1.99827e-35
      371.041   1.97673e-35
      371.140   1.95516e-35
      371.239   1.93383e-35
      371.338   1.91275e-35
      371.437   1.89187e-35
      371.536   1.87119e-35
      371.635   1.85074e-35
      371.734   1.83052e-35
      371.833   1.81050e-35
      371.932   1.79068e-35
      372.032   1.77088e-35
      372.131   1.75146e-35
      372.230   1.73228e-35
      372.329   1.71331e-35
      372.428   1.69452e-35
      372.528   1.67574e-35
      372.627   1.65737e-35
      372.726   1.63918e-35
      372.826   1.62100e-35
      372.925   1.60320e-35
      373.024   1.58558e-35
      373.124   1.56795e-35
      373.223   1.55071e-35
      373.323   1.53348e-35
      373.422   1.51660e-35
      373.522   1.49971e-35
      373.621   1.48320e-35
      373.721   1.46669e-35
      373.820   1.45051e-35
      373.920   1.43434e-35
      374.020   1.41834e-35
      374.119   1.40268e-35
      374.219   1.38702e-35
      374.319   1.37155e-35
      374.419   1.35624e-35
      374.518   1.34124e-35
      374.618   1.32625e-35
      374.718   1.31140e-35
      374.818   1.29674e-35
      374.918   1.28223e-35
      375.018   1.26788e-35
      375.118   1.25369e-35
      375.218   1.23964e-35
      375.318   1.22576e-35
      375.418   1.21202e-35
      375.518   1.19844e-35
      375.618   1.18500e-35
      375.718   1.17170e-35
      375.818   1.15855e-35
      375.918   1.14554e-35
      376.019   1.13256e-35
      376.119   1.11984e-35
      376.219   1.10726e-35
      376.319   1.09482e-35
      376.420   1.08239e-35
      376.520   1.07022e-35
      376.620   1.05819e-35
      376.721   1.04616e-35
      376.821   1.03439e-35
      376.922   1.02263e-35
      377.022   1.01112e-35
      377.122   9.99742e-36
      377.223   9.88374e-36
      377.323   9.77243e-36
      377.424   9.66123e-36
      377.525   9.55134e-36
      377.625   9.44368e-36
      377.726   9.33617e-36
      377.827   9.22994e-36
      377.927   9.12584e-36
      378.028   9.02196e-36
      378.129   8.91922e-36
      378.230   8.83899e-36
      378.330   8.79291e-36
      378.431   8.75208e-36
      378.532   8.71151e-36
      378.633   8.67101e-36
      378.734   8.63075e-36
      378.835   8.59064e-36
      378.936   8.55071e-36
      379.037   8.51090e-36
      379.138   8.47115e-36
      379.239   8.43167e-36
      379.340   8.39247e-36
      379.441   8.35339e-36
      379.542   8.31440e-36
      379.643   8.27563e-36
      379.745   8.23662e-36
      379.846   8.19819e-36
      379.947   8.15980e-36
      380.048   8.12168e-36
      380.150   8.08337e-36
      380.251   8.04558e-36
      380.352   8.00797e-36
      380.454   7.97019e-36
      380.555   7.93287e-36
      380.656   7.89568e-36
      380.758   7.85837e-36
      380.859   7.82154e-36
      380.961   7.78455e-36
      381.062   7.74810e-36
      381.164   7.71146e-36
      381.266   7.67496e-36
      381.367   7.63901e-36
      381.469   7.60290e-36
      381.570   7.56730e-36
      381.672   7.53144e-36
      381.774   7.49581e-36
      381.876   7.46033e-36
      381.977   7.42539e-36
      382.079   7.39022e-36
      382.181   7.35524e-36
      382.283   7.32047e-36
      382.385   7.28582e-36
      382.487   7.25139e-36
      382.589   7.21707e-36
      382.691   7.18290e-36
      382.793   7.14894e-36
      382.895   7.11518e-36
      382.997   7.08157e-36
      383.099   7.04809e-36
      383.201   7.01476e-36
      383.303   6.98168e-36
      383.405   6.94865e-36
      383.507   6.91576e-36
      383.610   6.88282e-36
      383.712   6.85033e-36
      383.814   6.81801e-36
      383.916   6.78591e-36
      384.019   6.75358e-36
      384.121   6.72177e-36
      384.223   6.69002e-36
      384.326   6.66073e-36
      384.428   6.63814e-36
      384.531   6.61728e-36
      384.633   6.59673e-36
      384.736   6.57604e-36
      384.838   6.55555e-36
      384.941   6.53499e-36
      385.043   6.51468e-36
      385.146   6.49437e-36
      385.249   6.47400e-36
      385.351   6.45391e-36
      385.454   6.43375e-36
      385.557   6.41364e-36
      385.660   6.39365e-36
      385.762   6.37391e-36
      385.865   6.35404e-36
      385.968   6.33422e-36
      386.071   6.31451e-36
      386.174   6.29484e-36
      386.277   6.27525e-36
      386.380   6.25574e-36
      386.483   6.23627e-36
      386.586   6.21702e-36
      386.689   6.19775e-36
      386.792   6.17853e-36
      386.895   6.15938e-36
      386.998   6.14035e-36
      387.101   6.12134e-36
      387.204   6.10235e-36
      387.308   6.08340e-36
      387.411   6.06466e-36
      387.514   6.04597e-36
      387.617   6.02732e-36
      387.721   6.00860e-36
      387.824   5.99016e-36
      387.927   5.97176e-36
      388.031   5.95325e-36
      388.134   5.93498e-36
      388.238   5.91665e-36
      388.341   5.89852e-36
      388.445   5.88036e-36
      388.548   5.86234e-36
      388.652   5.84436e-36
      388.755   5.82655e-36
      388.859   5.80859e-36
      388.962   5.79089e-36
      389.066   5.77309e-36
      389.170   5.75539e-36
      389.274   5.73779e-36
      389.377   5.72046e-36
      389.481   5.70293e-36
      389.585   5.68550e-36
      389.689   5.66810e-36
      389.793   5.65085e-36
      389.897   5.63361e-36
      390.000   5.61667e-36
      390.104   5.59960e-36
      390.208   5.58256e-36
      390.312   5.56561e-36
      390.416   5.54868e-36
      390.520   5.53176e-36
      390.625   5.51479e-36
      390.729   5.49799e-36
      390.833   5.48128e-36
      390.937   5.46464e-36
      391.041   5.44807e-36
      391.145   5.43148e-36
      391.250   5.41490e-36
      391.354   5.39849e-36
      391.458   5.38213e-36
      391.563   5.36571e-36
      391.667   5.34952e-36
      391.771   5.33340e-36
      391.876   5.31720e-36
      391.980   5.30115e-36
      392.085   5.28505e-36
      392.189   5.26919e-36
      392.294   5.25322e-36
      392.398   5.23746e-36
      392.503   5.22161e-36
      392.607   5.20594e-36
      392.712   5.19027e-36
      392.817   5.17453e-36
      392.921   5.15914e-36
      393.026   5.14356e-36
      393.131   5.12808e-36
      393.236   5.11260e-36
      393.340   5.09744e-36
      393.445   5.08217e-36
      393.550   5.06687e-36
      393.655   5.05169e-36
      393.760   5.03655e-36
      393.865   5.02152e-36
      393.970   5.00646e-36
      394.075   4.99149e-36
      394.180   4.97664e-36
      394.285   4.96182e-36
      394.390   4.94697e-36
      394.495   4.93222e-36
      394.600   4.91755e-36
      394.706   4.90276e-36
      394.811   4.88823e-36
      394.916   4.87362e-36
      395.021   4.85915e-36
      395.126   4.84474e-36
      395.232   4.83021e-36
      395.337   4.81584e-36
      395.443   4.80146e-36
      395.548   4.78719e-36
      395.653   4.77297e-36
      395.759   4.75875e-36
      395.864   4.74469e-36
      395.970   4.73053e-36
      396.075   4.71654e-36
      396.181   4.70247e-36
      396.286   4.68851e-36
      396.392   4.67457e-36
      396.498   4.66067e-36
      396.603   4.64685e-36
      396.709   4.63298e-36
      396.815   4.61909e-36
      396.921   4.60534e-36
      397.026   4.59175e-36
      397.132   4.57811e-36
      397.238   4.56448e-36
      397.344   4.55089e-36
      397.450   4.53737e-36
      397.556   4.52385e-36
      397.662   4.51036e-36
      397.768   4.49694e-36
      397.874   4.48364e-36
      397.980   4.47021e-36
      398.086   4.45696e-36
      398.192   4.44364e-36
      398.298   4.43039e-36
      398.404   4.41729e-36
      398.510   4.40411e-36
      398.617   4.39084e-36
      398.723   4.37776e-36
      398.829   4.36472e-36
      398.935   4.35166e-36
      399.042   4.33864e-36
      399.148   4.32565e-36
      399.255   4.31261e-36
      399.361   4.29973e-36
      399.467   4.28687e-36
      399.574   4.27399e-36
      399.680   4.26117e-36
      399.787   4.24824e-36
      399.893       0.00000
      400.000       0.00000
