Filter Be-thin
observation_date 22-Sept-2015 22:40:45
wavelength effective area 
      1.00000   2.78437e-10
      1.10000   7.94897e-10
      1.20000   2.06654e-09
      1.30000   4.94177e-09
      1.40000   1.12138e-08
      1.50000   2.39247e-08
      1.60000   4.84356e-08
      1.70000   9.40362e-08
      1.80000   1.75079e-07
      1.90000   3.14686e-07
      2.00000   5.47102e-07
      2.10000   9.24121e-07
      2.20000   1.52383e-06
      2.30000   2.44962e-06
      2.40000   3.84583e-06
      2.50000   5.87748e-06
      2.60000   8.96951e-06
      2.70000   1.33724e-05
      2.80000   1.95549e-05
      2.90000   2.83015e-05
      3.00000   4.03204e-05
      3.10000   5.67046e-05
      3.20000   7.88747e-05
      3.30000   0.000108595
      3.40000   0.000147951
      3.50000   0.000199616
      3.60000   0.000268074
      3.70000   0.000356177
      3.80000   0.000471257
      3.90000   0.000620039
      4.00000   0.000810686
      4.10000    0.00105500
      4.20000    0.00136805
      4.30000    0.00176889
      4.40000    0.00228098
      4.50000    0.00293311
      4.60000    0.00375887
      4.70000    0.00481668
      4.80000    0.00616552
      4.90000    0.00779025
      5.00000     0.0101016
      5.10000     0.0129134
      5.20000     0.0165555
      5.30000     0.0210443
      5.40000     0.0267048
      5.50000     0.0339448
      5.60000     0.0418213
      5.70000     0.0542791
      5.80000     0.0635279
      5.90000     0.0968277
      6.00000      0.129920
      6.10000      0.165726
      6.20000      0.203106
      6.30000      0.238586
      6.40000      0.268812
      6.50000      0.290790
      6.60000      0.300304
      6.70000      0.308903
      6.80000      0.308537
      6.90000      0.403711
      7.00000      0.437816
      7.10000      0.461688
      7.20000      0.480195
      7.30000      0.494842
      7.40000      0.505495
      7.50000      0.513500
      7.60000      0.518981
      7.70000      0.520588
      7.80000      0.517362
      7.90000      0.514685
      8.00000      0.740985
      8.10000      0.807448
      8.20000      0.816685
      8.30000      0.822126
      8.40000      0.824123
      8.50000      0.824632
      8.60000      0.823417
      8.70000      0.821055
      8.80000      0.817294
      8.90000      0.812570
      9.00000      0.806837
      9.10000      0.800158
      9.20000      0.792716
      9.30000      0.784449
      9.40000      0.775492
      9.50000      0.765911
      9.60000      0.755679
      9.70000      0.744902
      9.80000      0.733681
      9.90000      0.722054
      10.0000      0.710079
      10.1000      0.697781
      10.2000      0.685194
      10.3000      0.672309
      10.4000      0.659164
      10.5000      0.645792
      10.6000      0.632228
      10.7000      0.618498
      10.8000      0.604630
      10.9000      0.590663
      11.0000      0.576609
      11.1000      0.562506
      11.2000      0.548368
      11.3000      0.534225
      11.4000      0.520081
      11.5000      0.505947
      11.6000      0.491845
      11.7000      0.477757
      11.8000      0.463733
      11.9000      0.449696
      12.0000      0.435214
      12.1000      0.422408
      12.2000      0.417077
      12.3000      0.407371
      12.4000      0.394767
      12.5000      0.382080
      12.6000      0.369478
      12.7000      0.357033
      12.8000      0.344771
      12.9000      0.332698
      13.0000      0.320841
      13.1000      0.309213
      13.2000      0.297841
      13.3000      0.286787
      13.4000      0.276033
      13.5000      0.265567
      13.6000      0.255400
      13.7000      0.245491
      13.8000      0.235836
      13.9000      0.226441
      14.0000      0.217303
      14.1000      0.208401
      14.2000      0.199727
      14.3000      0.191284
      14.4000      0.183075
      14.5000      0.175116
      14.6000      0.167413
      14.7000      0.159941
      14.8000      0.152698
      14.9000      0.145680
      15.0000      0.138887
      15.1000      0.132319
      15.2000      0.126015
      15.3000      0.119937
      15.4000      0.114071
      15.5000      0.108414
      15.6000      0.102967
      15.7000     0.0977442
      15.8000     0.0927535
      15.9000     0.0879549
      16.0000     0.0833424
      16.1000     0.0789117
      16.2000     0.0747031
      16.3000     0.0706780
      16.4000     0.0668142
      16.5000     0.0631062
      16.6000     0.0595762
      16.7000     0.0562248
      16.8000     0.0530122
      16.9000     0.0499337
      17.0000     0.0470149
      17.1000     0.0442653
      17.2000     0.0416454
      17.3000     0.0391497
      17.4000     0.0368116
      17.5000     0.0345930
      17.6000     0.0324884
      17.7000     0.0305261
      17.8000     0.0287476
      17.9000     0.0270509
      18.0000     0.0254237
      18.1000     0.0239062
      18.2000     0.0224389
      18.3000     0.0210148
      18.4000     0.0196462
      18.5000     0.0183355
      18.6000     0.0170670
      18.7000     0.0158530
      18.8000     0.0147174
      18.9000     0.0136361
      19.0000     0.0126336
      19.1000     0.0116988
      19.2000     0.0108100
      19.3000    0.00999345
      19.4000    0.00923807
      19.5000    0.00852654
      19.6000    0.00789883
      19.7000    0.00730583
      19.8000    0.00674384
      19.9000    0.00623670
      20.0000    0.00575299
      20.1000    0.00530316
      20.2000    0.00489017
      20.3000    0.00449628
      20.4000    0.00413952
      20.5000    0.00380438
      20.6000    0.00348861
      20.7000    0.00320497
      20.8000    0.00293398
      20.9000    0.00268778
      21.0000    0.00245902
      21.1000    0.00224364
      21.2000    0.00205138
      21.3000    0.00186744
      21.4000    0.00170271
      21.5000    0.00154862
      21.6000    0.00140521
      21.7000    0.00127647
      21.8000    0.00115311
      21.9000    0.00104459
      22.0000   0.000940862
      22.1000   0.000847604
      22.2000   0.000760622
      22.3000   0.000679143
      22.4000   0.000597581
      22.5000   0.000516345
      22.6000   0.000414269
      22.7000   0.000337620
      22.8000   0.000378858
      22.9000   0.000437994
      23.0000   0.000517740
      23.1000   0.000550139
      23.2000   0.000539293
      23.3000   0.000506421
      23.4000   0.000462738
      23.5000   0.000423389
      23.6000   0.000385243
      23.7000   0.000351265
      23.8000   0.000317948
      23.9000   0.000289393
      24.0000   0.000261511
      24.1000   0.000237317
      24.2000   0.000214015
      24.3000   0.000193778
      24.4000   0.000174494
      24.5000   0.000157624
      24.6000   0.000141706
      24.7000   0.000127756
      24.8000   0.000114681
      24.9000   0.000103195
      25.0000   9.24779e-05
      25.1000   8.30792e-05
      25.2000   7.43208e-05
      25.3000   6.66640e-05
      25.4000   5.95190e-05
      25.5000   5.33194e-05
      25.6000   4.75058e-05
      25.7000   4.25112e-05
      25.8000   3.77874e-05
      25.9000   3.37851e-05
      26.0000   2.99530e-05
      26.1000   2.67611e-05
      26.2000   2.36562e-05
      26.3000   2.11260e-05
      26.4000   1.86157e-05
      26.5000   1.66200e-05
      26.6000   1.46360e-05
      26.7000   1.30284e-05
      26.8000   1.14739e-05
      26.9000   1.01761e-05
      27.0000   8.96332e-06
      27.1000   7.91511e-06
      27.2000   6.97306e-06
      27.3000   6.13961e-06
      27.4000   5.43980e-06
      27.5000   4.77998e-06
      27.6000   4.22644e-06
      27.7000   3.68316e-06
      27.8000   3.25911e-06
      27.9000   2.83757e-06
      28.0000   2.50076e-06
      28.1000   2.18196e-06
      28.2000   1.91051e-06
      28.3000   1.67100e-06
      28.4000   1.45290e-06
      28.5000   1.27416e-06
      28.6000   1.09961e-06
      28.7000   9.67251e-07
      28.8000   8.35698e-07
      28.9000   7.30796e-07
      29.0000   6.33889e-07
      29.1000   5.49241e-07
      29.2000   4.78349e-07
      29.3000   4.10478e-07
      29.4000   3.59001e-07
      29.5000   3.07845e-07
      29.6000   2.67870e-07
      29.7000   2.31000e-07
      29.8000   1.98647e-07
      29.9000   1.72272e-07
      30.0000   1.46355e-07
      30.1000   1.27632e-07
      30.2000   1.09027e-07
      30.3000   9.51331e-08
      30.4000   8.39546e-08
      30.5000   7.31240e-08
      30.6000   6.33885e-08
      30.7000   5.37152e-08
      30.8000   4.63071e-08
      30.9000   3.96079e-08
      31.0000   3.35972e-08
      31.1000   2.90845e-08
      31.2000   2.46010e-08
      31.3000   2.12521e-08
      31.4000   1.81612e-08
      31.5000   1.53927e-08
      31.6000   1.32791e-08
      31.7000   1.11794e-08
      31.8000   9.61663e-09
      31.9000   8.19542e-09
      32.0000   6.90584e-09
      32.1000   5.97864e-09
      32.2000   5.05753e-09
      32.3000   4.34157e-09
      32.4000   3.71809e-09
      32.5000   3.12050e-09
      32.6000   2.70244e-09
      32.7000   2.28709e-09
      32.8000   1.94219e-09
      32.9000   1.66557e-09
      33.0000   1.39076e-09
      33.1000   1.19759e-09
      33.2000   1.01643e-09
      33.3000   8.50597e-10
      33.4000   7.31936e-10
      33.5000   6.14040e-10
      33.6000   5.19627e-10
      33.7000   4.43104e-10
      33.8000   3.67063e-10
      33.9000   3.14616e-10
      34.0000   2.65694e-10
      34.1000   2.20002e-10
      34.2000   1.88827e-10
      34.3000   1.57839e-10
      34.4000   1.31878e-10
      34.5000   1.12314e-10
      34.6000   9.28688e-11
      34.7000   7.83613e-11
      34.8000   6.61826e-11
      34.9000   5.40773e-11
      35.0000   4.61222e-11
      35.1000   3.86367e-11
      35.2000   3.15011e-11
      35.3000   2.69190e-11
      35.4000   2.23649e-11
      35.5000   1.83405e-11
      35.6000   1.55818e-11
      35.7000   1.28399e-11
      35.8000   1.05897e-11
      35.9000   8.94623e-12
      36.0000   7.31279e-12
      36.1000   6.06400e-12
      36.2000   5.09563e-12
      36.3000   4.13321e-12
      36.4000   3.44425e-12
      36.5000   2.87996e-12
      36.6000   2.31918e-12
      36.7000   1.94052e-12
      36.8000   1.61541e-12
      36.9000   1.29233e-12
      37.0000   1.08453e-12
      37.1000   8.99365e-13
      37.2000   7.15342e-13
      37.3000   6.01248e-13
      37.4000   4.97026e-13
      37.5000   3.93459e-13
      37.6000   3.30645e-13
      37.7000   2.72698e-13
      37.8000   2.15116e-13
      37.9000   1.80370e-13
      38.0000   1.48539e-13
      38.1000   1.16908e-13
      38.2000   9.75787e-14
      38.3000   8.03063e-14
      38.4000   6.31428e-14
      38.5000   5.23337e-14
      38.6000   4.30847e-14
      38.7000   3.38942e-14
      38.8000   2.78234e-14
      38.9000   2.29361e-14
      39.0000   1.80797e-14
      39.1000   1.46606e-14
      39.2000   1.21117e-14
      39.3000   9.57884e-15
      39.4000   7.64485e-15
      39.5000   6.31831e-15
      39.6000   5.00033e-15
      39.7000   3.90741e-15
      39.8000   3.24130e-15
      39.9000   2.57945e-15
      40.0000   1.97404e-15
      40.1000   1.64507e-15
      40.2000   1.31820e-15
      40.3000   9.93483e-16
      40.4000   8.26047e-16
      40.5000   6.66987e-16
      40.6000   5.08948e-16
      40.7000   4.10032e-16
      40.8000   3.33776e-16
      40.9000   2.58020e-16
      41.0000   2.00999e-16
      41.1000   1.65031e-16
      41.2000   1.29300e-16
      41.3000   9.72557e-17
      41.4000   8.05667e-17
      41.5000   6.39847e-17
      41.6000   4.75120e-17
      41.7000   3.88037e-17
      41.8000   3.12307e-17
      41.9000   2.37070e-17
      42.0000   1.84199e-17
      42.1000   1.50182e-17
      42.2000   1.16386e-17
      42.3000   8.60939e-18
      42.4000   7.10746e-18
      42.5000   5.61524e-18
      42.6000   4.13288e-18
      42.7000   3.30774e-18
      42.8000   2.66040e-18
      42.9000   2.01724e-18
      43.0000   1.51273e-18
      43.1000   1.23677e-18
      43.2000   9.62629e-19
      43.3000   6.90294e-19
      43.4000   6.90965e-19
      43.5000   7.90562e-19
      43.6000   9.20208e-19
      43.7000   9.66972e-19
      43.8000   8.44173e-19
      43.9000   6.55346e-19
      44.0000   4.67002e-19
      44.1000   3.84354e-19
      44.2000   3.06456e-19
      44.3000   2.28765e-19
      44.4000   1.71054e-19
      44.5000   1.39529e-19
      44.6000   1.08088e-19
      44.7000   7.67280e-20
      44.8000   6.18835e-20
      44.9000   4.94043e-20
      45.0000   3.69571e-20
      45.1000   2.67432e-20
      45.2000   2.18883e-20
      45.3000   1.70465e-20
      45.4000   1.22166e-20
      45.5000   9.41370e-21
      45.6000   7.56809e-21
      45.7000   5.72733e-21
      45.8000   3.93406e-21
      45.9000   3.24502e-21
      46.0000   2.55772e-21
      46.1000   1.87219e-21
      46.2000   1.34688e-21
      46.3000   1.09630e-21
      46.4000   8.46398e-22
      46.5000   5.97115e-22
      46.6000   4.54139e-22
      46.7000   3.64379e-22
      46.8000   2.74852e-22
      46.9000   1.85550e-22
      47.0000   1.50314e-22
      47.1000   1.18826e-22
      47.2000   8.74191e-23
      47.3000   5.96954e-23
      47.4000   4.88501e-23
      47.5000   3.80318e-23
      47.6000   2.72414e-23
      47.7000   1.92239e-23
      47.8000   1.55815e-23
      47.9000   1.19479e-23
      48.0000   8.32398e-24
      48.1000   6.07579e-24
      48.2000   4.88004e-24
      48.3000   3.68726e-24
      48.4000   2.49754e-24
      48.5000   1.88431e-24
      48.6000   1.50091e-24
      48.7000   1.11848e-24
      48.8000   7.36969e-25
      48.9000   5.73292e-25
      49.0000   4.53365e-25
      49.1000   3.33742e-25
      49.2000   2.14414e-25
      49.3000   1.74081e-25
      49.4000   1.40660e-25
      49.5000   1.07322e-25
      49.6000   7.40667e-26
      49.7000   6.67010e-26
      49.8000   5.99909e-26
      49.9000   5.32978e-26
      50.0000   4.66216e-26
      50.1000   4.08921e-26
      50.2000   3.30076e-26
      50.3000   2.66894e-26
      50.4000   2.30886e-26
      50.5000   2.08082e-26
      50.6000   1.85797e-26
      50.7000   1.43610e-26
      50.8000   1.19681e-26
      50.9000   6.55369e-27
      51.0000   4.39110e-27
      51.1000   3.55033e-27
      51.2000   3.55747e-27
      51.3000   3.18632e-27
      51.4000   1.96503e-27
      51.5000   1.18501e-27
      51.6000   8.35766e-28
      51.7000   5.63621e-28
      51.8000   4.26307e-28
      51.9000   3.54759e-28
      52.0000   2.81097e-28
      52.1000   1.94305e-28
      52.2000   1.48657e-28
      52.3000   9.79204e-29
      52.4000   6.39002e-29
      52.5000   5.04975e-29
      52.6000   4.48927e-29
      52.7000   3.83007e-29
      52.8000   2.60352e-29
      52.9000   1.48924e-29
      53.0000   9.95920e-30
      53.1000   6.56718e-30
      53.2000   4.40661e-30
      53.3000   2.92468e-30
      53.4000   1.91649e-30
      53.5000   1.09398e-30
      53.6000   5.52959e-31
      53.7000   3.23045e-31
      53.8000   2.41280e-31
      53.9000   1.65708e-31
      54.0000   1.11422e-31
      54.1000   7.25043e-32
      54.2000   5.13805e-32
      54.3000   3.09495e-32
      54.4000   1.31083e-32
      54.5000   7.15788e-33
      54.6000   5.12754e-33
      54.7000   3.89112e-33
      54.8000   2.73394e-33
      54.9000   1.85369e-33
      55.0000   1.34905e-33
      55.1000   9.75639e-34
      55.2000   7.00297e-34
      55.3000   6.47194e-34
      55.4000   5.76982e-34
      55.5000   4.14546e-34
      55.6000   2.65787e-34
      55.7000   1.91271e-34
      55.8000   1.30614e-34
      55.9000   9.15776e-35
      56.0000   6.69976e-35
      56.1000   4.63028e-35
      56.2000   4.29052e-35
      56.3000   3.49909e-35
      56.4000   2.53440e-35
      56.5000   1.74685e-35
      56.6000   1.20363e-35
      56.7000   8.77012e-36
      56.8000   6.43449e-36
      56.9000   4.55956e-36
      57.0000   3.04478e-36
      57.1000   2.03347e-36
      57.2000   1.40054e-36
      57.3000   9.91416e-37
      57.4000   7.08070e-37
      57.5000   5.02403e-37
      57.6000   3.26714e-37
      57.7000   2.27094e-37
      57.8000   2.05816e-37
      57.9000   1.54115e-37
      58.0000   1.09807e-37
      58.1000   7.24267e-38
      58.2000   4.16925e-38
      58.3000   2.74269e-38
      58.4000   2.07500e-38
      58.5000   1.65456e-38
      58.6000   1.12935e-38
      58.7000   7.62755e-39
      58.8000   5.12035e-39
      58.9000   3.44942e-39
      59.0000   2.50644e-39
      59.1000   1.85998e-39
      59.2000   1.37586e-39
      59.3000   1.01426e-39
      59.4000   7.44947e-40
      59.5000   5.24715e-40
      59.6000   3.47107e-40
      59.7000   2.65818e-40
      59.8000   1.84768e-40
      59.9000   1.09827e-40
      60.0000   8.08829e-41
      60.1000   5.96729e-41
      60.2000   4.38831e-41
      60.3000   3.21598e-41
      60.4000   2.34984e-41
      60.5000   1.73200e-41
      60.6000   1.28723e-41
      60.7000   1.01342e-41
      60.8000   8.36715e-42
      60.9000   6.89159e-42
      61.0000   5.69628e-42
      61.1000   4.71957e-42
      61.2000   3.92644e-42
      61.3000   3.25241e-42
      61.4000   2.69330e-42
      61.5000   2.23927e-42
      61.6000   1.78245e-42
      61.7000   1.40270e-42
      61.8000   1.10282e-42
      61.9000   8.71608e-43
      62.0000   6.68419e-43
      62.1000   4.82047e-43
      62.2000   3.39114e-43
      62.3000   2.46629e-43
      62.4000   2.04590e-43
      62.5000   1.75162e-43
      62.6000   1.49939e-43
      62.7000   1.30321e-43
      62.8000   1.14906e-43
      62.9000   8.26766e-44
      63.0000   5.74532e-44
      63.1000   4.20390e-44
      63.2000   3.50325e-44
      63.3000   2.52234e-44
      63.4000   2.24208e-44
      63.5000   1.54143e-44
      63.6000   1.26117e-44
      63.7000   9.80909e-45
      63.8000   9.80909e-45
      63.9000   7.00649e-45
      64.0000   2.80260e-45
      64.1000   2.80260e-45
      64.2000   2.80260e-45
      64.3000   2.80260e-45
      64.4000       0.00000
      64.5000       0.00000
      64.6000       0.00000
      64.7000       0.00000
      64.8000       0.00000
      64.9000       0.00000
      65.0000       0.00000
      65.1000       0.00000
      65.2000       0.00000
      65.3000       0.00000
      65.4000       0.00000
      65.5000       0.00000
      65.6000       0.00000
      65.7000       0.00000
      65.8000       0.00000
      65.9000       0.00000
      66.0000       0.00000
      66.1000       0.00000
      66.2000       0.00000
      66.3000       0.00000
      66.4000       0.00000
      66.5000       0.00000
      66.6000       0.00000
      66.7000       0.00000
      66.8000       0.00000
      66.9000       0.00000
      67.0000       0.00000
      67.1000       0.00000
      67.2000       0.00000
      67.3000       0.00000
      67.4000       0.00000
      67.5000       0.00000
      67.6000       0.00000
      67.7000       0.00000
      67.8000       0.00000
      67.9000       0.00000
      68.0000       0.00000
      68.1000       0.00000
      68.2000       0.00000
      68.3000       0.00000
      68.4000       0.00000
      68.5000       0.00000
      68.6000       0.00000
      68.7000       0.00000
      68.8000       0.00000
      68.9000       0.00000
      69.0000       0.00000
      69.1000       0.00000
      69.2000       0.00000
      69.3000       0.00000
      69.4000       0.00000
      69.5000       0.00000
      69.6000       0.00000
      69.7000       0.00000
      69.8000       0.00000
      69.9000       0.00000
      70.0000       0.00000
      70.1000       0.00000
      70.2000       0.00000
      70.3000       0.00000
      70.4000       0.00000
      70.5000       0.00000
      70.6000       0.00000
      70.7000       0.00000
      70.8000       0.00000
      70.9000       0.00000
      71.0000       0.00000
      71.1000       0.00000
      71.2000       0.00000
      71.3000       0.00000
      71.4000       0.00000
      71.5000       0.00000
      71.6000       0.00000
      71.7000       0.00000
      71.8000       0.00000
      71.9000       0.00000
      72.0000       0.00000
      72.1000       0.00000
      72.2000       0.00000
      72.3000       0.00000
      72.4000       0.00000
      72.5000       0.00000
      72.6000       0.00000
      72.7000       0.00000
      72.8000       0.00000
      72.9000       0.00000
      73.0000       0.00000
      73.1000       0.00000
      73.2000       0.00000
      73.3000       0.00000
      73.4000       0.00000
      73.5000       0.00000
      73.6000       0.00000
      73.7000       0.00000
      73.8000       0.00000
      73.9000       0.00000
      74.0000       0.00000
      74.1000       0.00000
      74.2000       0.00000
      74.3000       0.00000
      74.4000       0.00000
      74.5000       0.00000
      74.6000       0.00000
      74.7000       0.00000
      74.8000       0.00000
      74.9000       0.00000
      75.0000       0.00000
      75.1000       0.00000
      75.2000       0.00000
      75.3000       0.00000
      75.4000       0.00000
      75.5000       0.00000
      75.6000       0.00000
      75.7000       0.00000
      75.8000       0.00000
      75.9000       0.00000
      76.0000       0.00000
      76.1000       0.00000
      76.2000       0.00000
      76.3000       0.00000
      76.4000       0.00000
      76.5000       0.00000
      76.6000       0.00000
      76.7000       0.00000
      76.8000       0.00000
      76.9000       0.00000
      77.0000       0.00000
      77.1000       0.00000
      77.2000       0.00000
      77.3000       0.00000
      77.4000       0.00000
      77.5000       0.00000
      77.6000       0.00000
      77.7000       0.00000
      77.8000       0.00000
      77.9000       0.00000
      78.0000       0.00000
      78.1000       0.00000
      78.2000       0.00000
      78.3000       0.00000
      78.4000       0.00000
      78.5000       0.00000
      78.6000       0.00000
      78.7000       0.00000
      78.8000       0.00000
      78.9000       0.00000
      79.0000       0.00000
      79.1000       0.00000
      79.2000       0.00000
      79.3000       0.00000
      79.4000       0.00000
      79.5000       0.00000
      79.6000       0.00000
      79.7000       0.00000
      79.8000       0.00000
      79.9000       0.00000
      80.0000       0.00000
      80.1000       0.00000
      80.2000       0.00000
      80.3000       0.00000
      80.4000       0.00000
      80.5000       0.00000
      80.6000       0.00000
      80.7000       0.00000
      80.8000       0.00000
      80.9000       0.00000
      81.0000       0.00000
      81.1000       0.00000
      81.2000       0.00000
      81.3000       0.00000
      81.4000       0.00000
      81.5000       0.00000
      81.6000       0.00000
      81.7000       0.00000
      81.8000       0.00000
      81.9000       0.00000
      82.0000       0.00000
      82.1000       0.00000
      82.2000       0.00000
      82.3000       0.00000
      82.4000       0.00000
      82.5000       0.00000
      82.6000       0.00000
      82.7000       0.00000
      82.8000       0.00000
      82.9000       0.00000
      83.0000       0.00000
      83.1000       0.00000
      83.2000       0.00000
      83.3000       0.00000
      83.4000       0.00000
      83.5000       0.00000
      83.6000       0.00000
      83.7000       0.00000
      83.8000       0.00000
      83.9000       0.00000
      84.0000       0.00000
      84.1000       0.00000
      84.2000       0.00000
      84.3000       0.00000
      84.4000       0.00000
      84.5000       0.00000
      84.6000       0.00000
      84.7000       0.00000
      84.8000       0.00000
      84.9000       0.00000
      85.0000       0.00000
      85.1000       0.00000
      85.2000       0.00000
      85.3000       0.00000
      85.4000       0.00000
      85.5000       0.00000
      85.6000       0.00000
      85.7000       0.00000
      85.8000       0.00000
      85.9000       0.00000
      86.0000       0.00000
      86.1000       0.00000
      86.2000       0.00000
      86.3000       0.00000
      86.4000       0.00000
      86.5000       0.00000
      86.6000       0.00000
      86.7000       0.00000
      86.8000       0.00000
      86.9000       0.00000
      87.0000       0.00000
      87.1000       0.00000
      87.2000       0.00000
      87.3000       0.00000
      87.4000       0.00000
      87.5000       0.00000
      87.6000       0.00000
      87.7000       0.00000
      87.8000       0.00000
      87.9000       0.00000
      88.0000       0.00000
      88.1000       0.00000
      88.2000       0.00000
      88.3000       0.00000
      88.4000       0.00000
      88.5000       0.00000
      88.6000       0.00000
      88.7000       0.00000
      88.8000       0.00000
      88.9000       0.00000
      89.0000       0.00000
      89.1000       0.00000
      89.2000       0.00000
      89.3000       0.00000
      89.4000       0.00000
      89.5000       0.00000
      89.6000       0.00000
      89.7000       0.00000
      89.8000       0.00000
      89.9000       0.00000
      90.0000       0.00000
      90.1000       0.00000
      90.2000       0.00000
      90.3000       0.00000
      90.4000       0.00000
      90.5000       0.00000
      90.6000       0.00000
      90.7000       0.00000
      90.8000       0.00000
      90.9000       0.00000
      91.0000       0.00000
      91.1000       0.00000
      91.2000       0.00000
      91.3000       0.00000
      91.4000       0.00000
      91.5000       0.00000
      91.6000       0.00000
      91.7000       0.00000
      91.8000       0.00000
      91.9000       0.00000
      92.0000       0.00000
      92.1000       0.00000
      92.2000       0.00000
      92.3000       0.00000
      92.4000       0.00000
      92.5000       0.00000
      92.6000       0.00000
      92.7000       0.00000
      92.8000       0.00000
      92.9000       0.00000
      93.0000       0.00000
      93.1000       0.00000
      93.2000       0.00000
      93.3000       0.00000
      93.4000       0.00000
      93.5000       0.00000
      93.6000       0.00000
      93.7000       0.00000
      93.8000       0.00000
      93.9000       0.00000
      94.0000       0.00000
      94.1000       0.00000
      94.2000       0.00000
      94.3000       0.00000
      94.4000       0.00000
      94.5000       0.00000
      94.6000       0.00000
      94.7000       0.00000
      94.8000       0.00000
      94.9000       0.00000
      95.0000       0.00000
      95.1000       0.00000
      95.2000       0.00000
      95.3000       0.00000
      95.4000       0.00000
      95.5000       0.00000
      95.6000       0.00000
      95.7000       0.00000
      95.8000       0.00000
      95.9000       0.00000
      96.0000       0.00000
      96.1000       0.00000
      96.2000       0.00000
      96.3000       0.00000
      96.4000       0.00000
      96.5000       0.00000
      96.6000       0.00000
      96.7000       0.00000
      96.8000       0.00000
      96.9000       0.00000
      97.0000       0.00000
      97.1000       0.00000
      97.2000       0.00000
      97.3000       0.00000
      97.4000       0.00000
      97.5000       0.00000
      97.6000       0.00000
      97.7000       0.00000
      97.8000       0.00000
      97.9000       0.00000
      98.0000       0.00000
      98.1000       0.00000
      98.2000       0.00000
      98.3000       0.00000
      98.4000       0.00000
      98.5000       0.00000
      98.6000       0.00000
      98.7000       0.00000
      98.8000       0.00000
      98.9000       0.00000
      99.0000       0.00000
      99.1000       0.00000
      99.2000       0.00000
      99.3000       0.00000
      99.4000       0.00000
      99.5000       0.00000
      99.6000       0.00000
      99.7000       0.00000
      99.8000       0.00000
      99.9000       0.00000
      100.000       0.00000
      100.100       0.00000
      100.200       0.00000
      100.300       0.00000
      100.400       0.00000
      100.500       0.00000
      100.600       0.00000
      100.700       0.00000
      100.800       0.00000
      100.900       0.00000
      101.000       0.00000
      101.100       0.00000
      101.200       0.00000
      101.300       0.00000
      101.400       0.00000
      101.500       0.00000
      101.600       0.00000
      101.700       0.00000
      101.800       0.00000
      101.900       0.00000
      102.000       0.00000
      102.100       0.00000
      102.200       0.00000
      102.300       0.00000
      102.400       0.00000
      102.500       0.00000
      102.600       0.00000
      102.700       0.00000
      102.800       0.00000
      102.900       0.00000
      103.000       0.00000
      103.100       0.00000
      103.200       0.00000
      103.300       0.00000
      103.400       0.00000
      103.500       0.00000
      103.600       0.00000
      103.700       0.00000
      103.800       0.00000
      103.900       0.00000
      104.000       0.00000
      104.100       0.00000
      104.200       0.00000
      104.300       0.00000
      104.400       0.00000
      104.500       0.00000
      104.600       0.00000
      104.700       0.00000
      104.800       0.00000
      104.900       0.00000
      105.000       0.00000
      105.100       0.00000
      105.200       0.00000
      105.300       0.00000
      105.400       0.00000
      105.500       0.00000
      105.600       0.00000
      105.700       0.00000
      105.800       0.00000
      105.900       0.00000
      106.000       0.00000
      106.100       0.00000
      106.200       0.00000
      106.300       0.00000
      106.400       0.00000
      106.500       0.00000
      106.600       0.00000
      106.700       0.00000
      106.800       0.00000
      106.900       0.00000
      107.000       0.00000
      107.100       0.00000
      107.200       0.00000
      107.300       0.00000
      107.400       0.00000
      107.500       0.00000
      107.600       0.00000
      107.700       0.00000
      107.800       0.00000
      107.900       0.00000
      108.000       0.00000
      108.100       0.00000
      108.200       0.00000
      108.300       0.00000
      108.400       0.00000
      108.500       0.00000
      108.600       0.00000
      108.700       0.00000
      108.800       0.00000
      108.900       0.00000
      109.000       0.00000
      109.100       0.00000
      109.200       0.00000
      109.300       0.00000
      109.400       0.00000
      109.500       0.00000
      109.600       0.00000
      109.700       0.00000
      109.800       0.00000
      109.900       0.00000
      110.000       0.00000
      110.100       0.00000
      110.200       0.00000
      110.300       0.00000
      110.400       0.00000
      110.500       0.00000
      110.600   1.09427e-41
      110.700   2.82125e-29
      110.800   7.76981e-20
      110.900   2.77208e-15
      111.000   9.62099e-13
      111.100   3.46426e-11
      111.200   1.11790e-10
      111.300   2.12550e-10
      111.400   3.35130e-10
      111.500   3.73029e-10
      111.600   4.15830e-10
      111.700   5.15864e-10
      111.800   6.49238e-10
      111.900   7.18121e-10
      112.000   8.48011e-10
      112.100   1.05458e-09
      112.200   1.23613e-09
      112.300   1.35789e-09
      112.400   1.47508e-09
      112.500   1.63669e-09
      112.600   1.86004e-09
      112.700   2.08702e-09
      112.800   2.19997e-09
      112.900   2.41610e-09
      113.000   2.65022e-09
      113.100   2.83274e-09
      113.200   2.98297e-09
      113.300   3.00393e-09
      113.400   3.25775e-09
      113.500   3.52202e-09
      113.600   3.56095e-09
      113.700   3.81151e-09
      113.800   3.99419e-09
      113.900   4.15423e-09
      114.000   4.25256e-09
      114.100   4.31604e-09
      114.200   4.71992e-09
      114.300   4.98418e-09
      114.400   4.92952e-09
      114.500   4.77234e-09
      114.600   4.77021e-09
      114.700   4.79938e-09
      114.800   4.87556e-09
      114.900   5.06131e-09
      115.000   5.24039e-09
      115.100   5.35314e-09
      115.200   5.38308e-09
      115.300   5.41814e-09
      115.400   5.44852e-09
      115.500   5.48138e-09
      115.600   5.51228e-09
      115.700   5.54011e-09
      115.800   5.57223e-09
      115.900   5.60221e-09
      116.000   5.62950e-09
      116.100   5.64562e-09
      116.200   5.65922e-09
      116.300   5.67164e-09
      116.400   5.67431e-09
      116.500   5.63478e-09
      116.600   5.59418e-09
      116.700   5.55488e-09
      116.800   5.51460e-09
      116.900   5.46950e-09
      117.000   5.43041e-09
      117.100   5.40784e-09
      117.200   5.39676e-09
      117.300   5.37449e-09
      117.400   5.35153e-09
      117.500   5.31944e-09
      117.600   5.26188e-09
      117.700   5.19715e-09
      117.800   5.12985e-09
      117.900   5.06171e-09
      118.000   4.99132e-09
      118.100   4.91894e-09
      118.200   4.84986e-09
      118.300   4.78268e-09
      118.400   4.70521e-09
      118.500   4.62981e-09
      118.600   4.56054e-09
      118.700   4.49049e-09
      118.800   4.41907e-09
      118.900   4.35033e-09
      119.000   4.27690e-09
      119.100   4.19819e-09
      119.200   4.13903e-09
      119.300   4.10704e-09
      119.400   4.08352e-09
      119.500   4.05427e-09
      119.600   4.01149e-09
      119.700   3.96184e-09
      119.800   3.90438e-09
      119.900   3.83661e-09
      120.000   3.77314e-09
      120.100   3.71318e-09
      120.200   3.66721e-09
      120.300   3.62931e-09
      120.400   3.59165e-09
      120.500   3.54372e-09
      120.600   3.48827e-09
      120.700   3.43088e-09
      120.800   3.37584e-09
      120.900   3.33498e-09
      121.000   3.31555e-09
      121.100   3.29441e-09
      121.200   3.26883e-09
      121.300   3.23625e-09
      121.400   3.19828e-09
      121.500   3.15602e-09
      121.600   3.08483e-09
      121.700   3.01781e-09
      121.800   2.94620e-09
      121.900   2.87504e-09
      122.000   2.80130e-09
      122.100   2.73161e-09
      122.200   2.66360e-09
      122.300   2.60970e-09
      122.400   2.57056e-09
      122.500   2.53488e-09
      122.600   2.49790e-09
      122.700   2.46128e-09
      122.800   2.42209e-09
      122.900   2.38517e-09
      123.000   2.36419e-09
      123.100   2.37035e-09
      123.200   2.38259e-09
      123.300   2.42241e-09
      123.400   2.47351e-09
      123.500   2.54072e-09
      123.600   2.59746e-09
      123.700   2.61803e-09
      123.800   2.61733e-09
      123.900   2.62405e-09
      124.000   2.64269e-09
      124.100   2.70154e-09
      124.200   2.85060e-09
      124.300   3.08154e-09
      124.400   3.30169e-09
      124.500   3.35414e-09
      124.600   3.32663e-09
      124.700   3.27912e-09
      124.800   3.23313e-09
      124.900   3.18770e-09
      125.000   3.14274e-09
      125.100   3.09732e-09
      125.200   3.05241e-09
      125.300   3.00808e-09
      125.400   2.96438e-09
      125.500   2.92129e-09
      125.600   2.86649e-09
      125.700   2.80982e-09
      125.800   2.76143e-09
      125.900   2.74306e-09
      126.000   2.72687e-09
      126.100   2.71076e-09
      126.200   2.69475e-09
      126.300   2.67883e-09
      126.400   2.66299e-09
      126.500   2.64723e-09
      126.600   2.63156e-09
      126.700   2.61599e-09
      126.800   2.60051e-09
      126.900   2.58510e-09
      127.000   2.56970e-09
      127.100   2.54895e-09
      127.200   2.52214e-09
      127.300   2.49354e-09
      127.400   2.46524e-09
      127.500   2.43724e-09
      127.600   2.40955e-09
      127.700   2.38215e-09
      127.800   2.35503e-09
      127.900   2.32820e-09
      128.000   2.30166e-09
      128.100   2.27539e-09
      128.200   2.24940e-09
      128.300   2.22369e-09
      128.400   2.19826e-09
      128.500   2.17309e-09
      128.600   2.14819e-09
      128.700   2.12357e-09
      128.800   2.09920e-09
      128.900   2.07509e-09
      129.000   2.05126e-09
      129.100   2.02765e-09
      129.200   2.00417e-09
      129.300   1.98094e-09
      129.400   1.95798e-09
      129.500   1.93526e-09
      129.600   1.91281e-09
      129.700   1.89061e-09
      129.800   1.86865e-09
      129.900   1.84695e-09
      130.000   1.82549e-09
      130.100   1.80428e-09
      130.200   1.78331e-09
      130.300   1.76258e-09
      130.400   1.74209e-09
      130.500   1.72182e-09
      130.600   1.70171e-09
      130.700   1.68180e-09
      130.800   1.66212e-09
      130.900   1.64267e-09
      131.000   1.62344e-09
      131.100   1.60443e-09
      131.200   1.58562e-09
      131.300   1.56698e-09
      131.400   1.54856e-09
      131.500   1.53034e-09
      131.600   1.51233e-09
      131.700   1.49452e-09
      131.800   1.47690e-09
      131.900   1.45947e-09
      132.000   1.44224e-09
      132.100   1.42519e-09
      132.200   1.40834e-09
      132.300   1.39167e-09
      132.400   1.37519e-09
      132.500   1.35890e-09
      132.600   1.34279e-09
      132.700   1.32593e-09
      132.800   1.30895e-09
      132.900   1.29214e-09
      133.000   1.27553e-09
      133.100   1.25912e-09
      133.200   1.24291e-09
      133.300   1.22690e-09
      133.400   1.21107e-09
      133.500   1.19544e-09
      133.600   1.18000e-09
      133.700   1.16476e-09
      133.800   1.14971e-09
      133.900   1.13486e-09
      134.000   1.12020e-09
      134.100   1.10572e-09
      134.200   1.09144e-09
      134.300   1.07732e-09
      134.400   1.06339e-09
      134.500   1.04964e-09
      134.600   1.03606e-09
      134.700   1.02265e-09
      134.800   1.00941e-09
      134.900   9.96351e-10
      135.000   9.83452e-10
      135.100   9.70725e-10
      135.200   9.58162e-10
      135.300   9.45757e-10
      135.400   9.33505e-10
      135.500   9.21378e-10
      135.600   9.09382e-10
      135.700   8.97534e-10
      135.800   8.85831e-10
      135.900   8.74277e-10
      136.000   8.62864e-10
      136.100   8.51590e-10
      136.200   8.40472e-10
      136.300   8.29486e-10
      136.400   8.18641e-10
      136.500   8.07931e-10
      136.600   7.97349e-10
      136.700   7.86900e-10
      136.800   7.76582e-10
      136.900   7.66395e-10
      137.000   7.56341e-10
      137.100   7.46428e-10
      137.200   7.36644e-10
      137.300   7.26992e-10
      137.400   7.17463e-10
      137.500   7.08050e-10
      137.600   6.98753e-10
      137.700   6.89561e-10
      137.800   6.80480e-10
      137.900   6.71511e-10
      138.000   6.62659e-10
      138.100   6.53919e-10
      138.200   6.45304e-10
      138.300   6.36798e-10
      138.400   6.28404e-10
      138.500   6.20117e-10
      138.600   6.11936e-10
      138.700   6.03861e-10
      138.800   5.95890e-10
      138.900   5.88021e-10
      139.000   5.80254e-10
      139.100   5.72594e-10
      139.200   5.65073e-10
      139.300   5.57687e-10
      139.400   5.50407e-10
      139.500   5.43218e-10
      139.600   5.36118e-10
      139.700   5.29108e-10
      139.800   5.22187e-10
      139.900   5.15351e-10
      140.000   5.08606e-10
      140.100   5.01945e-10
      140.200   4.95368e-10
      140.300   4.88874e-10
      140.400   4.82460e-10
      140.500   4.76124e-10
      140.600   4.69866e-10
      140.700   4.63686e-10
      140.800   4.57592e-10
      140.900   4.51575e-10
      141.000   4.45630e-10
      141.100   4.39760e-10
      141.200   4.33963e-10
      141.300   4.28237e-10
      141.400   4.22600e-10
      141.500   4.17118e-10
      141.600   4.11764e-10
      141.700   4.06476e-10
      141.800   4.01254e-10
      141.900   3.96095e-10
      142.000   3.90998e-10
      142.100   3.86117e-10
      142.200   3.81734e-10
      142.300   3.77775e-10
      142.400   3.73860e-10
      142.500   3.69979e-10
      142.600   3.66134e-10
      142.700   3.62325e-10
      142.800   3.58553e-10
      142.900   3.54817e-10
      143.000   3.51115e-10
      143.100   3.47451e-10
      143.200   3.43825e-10
      143.300   3.40231e-10
      143.400   3.36674e-10
      143.500   3.33151e-10
      143.600   3.29660e-10
      143.700   3.26231e-10
      143.800   3.23197e-10
      143.900   3.20255e-10
      144.000   3.17343e-10
      144.100   3.14455e-10
      144.200   3.11590e-10
      144.300   3.08748e-10
      144.400   3.05963e-10
      144.500   3.03656e-10
      144.600   3.01508e-10
      144.700   2.99387e-10
      144.800   2.97274e-10
      144.900   2.95171e-10
      145.000   2.93079e-10
      145.100   2.90996e-10
      145.200   2.88923e-10
      145.300   2.86861e-10
      145.400   2.84808e-10
      145.500   2.82763e-10
      145.600   2.80728e-10
      145.700   2.78701e-10
      145.800   2.76685e-10
      145.900   2.74680e-10
      146.000   2.72681e-10
      146.100   2.70662e-10
      146.200   2.68634e-10
      146.300   2.66615e-10
      146.400   2.64606e-10
      146.500   2.62609e-10
      146.600   2.60622e-10
      146.700   2.58646e-10
      146.800   2.56663e-10
      146.900   2.54670e-10
      147.000   2.52687e-10
      147.100   2.50715e-10
      147.200   2.48756e-10
      147.300   2.46809e-10
      147.400   2.44873e-10
      147.500   2.42949e-10
      147.600   2.41035e-10
      147.700   2.39134e-10
      147.800   2.37246e-10
      147.900   2.35368e-10
      148.000   2.33502e-10
      148.100   2.31648e-10
      148.200   2.29806e-10
      148.300   2.27976e-10
      148.400   2.26500e-10
      148.500   2.25298e-10
      148.600   2.24192e-10
      148.700   2.23088e-10
      148.800   2.21987e-10
      148.900   2.20890e-10
      149.000   2.19796e-10
      149.100   2.18704e-10
      149.200   2.17615e-10
      149.300   2.16527e-10
      149.400   2.15443e-10
      149.500   2.14362e-10
      149.600   2.13283e-10
      149.700   2.12206e-10
      149.800   2.11132e-10
      149.900   2.10062e-10
      150.000   2.08994e-10
      150.100   2.07930e-10
      150.200   2.06866e-10
      150.300   2.05806e-10
      150.400   2.04748e-10
      150.500   2.03694e-10
      150.600   2.02641e-10
      150.700   2.01592e-10
      150.800   2.00544e-10
      150.900   1.99499e-10
      151.000   1.98456e-10
      151.100   1.97416e-10
      151.200   1.96379e-10
      151.300   1.95344e-10
      151.400   1.94312e-10
      151.500   1.93283e-10
      151.600   1.92259e-10
      151.700   1.91240e-10
      151.800   1.90224e-10
      151.900   1.89211e-10
      152.000   1.88271e-10
      152.100   1.88067e-10
      152.200   1.87955e-10
      152.300   1.87838e-10
      152.400   1.87719e-10
      152.500   1.87598e-10
      152.600   1.87476e-10
      152.700   1.86615e-10
      152.800   1.85490e-10
      152.900   1.84368e-10
      153.000   1.83250e-10
      153.100   1.82138e-10
      153.200   1.81029e-10
      153.300   1.80161e-10
      153.400   1.79523e-10
      153.500   1.78909e-10
      153.600   1.78298e-10
      153.700   1.77687e-10
      153.800   1.77076e-10
      153.900   1.76465e-10
      154.000   1.75877e-10
      154.100   1.75335e-10
      154.200   1.74808e-10
      154.300   1.74281e-10
      154.400   1.73754e-10
      154.500   1.73227e-10
      154.600   1.72699e-10
      154.700   1.72173e-10
      154.800   1.71646e-10
      154.900   1.71118e-10
      155.000   1.70591e-10
      155.100   1.70063e-10
      155.200   1.69534e-10
      155.300   1.69006e-10
      155.400   1.68477e-10
      155.500   1.67948e-10
      155.600   1.67418e-10
      155.700   1.66887e-10
      155.800   1.66357e-10
      155.900   1.65825e-10
      156.000   1.65294e-10
      156.100   1.64761e-10
      156.200   1.64228e-10
      156.300   1.63695e-10
      156.400   1.63160e-10
      156.500   1.62619e-10
      156.600   1.62041e-10
      156.700   1.61461e-10
      156.800   1.60881e-10
      156.900   1.60300e-10
      157.000   1.59722e-10
      157.100   1.59089e-10
      157.200   1.58091e-10
      157.300   1.56706e-10
      157.400   1.55332e-10
      157.500   1.53965e-10
      157.600   1.52610e-10
      157.700   1.51263e-10
      157.800   1.49927e-10
      157.900   1.49417e-10
      158.000   1.48981e-10
      158.100   1.48546e-10
      158.200   1.48109e-10
      158.300   1.47671e-10
      158.400   1.47235e-10
      158.500   1.46797e-10
      158.600   1.46359e-10
      158.700   1.45920e-10
      158.800   1.45482e-10
      158.900   1.45043e-10
      159.000   1.44604e-10
      159.100   1.44139e-10
      159.200   1.43384e-10
      159.300   1.42153e-10
      159.400   1.40931e-10
      159.500   1.39718e-10
      159.600   1.38514e-10
      159.700   1.37320e-10
      159.800   1.36133e-10
      159.900   1.35535e-10
      160.000   1.35335e-10
      160.100   1.35147e-10
      160.200   1.34957e-10
      160.300   1.34767e-10
      160.400   1.34576e-10
      160.500   1.34318e-10
      160.600   1.33677e-10
      160.700   1.32756e-10
      160.800   1.31840e-10
      160.900   1.30929e-10
      161.000   1.30022e-10
      161.100   1.29121e-10
      161.200   1.28224e-10
      161.300   1.27332e-10
      161.400   1.26444e-10
      161.500   1.25562e-10
      161.600   1.24683e-10
      161.700   1.23808e-10
      161.800   1.22937e-10
      161.900   1.22088e-10
      162.000   1.21386e-10
      162.100   1.20772e-10
      162.200   1.20160e-10
      162.300   1.19549e-10
      162.400   1.18941e-10
      162.500   1.18333e-10
      162.600   1.17727e-10
      162.700   1.17123e-10
      162.800   1.16520e-10
      162.900   1.15919e-10
      163.000   1.15319e-10
      163.100   1.14722e-10
      163.200   1.14125e-10
      163.300   1.13530e-10
      163.400   1.12937e-10
      163.500   1.12345e-10
      163.600   1.11755e-10
      163.700   1.11167e-10
      163.800   1.10581e-10
      163.900   1.09997e-10
      164.000   1.09414e-10
      164.100   1.08705e-10
      164.200   1.07650e-10
      164.300   1.06611e-10
      164.400   1.05580e-10
      164.500   1.04559e-10
      164.600   1.03546e-10
      164.700   1.02542e-10
      164.800   1.01666e-10
      164.900   1.01060e-10
      165.000   1.00562e-10
      165.100   1.00065e-10
      165.200   9.95700e-11
      165.300   9.90766e-11
      165.400   9.85855e-11
      165.500   9.80956e-11
      165.600   9.72728e-11
      165.700   9.63111e-11
      165.800   9.53469e-11
      165.900   9.43915e-11
      166.000   9.34457e-11
      166.100   9.25083e-11
      166.200   9.15797e-11
      166.300   9.06597e-11
      166.400   8.97479e-11
      166.500   8.88441e-11
      166.600   8.79488e-11
      166.700   8.70617e-11
      166.800   8.61817e-11
      166.900   8.53101e-11
      167.000   8.44479e-11
      167.100   8.35920e-11
      167.200   8.27439e-11
      167.300   8.19037e-11
      167.400   8.10712e-11
      167.500   8.02460e-11
      167.600   7.94283e-11
      167.700   7.86184e-11
      167.800   7.78157e-11
      167.900   7.70202e-11
      168.000   7.62318e-11
      168.100   7.54506e-11
      168.200   7.46765e-11
      168.300   7.39093e-11
      168.400   7.31492e-11
      168.500   7.24026e-11
      168.600   7.18198e-11
      168.700   7.13244e-11
      168.800   7.08317e-11
      168.900   7.03417e-11
      169.000   6.98546e-11
      169.100   6.93695e-11
      169.200   6.88874e-11
      169.300   6.84078e-11
      169.400   6.79307e-11
      169.500   6.74523e-11
      169.600   6.69606e-11
      169.700   6.64538e-11
      169.800   6.59447e-11
      169.900   6.54380e-11
      170.000   6.49340e-11
      170.100   6.42127e-11
      170.200   6.31767e-11
      170.300   8.22852e-11
      170.400   1.76654e-10
      170.500   3.34544e-10
      170.600   4.92068e-10
      170.700   6.17428e-10
      170.800   6.74811e-10
      170.900   6.77592e-10
      171.000   6.68256e-10
      171.100   6.59283e-10
      171.200   6.50390e-10
      171.300   6.41573e-10
      171.400   6.32838e-10
      171.500   6.24182e-10
      171.600   6.15607e-10
      171.700   6.07123e-10
      171.800   5.98729e-10
      171.900   5.90431e-10
      172.000   5.82237e-10
      172.100   5.74147e-10
      172.200   5.66169e-10
      172.300   5.58281e-10
      172.400   5.50393e-10
      172.500   5.42597e-10
      172.600   5.34917e-10
      172.700   5.27353e-10
      172.800   5.19901e-10
      172.900   5.12558e-10
      173.000   5.05331e-10
      173.100   4.98214e-10
      173.200   4.91202e-10
      173.300   4.84300e-10
      173.400   4.77498e-10
      173.500   4.70803e-10
      173.600   4.64211e-10
      173.700   4.57716e-10
      173.800   4.51321e-10
      173.900   4.45023e-10
      174.000   4.38815e-10
      174.100   4.32701e-10
      174.200   4.26677e-10
      174.300   4.20739e-10
      174.400   4.14887e-10
      174.500   4.09117e-10
      174.600   4.03427e-10
      174.700   3.97819e-10
      174.800   3.92290e-10
      174.900   3.86835e-10
      175.000   3.81452e-10
      175.100   3.76141e-10
      175.200   3.70917e-10
      175.300   3.65759e-10
      175.400   3.60671e-10
      175.500   3.55654e-10
      175.600   3.50701e-10
      175.700   3.45817e-10
      175.800   3.40998e-10
      175.900   3.36243e-10
      176.000   3.31552e-10
      176.100   3.26927e-10
      176.200   3.22363e-10
      176.300   3.17860e-10
      176.400   3.13420e-10
      176.500   3.09029e-10
      176.600   3.02958e-10
      176.700   2.96184e-10
      176.800   2.89558e-10
      176.900   2.83077e-10
      177.000   2.76736e-10
      177.100   2.70532e-10
      177.200   2.64465e-10
      177.300   2.58529e-10
      177.400   2.52720e-10
      177.500   2.47037e-10
      177.600   2.41478e-10
      177.700   2.36040e-10
      177.800   2.30721e-10
      177.900   2.25514e-10
      178.000   2.20436e-10
      178.100   2.15470e-10
      178.200   2.10610e-10
      178.300   2.05855e-10
      178.400   2.01205e-10
      178.500   1.96657e-10
      178.600   1.92292e-10
      178.700   1.88489e-10
      178.800   1.85493e-10
      178.900   1.82542e-10
      179.000   1.79636e-10
      179.100   1.76773e-10
      179.200   1.73955e-10
      179.300   1.71180e-10
      179.400   1.68448e-10
      179.500   1.65759e-10
      179.600   1.63113e-10
      179.700   1.60508e-10
      179.800   1.57944e-10
      179.900   1.55421e-10
      180.000   1.52938e-10
      180.100   1.50494e-10
      180.200   1.48091e-10
      180.300   1.45726e-10
      180.400   1.43400e-10
      180.500   1.41111e-10
      180.600   1.38860e-10
      180.700   1.36645e-10
      180.800   1.34467e-10
      180.900   1.32324e-10
      181.000   1.30216e-10
      181.100   1.28142e-10
      181.200   1.26102e-10
      181.300   1.24096e-10
      181.400   1.22123e-10
      181.500   1.20182e-10
      181.600   1.18273e-10
      181.700   1.16395e-10
      181.800   1.14547e-10
      181.900   1.12729e-10
      182.000   1.10941e-10
      182.100   1.09181e-10
      182.200   1.07464e-10
      182.300   1.05892e-10
      182.400   1.04352e-10
      182.500   1.02834e-10
      182.600   1.01338e-10
      182.700   9.98643e-11
      182.800   9.84119e-11
      182.900   9.69804e-11
      183.000   9.55700e-11
      183.100   9.41803e-11
      183.200   9.28104e-11
      183.300   9.14598e-11
      183.400   9.01289e-11
      183.500   8.88173e-11
      183.600   8.75244e-11
      183.700   8.62502e-11
      183.800   8.49954e-11
      183.900   8.37591e-11
      184.000   8.25406e-11
      184.100   8.13401e-11
      184.200   8.01568e-11
      184.300   7.89908e-11
      184.400   7.78420e-11
      184.500   7.67097e-11
      184.600   7.55934e-11
      184.700   7.44935e-11
      184.800   7.34095e-11
      184.900   7.23410e-11
      185.000   7.12878e-11
      185.100   7.02605e-11
      185.200   6.93015e-11
      185.300   6.84257e-11
      185.400   6.75606e-11
      185.500   6.67060e-11
      185.600   6.58620e-11
      185.700   6.50285e-11
      185.800   6.42059e-11
      185.900   6.33933e-11
      186.000   6.25907e-11
      186.100   6.17978e-11
      186.200   6.10145e-11
      186.300   6.02403e-11
      186.400   5.94758e-11
      186.500   5.87205e-11
      186.600   5.79740e-11
      186.700   5.72360e-11
      186.800   5.65068e-11
      186.900   5.57864e-11
      187.000   5.50744e-11
      187.100   5.43704e-11
      187.200   5.36752e-11
      187.300   5.29886e-11
      187.400   5.23099e-11
      187.500   5.16393e-11
      187.600   5.09767e-11
      187.700   5.03220e-11
      187.800   4.96751e-11
      187.900   4.90359e-11
      188.000   4.84046e-11
      188.100   4.77528e-11
      188.200   4.70110e-11
      188.300   4.61569e-11
      188.400   4.53178e-11
      188.500   4.44935e-11
      188.600   4.36841e-11
      188.700   4.28894e-11
      188.800   4.21092e-11
      188.900   4.13428e-11
      189.000   4.05900e-11
      189.100   3.98504e-11
      189.200   3.91240e-11
      189.300   3.84107e-11
      189.400   3.77104e-11
      189.500   3.70260e-11
      189.600   3.64019e-11
      189.700   3.59740e-11
      189.800   3.55543e-11
      189.900   3.51399e-11
      190.000   3.47307e-11
      190.100   3.43264e-11
      190.200   3.39269e-11
      190.300   3.35323e-11
      190.400   3.31422e-11
      190.500   3.27568e-11
      190.600   3.23762e-11
      190.700   3.20000e-11
      190.800   3.16284e-11
      190.900   3.12612e-11
      191.000   3.08986e-11
      191.100   3.05405e-11
      191.200   3.01864e-11
      191.300   2.98366e-11
      191.400   2.94910e-11
      191.500   2.91495e-11
      191.600   2.88119e-11
      191.700   2.84784e-11
      191.800   2.81486e-11
      191.900   2.78227e-11
      192.000   2.75008e-11
      192.100   2.71826e-11
      192.200   2.68686e-11
      192.300   2.65581e-11
      192.400   2.62511e-11
      192.500   2.59298e-11
      192.600   2.55540e-11
      192.700   2.51369e-11
      192.800   2.47266e-11
      192.900   2.43226e-11
      193.000   2.39252e-11
      193.100   2.35346e-11
      193.200   2.31505e-11
      193.300   2.27728e-11
      193.400   2.24013e-11
      193.500   2.20358e-11
      193.600   2.16762e-11
      193.700   2.13224e-11
      193.800   2.09744e-11
      193.900   2.06323e-11
      194.000   2.03015e-11
      194.100   2.00926e-11
      194.200   1.99255e-11
      194.300   1.97626e-11
      194.400   1.96012e-11
      194.500   1.94412e-11
      194.600   1.92826e-11
      194.700   1.91253e-11
      194.800   1.89695e-11
      194.900   1.88148e-11
      195.000   1.86615e-11
      195.100   1.85096e-11
      195.200   1.83589e-11
      195.300   1.82095e-11
      195.400   1.80611e-11
      195.500   1.79119e-11
      195.600   1.77084e-11
      195.700   1.74144e-11
      195.800   1.71250e-11
      195.900   1.68403e-11
      196.000   1.65573e-11
      196.100   1.62787e-11
      196.200   1.60047e-11
      196.300   1.57351e-11
      196.400   1.54698e-11
      196.500   1.52086e-11
      196.600   1.49517e-11
      196.700   1.46989e-11
      196.800   1.44503e-11
      196.900   1.42059e-11
      197.000   1.39655e-11
      197.100   1.37289e-11
      197.200   1.34961e-11
      197.300   1.32669e-11
      197.400   1.30413e-11
      197.500   1.28193e-11
      197.600   1.26009e-11
      197.700   1.23864e-11
      197.800   1.21755e-11
      197.900   1.19678e-11
      198.000   1.17634e-11
      198.100   1.15624e-11
      198.200   1.13646e-11
      198.300   1.11699e-11
      198.400   1.09785e-11
      198.500   1.07905e-11
      198.600   1.06056e-11
      198.700   1.04395e-11
      198.800   1.02981e-11
      198.900   1.01693e-11
      199.000   1.00421e-11
      199.100   9.91630e-12
      199.200   9.79206e-12
      199.300   9.66950e-12
      199.400   9.54844e-12
      199.500   9.42885e-12
      199.600   9.31068e-12
      199.700   9.19395e-12
      199.800   9.07868e-12
      199.900   8.96478e-12
      200.000   8.85225e-12
      200.100   8.74169e-12
      200.200   8.63207e-12
      200.300   8.52389e-12
      200.400   8.41701e-12
      200.500   8.31143e-12
      200.600   8.20722e-12
      200.700   8.10429e-12
      200.800   8.00259e-12
      200.900   7.90224e-12
      201.000   7.80313e-12
      201.100   7.70531e-12
      201.200   7.60871e-12
      201.300   7.51331e-12
      201.400   7.41913e-12
      201.500   7.32612e-12
      201.600   7.23424e-12
      201.700   7.14355e-12
      201.800   7.05397e-12
      201.900   6.96343e-12
      202.000   6.84033e-12
      202.100   6.70339e-12
      202.200   6.56920e-12
      202.300   6.43828e-12
      202.400   6.31104e-12
      202.500   6.18661e-12
      202.600   6.06457e-12
      202.700   5.94497e-12
      202.800   5.82774e-12
      202.900   5.71288e-12
      203.000   5.60029e-12
      203.100   5.48998e-12
      203.200   5.38175e-12
      203.300   5.27563e-12
      203.400   5.17159e-12
      203.500   5.06962e-12
      203.600   4.97298e-12
      203.700   4.88751e-12
      203.800   4.80475e-12
      203.900   4.72348e-12
      204.000   4.64358e-12
      204.100   4.56504e-12
      204.200   4.48788e-12
      204.300   4.41202e-12
      204.400   4.33747e-12
      204.500   4.26420e-12
      204.600   4.19218e-12
      204.700   4.12139e-12
      204.800   4.05188e-12
      204.900   3.98359e-12
      205.000   3.91646e-12
      205.100   3.85050e-12
      205.200   3.78564e-12
      205.300   3.72191e-12
      205.400   3.65927e-12
      205.500   3.59769e-12
      205.600   3.53716e-12
      205.700   3.47711e-12
      205.800   3.41794e-12
      205.900   3.35980e-12
      206.000   3.30271e-12
      206.100   3.24657e-12
      206.200   3.19136e-12
      206.300   3.13712e-12
      206.400   3.08380e-12
      206.500   3.03136e-12
      206.600   2.97981e-12
      206.700   2.92913e-12
      206.800   2.87928e-12
      206.900   2.83027e-12
      207.000   2.78209e-12
      207.100   2.73473e-12
      207.200   2.68819e-12
      207.300   2.64241e-12
      207.400   2.59738e-12
      207.500   2.55309e-12
      207.600   2.50955e-12
      207.700   2.46670e-12
      207.800   2.42457e-12
      207.900   2.38313e-12
      208.000   2.34238e-12
      208.100   2.30230e-12
      208.200   2.26288e-12
      208.300   2.22411e-12
      208.400   2.18600e-12
      208.500   2.14853e-12
      208.600   2.11166e-12
      208.700   2.07539e-12
      208.800   2.03972e-12
      208.900   2.00346e-12
      209.000   1.96277e-12
      209.100   1.91951e-12
      209.200   1.87718e-12
      209.300   1.83573e-12
      209.400   1.79519e-12
      209.500   1.75550e-12
      209.600   1.71665e-12
      209.700   1.67866e-12
      209.800   1.64153e-12
      209.900   1.60517e-12
      210.000   1.56960e-12
      210.100   1.53479e-12
      210.200   1.50073e-12
      210.300   1.46741e-12
      210.400   1.43481e-12
      210.500   1.40291e-12
      210.600   1.37169e-12
      210.700   1.34116e-12
      210.800   1.31129e-12
      210.900   1.28206e-12
      211.000   1.25346e-12
      211.100   1.22550e-12
      211.200   1.19814e-12
      211.300   1.17139e-12
      211.400   1.14525e-12
      211.500   1.11966e-12
      211.600   1.09464e-12
      211.700   1.07016e-12
      211.800   1.04621e-12
      211.900   1.02278e-12
      212.000   9.99876e-13
      212.100   9.77466e-13
      212.200   9.55542e-13
      212.300   9.33239e-13
      212.400   9.08929e-13
      212.500   8.84251e-13
      212.600   8.60228e-13
      212.700   8.36841e-13
      212.800   8.14074e-13
      212.900   7.91920e-13
      213.000   7.70351e-13
      213.100   7.49379e-13
      213.200   7.28964e-13
      213.300   7.09095e-13
      213.400   6.89751e-13
      213.500   6.70926e-13
      213.600   6.52601e-13
      213.700   6.34770e-13
      213.800   6.17412e-13
      213.900   6.00529e-13
      214.000   5.84093e-13
      214.100   5.68360e-13
      214.200   5.56190e-13
      214.300   5.46343e-13
      214.400   5.36668e-13
      214.500   5.27164e-13
      214.600   5.17829e-13
      214.700   5.08660e-13
      214.800   4.99654e-13
      214.900   4.90809e-13
      215.000   4.82119e-13
      215.100   4.73584e-13
      215.200   4.65205e-13
      215.300   4.56980e-13
      215.400   4.48899e-13
      215.500   4.40962e-13
      215.600   4.33173e-13
      215.700   4.25518e-13
      215.800   4.17998e-13
      215.900   4.10618e-13
      216.000   4.02743e-13
      216.100   3.93523e-13
      216.200   3.83953e-13
      216.300   3.74616e-13
      216.400   3.65507e-13
      216.500   3.56615e-13
      216.600   3.47942e-13
      216.700   3.39482e-13
      216.800   3.31225e-13
      216.900   3.23171e-13
      217.000   3.15313e-13
      217.100   3.07644e-13
      217.200   3.00162e-13
      217.300   2.92864e-13
      217.400   2.85741e-13
      217.500   2.78794e-13
      217.600   2.72012e-13
      217.700   2.65394e-13
      217.800   2.58939e-13
      217.900   2.52619e-13
      218.000   2.45844e-13
      218.100   2.39247e-13
      218.200   2.32827e-13
      218.300   2.26581e-13
      218.400   2.20506e-13
      218.500   2.14590e-13
      218.600   2.08833e-13
      218.700   2.03227e-13
      218.800   1.97770e-13
      218.900   1.92460e-13
      219.000   1.87288e-13
      219.100   1.82252e-13
      219.200   1.77351e-13
      219.300   1.72580e-13
      219.400   1.67934e-13
      219.500   1.63411e-13
      219.600   1.59009e-13
      219.700   1.54722e-13
      219.800   1.50551e-13
      219.900   1.46489e-13
      220.000   1.42533e-13
      220.100   1.38682e-13
      220.200   1.34934e-13
      220.300   1.31285e-13
      220.400   1.27733e-13
      220.500   1.24275e-13
      220.600   1.20910e-13
      220.700   1.17632e-13
      220.800   1.14441e-13
      220.900   1.11337e-13
      221.000   1.08314e-13
      221.100   1.05370e-13
      221.200   1.02507e-13
      221.300   9.97185e-14
      221.400   9.70041e-14
      221.500   9.43628e-14
      221.600   9.17915e-14
      221.700   8.92885e-14
      221.800   8.70127e-14
      221.900   8.52173e-14
      222.000   8.35766e-14
      222.100   8.19660e-14
      222.200   8.03862e-14
      222.300   7.88357e-14
      222.400   7.73148e-14
      222.500   7.58223e-14
      222.600   7.43584e-14
      222.700   7.29217e-14
      222.800   7.15118e-14
      222.900   7.01289e-14
      223.000   6.87719e-14
      223.100   6.74402e-14
      223.200   6.61341e-14
      223.300   6.48524e-14
      223.400   6.35952e-14
      223.500   6.23614e-14
      223.600   6.11515e-14
      223.700   5.99642e-14
      223.800   5.87780e-14
      223.900   5.74666e-14
      224.000   5.61622e-14
      224.100   5.48868e-14
      224.200   5.36397e-14
      224.300   5.24204e-14
      224.400   5.12277e-14
      224.500   5.00622e-14
      224.600   4.89219e-14
      224.700   4.78077e-14
      224.800   4.67178e-14
      224.900   4.56520e-14
      225.000   4.46102e-14
      225.100   4.35913e-14
      225.200   4.25950e-14
      225.300   4.16217e-14
      225.400   4.06693e-14
      225.500   3.97383e-14
      225.600   3.88281e-14
      225.700   3.79386e-14
      225.800   3.70685e-14
      225.900   3.64216e-14
      226.000   3.58687e-14
      226.100   3.53325e-14
      226.200   3.48042e-14
      226.300   3.42860e-14
      226.400   3.37767e-14
      226.500   3.32740e-14
      226.600   3.27778e-14
      226.700   3.22885e-14
      226.800   3.18060e-14
      226.900   3.13304e-14
      227.000   3.08615e-14
      227.100   3.03994e-14
      227.200   2.99443e-14
      227.300   2.94960e-14
      227.400   2.90541e-14
      227.500   2.86189e-14
      227.600   2.81900e-14
      227.700   2.77676e-14
      227.800   2.73515e-14
      227.900   2.69081e-14
      228.000   2.63853e-14
      228.100   2.58233e-14
      228.200   2.52731e-14
      228.300   2.47346e-14
      228.400   2.42077e-14
      228.500   2.36917e-14
      228.600   2.31868e-14
      228.700   2.26926e-14
      228.800   2.22088e-14
      228.900   2.17355e-14
      229.000   2.12723e-14
      229.100   2.08188e-14
      229.200   2.03750e-14
      229.300   1.99408e-14
      229.400   1.95158e-14
      229.500   1.90999e-14
      229.600   1.86928e-14
      229.700   1.82944e-14
      229.800   1.79046e-14
      229.900   1.75231e-14
      230.000   1.71457e-14
      230.100   1.67448e-14
      230.200   1.63344e-14
      230.300   1.59342e-14
      230.400   1.55437e-14
      230.500   1.51628e-14
      230.600   1.47914e-14
      230.700   1.44290e-14
      230.800   1.40755e-14
      230.900   1.37308e-14
      231.000   1.33944e-14
      231.100   1.30661e-14
      231.200   1.27460e-14
      231.300   1.24338e-14
      231.400   1.21293e-14
      231.500   1.18320e-14
      231.600   1.15420e-14
      231.700   1.12591e-14
      231.800   1.09833e-14
      231.900   1.07140e-14
      232.000   1.04514e-14
      232.100   1.01952e-14
      232.200   9.97829e-15
      232.300   9.81252e-15
      232.400   9.66187e-15
      232.500   9.51357e-15
      232.600   9.36760e-15
      232.700   9.22390e-15
      232.800   9.08244e-15
      232.900   8.94310e-15
      233.000   8.80578e-15
      233.100   8.67062e-15
      233.200   8.53757e-15
      233.300   8.40659e-15
      233.400   8.27765e-15
      233.500   8.15070e-15
      233.600   8.02575e-15
      233.700   7.90273e-15
      233.800   7.77838e-15
      233.900   7.65555e-15
      234.000   7.53465e-15
      234.100   7.41565e-15
      234.200   7.29860e-15
      234.300   7.18335e-15
      234.400   7.06992e-15
      234.500   6.95830e-15
      234.600   6.84841e-15
      234.700   6.74030e-15
      234.800   6.63390e-15
      234.900   6.52916e-15
      235.000   6.42605e-15
      235.100   6.32457e-15
      235.200   6.22470e-15
      235.300   6.12642e-15
      235.400   6.02963e-15
      235.500   5.93442e-15
      235.600   5.84072e-15
      235.700   5.74844e-15
      235.800   5.65768e-15
      235.900   5.56835e-15
      236.000   5.48045e-15
      236.100   5.39389e-15
      236.200   5.30869e-15
      236.300   5.22482e-15
      236.400   5.14230e-15
      236.500   5.06105e-15
      236.600   4.98457e-15
      236.700   4.91692e-15
      236.800   4.85503e-15
      236.900   4.79390e-15
      237.000   4.73351e-15
      237.100   4.67388e-15
      237.200   4.61499e-15
      237.300   4.55683e-15
      237.400   4.49938e-15
      237.500   4.44264e-15
      237.600   4.38652e-15
      237.700   4.33114e-15
      237.800   4.27647e-15
      237.900   4.22242e-15
      238.000   4.16906e-15
      238.100   4.11634e-15
      238.200   4.06427e-15
      238.300   4.01283e-15
      238.400   3.96200e-15
      238.500   3.91179e-15
      238.600   3.86221e-15
      238.700   3.81323e-15
      238.800   3.76483e-15
      238.900   3.71992e-15
      239.000   3.68565e-15
      239.100   3.65284e-15
      239.200   3.62030e-15
      239.300   3.58801e-15
      239.400   3.55599e-15
      239.500   3.52424e-15
      239.600   3.49271e-15
      239.700   3.46146e-15
      239.800   3.43046e-15
      239.900   3.39971e-15
      240.000   3.36919e-15
      240.100   3.33891e-15
      240.200   3.30889e-15
      240.300   3.27910e-15
      240.400   3.24955e-15
      240.500   3.22024e-15
      240.600   3.19118e-15
      240.700   3.16232e-15
      240.800   3.13370e-15
      240.900   3.10533e-15
      241.000   3.07717e-15
      241.100   3.04925e-15
      241.200   3.02157e-15
      241.300   2.99410e-15
      241.400   2.96686e-15
      241.500   2.93984e-15
      241.600   2.91305e-15
      241.700   2.88648e-15
      241.800   2.86012e-15
      241.900   2.83398e-15
      242.000   2.80807e-15
      242.100   2.78238e-15
      242.200   2.75691e-15
      242.300   2.73168e-15
      242.400   2.70664e-15
      242.500   2.68183e-15
      242.600   2.65722e-15
      242.700   2.63283e-15
      242.800   2.60866e-15
      242.900   2.58470e-15
      243.000   2.56094e-15
      243.100   2.53740e-15
      243.200   2.51406e-15
      243.300   2.49092e-15
      243.400   2.46800e-15
      243.500   2.44529e-15
      243.600   2.42279e-15
      243.700   2.40048e-15
      243.800   2.37839e-15
      243.900   2.35649e-15
      244.000   2.33479e-15
      244.100   2.31329e-15
      244.200   2.29199e-15
      244.300   2.27088e-15
      244.400   2.24997e-15
      244.500   2.22926e-15
      244.600   2.20873e-15
      244.700   2.18839e-15
      244.800   2.16827e-15
      244.900   2.14832e-15
      245.000   2.12855e-15
      245.100   2.10898e-15
      245.200   2.08959e-15
      245.300   2.07038e-15
      245.400   2.05135e-15
      245.500   2.03250e-15
      245.600   2.01383e-15
      245.700   1.99533e-15
      245.800   1.97701e-15
      245.900   1.95887e-15
      246.000   1.94091e-15
      246.100   1.92312e-15
      246.200   1.90550e-15
      246.300   1.88804e-15
      246.400   1.87076e-15
      246.500   1.85364e-15
      246.600   1.83668e-15
      246.700   1.81988e-15
      246.800   1.80324e-15
      246.900   1.78676e-15
      247.000   1.77045e-15
      247.100   1.75428e-15
      247.200   1.73829e-15
      247.300   1.72244e-15
      247.400   1.70674e-15
      247.500   1.69120e-15
      247.600   1.67579e-15
      247.700   1.66054e-15
      247.800   1.64544e-15
      247.900   1.63047e-15
      248.000   1.61566e-15
      248.100   1.60100e-15
      248.200   1.58648e-15
      248.300   1.57209e-15
      248.400   1.55784e-15
      248.500   1.54000e-15
      248.600   1.51619e-15
      248.700   1.48879e-15
      248.800   1.46189e-15
      248.900   1.43548e-15
      249.000   1.40954e-15
      249.100   1.38412e-15
      249.200   1.35916e-15
      249.300   1.33465e-15
      249.400   1.31057e-15
      249.500   1.28694e-15
      249.600   1.26372e-15
      249.700   1.24093e-15
      249.800   1.21854e-15
      249.900   1.19656e-15
      250.000   1.17498e-15
      250.100   1.15381e-15
      250.200   1.13302e-15
      250.300   1.11263e-15
      250.400   1.09260e-15
      250.500   1.07293e-15
      250.600   1.05362e-15
      250.700   1.03465e-15
      250.800   1.01603e-15
      250.900   9.97741e-16
      251.000   9.79782e-16
      251.100   9.62146e-16
      251.200   9.44838e-16
      251.300   9.27854e-16
      251.400   9.11180e-16
      251.500   8.94801e-16
      251.600   8.72574e-16
      251.700   8.39126e-16
      251.800   8.05243e-16
      251.900   7.72696e-16
      252.000   7.41428e-16
      252.100   7.11414e-16
      252.200   6.82573e-16
      252.300   6.54911e-16
      252.400   6.28379e-16
      252.500   6.02911e-16
      252.600   5.79738e-16
      252.700   5.65113e-16
      252.800   5.58697e-16
      252.900   5.52357e-16
      253.000   5.46088e-16
      253.100   5.39891e-16
      253.200   5.33766e-16
      253.300   5.27834e-16
      253.400   5.22021e-16
      253.500   5.16280e-16
      253.600   5.10603e-16
      253.700   5.04897e-16
      253.800   4.98821e-16
      253.900   4.92732e-16
      254.000   4.86717e-16
      254.100   4.80773e-16
      254.200   4.74899e-16
      254.300   4.69098e-16
      254.400   4.63367e-16
      254.500   4.57705e-16
      254.600   4.52108e-16
      254.700   4.46582e-16
      254.800   4.41124e-16
      254.900   4.35731e-16
      255.000   4.30402e-16
      255.100   4.25132e-16
      255.200   4.19928e-16
      255.300   4.14786e-16
      255.400   4.09704e-16
      255.500   4.04682e-16
      255.600   3.99720e-16
      255.700   3.94817e-16
      255.800   3.89970e-16
      255.900   3.85181e-16
      256.000   3.80447e-16
      256.100   3.75773e-16
      256.200   3.71152e-16
      256.300   3.66585e-16
      256.400   3.62077e-16
      256.500   3.57618e-16
      256.600   3.53211e-16
      256.700   3.48856e-16
      256.800   3.44553e-16
      256.900   3.39519e-16
      257.000   3.33307e-16
      257.100   3.26817e-16
      257.200   3.20452e-16
      257.300   3.14207e-16
      257.400   3.08125e-16
      257.500   3.02174e-16
      257.600   2.96342e-16
      257.700   2.90619e-16
      257.800   2.85002e-16
      257.900   2.79493e-16
      258.000   2.74087e-16
      258.100   2.68781e-16
      258.200   2.63577e-16
      258.300   2.58471e-16
      258.400   2.53459e-16
      258.500   2.48541e-16
      258.600   2.43718e-16
      258.700   2.38984e-16
      258.800   2.34340e-16
      258.900   2.29786e-16
      259.000   2.25315e-16
      259.100   2.20931e-16
      259.200   2.16629e-16
      259.300   2.12413e-16
      259.400   2.08276e-16
      259.500   2.04216e-16
      259.600   2.00235e-16
      259.700   1.96330e-16
      259.800   1.92498e-16
      259.900   1.88738e-16
      260.000   1.85051e-16
      260.100   1.81200e-16
      260.200   1.77137e-16
      260.300   1.73110e-16
      260.400   1.69174e-16
      260.500   1.65326e-16
      260.600   1.61561e-16
      260.700   1.57881e-16
      260.800   1.54286e-16
      260.900   1.50768e-16
      261.000   1.47331e-16
      261.100   1.43972e-16
      261.200   1.40671e-16
      261.300   1.37443e-16
      261.400   1.34288e-16
      261.500   1.31208e-16
      261.600   1.28207e-16
      261.700   1.25276e-16
      261.800   1.22411e-16
      261.900   1.19610e-16
      262.000   1.16872e-16
      262.100   1.14195e-16
      262.200   1.11580e-16
      262.300   1.09023e-16
      262.400   1.06524e-16
      262.500   1.04081e-16
      262.600   1.01693e-16
      262.700   9.93592e-17
      262.800   9.70787e-17
      262.900   9.48486e-17
      263.000   9.26711e-17
      263.100   9.05422e-17
      263.200   8.84628e-17
      263.300   8.64305e-17
      263.400   8.44441e-17
      263.500   8.25035e-17
      263.600   8.06070e-17
      263.700   7.87534e-17
      263.800   7.69415e-17
      263.900   7.51723e-17
      264.000   7.34426e-17
      264.100   7.17518e-17
      264.200   7.00993e-17
      264.300   6.84859e-17
      264.400   6.69089e-17
      264.500   6.53675e-17
      264.600   6.38611e-17
      264.700   6.23897e-17
      264.800   6.09512e-17
      264.900   5.95464e-17
      265.000   5.81738e-17
      265.100   5.68318e-17
      265.200   5.55210e-17
      265.300   5.42402e-17
      265.400   5.29733e-17
      265.500   5.17296e-17
      265.600   5.05154e-17
      265.700   4.93286e-17
      265.800   4.81713e-17
      265.900   4.70404e-17
      266.000   4.59368e-17
      266.100   4.48588e-17
      266.200   4.38062e-17
      266.300   4.27777e-17
      266.400   4.17738e-17
      266.500   4.07928e-17
      266.600   3.98351e-17
      266.700   3.88997e-17
      266.800   3.79867e-17
      266.900   3.70947e-17
      267.000   3.62235e-17
      267.100   3.53726e-17
      267.200   3.45423e-17
      267.300   3.37312e-17
      267.400   3.29388e-17
      267.500   3.21652e-17
      267.600   3.14098e-17
      267.700   3.06720e-17
      267.800   2.99514e-17
      267.900   2.92479e-17
      268.000   2.85610e-17
      268.100   2.78902e-17
      268.200   2.72352e-17
      268.300   2.65958e-17
      268.400   2.59710e-17
      268.500   2.53610e-17
      268.600   2.47652e-17
      268.700   2.41837e-17
      268.800   2.36157e-17
      268.900   2.30612e-17
      269.000   2.25197e-17
      269.100   2.19909e-17
      269.200   2.14746e-17
      269.300   2.09704e-17
      269.400   2.04778e-17
      269.500   1.99970e-17
      269.600   1.95275e-17
      269.700   1.90056e-17
      269.800   1.84821e-17
      269.900   1.79725e-17
      270.000   1.74770e-17
      270.100   1.69952e-17
      270.200   1.65270e-17
      270.300   1.60715e-17
      270.400   1.56286e-17
      270.500   1.51978e-17
      270.600   1.47787e-17
      270.700   1.43712e-17
      270.800   1.39750e-17
      270.900   1.35894e-17
      271.000   1.32147e-17
      271.100   1.28500e-17
      271.200   1.24953e-17
      271.300   1.21505e-17
      271.400   1.18150e-17
      271.500   1.14889e-17
      271.600   1.11715e-17
      271.700   1.08629e-17
      271.800   1.05629e-17
      271.900   1.02710e-17
      272.000   9.98721e-18
      272.100   9.71110e-18
      272.200   9.44262e-18
      272.300   9.18143e-18
      272.400   8.92739e-18
      272.500   8.68045e-18
      272.600   8.44015e-18
      272.700   8.20644e-18
      272.800   7.98866e-18
      272.900   7.80427e-18
      273.000   7.63675e-18
      273.100   7.47273e-18
      273.200   7.31220e-18
      273.300   7.15519e-18
      273.400   7.00146e-18
      273.500   6.85103e-18
      273.600   6.70380e-18
      273.700   6.55970e-18
      273.800   6.41867e-18
      273.900   6.26016e-18
      274.000   6.06527e-18
      274.100   5.87590e-18
      274.200   5.69236e-18
      274.300   5.51450e-18
      274.400   5.34140e-18
      274.500   5.17212e-18
      274.600   5.00778e-18
      274.700   4.84864e-18
      274.800   4.69442e-18
      274.900   4.54500e-18
      275.000   4.40029e-18
      275.100   4.26012e-18
      275.200   4.12436e-18
      275.300   3.99281e-18
      275.400   3.86544e-18
      275.500   3.74208e-18
      275.600   3.62252e-18
      275.700   3.50678e-18
      275.800   3.39470e-18
      275.900   3.28611e-18
      276.000   3.18788e-18
      276.100   3.11094e-18
      276.200   3.03945e-18
      276.300   2.96956e-18
      276.400   2.90126e-18
      276.500   2.83449e-18
      276.600   2.76925e-18
      276.700   2.70547e-18
      276.800   2.64316e-18
      276.900   2.58223e-18
      277.000   2.52270e-18
      277.100   2.46450e-18
      277.200   2.40763e-18
      277.300   2.35205e-18
      277.400   2.29773e-18
      277.500   2.24461e-18
      277.600   2.19274e-18
      277.700   2.14201e-18
      277.800   2.09243e-18
      277.900   2.04400e-18
      278.000   1.99667e-18
      278.100   1.94939e-18
      278.200   1.89137e-18
      278.300   1.83222e-18
      278.400   1.77488e-18
      278.500   1.71927e-18
      278.600   1.66538e-18
      278.700   1.61317e-18
      278.800   1.56257e-18
      278.900   1.51348e-18
      279.000   1.46587e-18
      279.100   1.41975e-18
      279.200   1.37705e-18
      279.300   1.33987e-18
      279.400   1.30408e-18
      279.500   1.26924e-18
      279.600   1.23532e-18
      279.700   1.20229e-18
      279.800   1.17012e-18
      279.900   1.13879e-18
      280.000   1.10829e-18
      280.100   1.07858e-18
      280.200   1.04966e-18
      280.300   1.02150e-18
      280.400   9.94074e-19
      280.500   9.67388e-19
      280.600   9.41398e-19
      280.700   9.16092e-19
      280.800   8.91456e-19
      280.900   8.67465e-19
      281.000   8.44110e-19
      281.100   8.21370e-19
      281.200   7.99230e-19
      281.300   7.78846e-19
      281.400   7.61164e-19
      281.500   7.44957e-19
      281.600   7.29085e-19
      281.700   7.13546e-19
      281.800   6.98341e-19
      281.900   6.83445e-19
      282.000   6.68860e-19
      282.100   6.54581e-19
      282.200   6.40613e-19
      282.300   6.26926e-19
      282.400   6.13528e-19
      282.500   6.00408e-19
      282.600   5.87567e-19
      282.700   5.74992e-19
      282.800   5.62680e-19
      282.900   5.50637e-19
      283.000   5.38841e-19
      283.100   5.27300e-19
      283.200   5.16001e-19
      283.300   5.04943e-19
      283.400   4.94118e-19
      283.500   4.82226e-19
      283.600   4.70318e-19
      283.700   4.58679e-19
      283.800   4.47327e-19
      283.900   4.36257e-19
      284.000   4.25451e-19
      284.100   4.14908e-19
      284.200   4.04622e-19
      284.300   3.94591e-19
      284.400   3.84803e-19
      284.500   3.75255e-19
      284.600   3.65941e-19
      284.700   3.56858e-19
      284.800   3.47995e-19
      284.900   3.39349e-19
      285.000   3.30912e-19
      285.100   3.22682e-19
      285.200   3.14659e-19
      285.300   3.06830e-19
      285.400   2.99192e-19
      285.500   2.91744e-19
      285.600   2.84482e-19
      285.700   2.77394e-19
      285.800   2.70486e-19
      285.900   2.63748e-19
      286.000   2.57179e-19
      286.100   2.50775e-19
      286.200   2.44523e-19
      286.300   2.38429e-19
      286.400   2.32487e-19
      286.500   2.26689e-19
      286.600   2.20793e-19
      286.700   2.14414e-19
      286.800   2.07931e-19
      286.900   2.01640e-19
      287.000   1.95538e-19
      287.100   1.89618e-19
      287.200   1.83878e-19
      287.300   1.78307e-19
      287.400   1.72903e-19
      287.500   1.67662e-19
      287.600   1.62578e-19
      287.700   1.57645e-19
      287.800   1.52863e-19
      287.900   1.48223e-19
      288.000   1.43725e-19
      288.100   1.39360e-19
      288.200   1.35133e-19
      288.300   1.31033e-19
      288.400   1.27055e-19
      288.500   1.23199e-19
      288.600   1.19455e-19
      288.700   1.15867e-19
      288.800   1.13026e-19
      288.900   1.10565e-19
      289.000   1.08156e-19
      289.100   1.05799e-19
      289.200   1.03495e-19
      289.300   1.01240e-19
      289.400   9.90347e-20
      289.500   9.68774e-20
      289.600   9.47669e-20
      289.700   9.27036e-20
      289.800   9.06842e-20
      289.900   8.87081e-20
      290.000   8.67761e-20
      290.100   8.48867e-20
      290.200   8.30398e-20
      290.300   8.12330e-20
      290.400   7.94658e-20
      290.500   7.77378e-20
      290.600   7.60463e-20
      290.700   7.43920e-20
      290.800   7.27748e-20
      290.900   7.11919e-20
      291.000   6.96428e-20
      291.100   6.81278e-20
      291.200   6.66464e-20
      291.300   6.51968e-20
      291.400   6.37793e-20
      291.500   6.23923e-20
      291.600   6.10351e-20
      291.700   5.97081e-20
      291.800   5.84103e-20
      291.900   5.71422e-20
      292.000   5.54997e-20
      292.100   5.38418e-20
      292.200   5.22295e-20
      292.300   5.06641e-20
      292.400   4.91456e-20
      292.500   4.76717e-20
      292.600   4.62417e-20
      292.700   4.48547e-20
      292.800   4.35090e-20
      292.900   4.22034e-20
      293.000   4.09366e-20
      293.100   3.97071e-20
      293.200   3.85141e-20
      293.300   3.73571e-20
      293.400   3.62353e-20
      293.500   3.51478e-20
      293.600   3.40928e-20
      293.700   3.30691e-20
      293.800   3.20760e-20
      293.900   3.11126e-20
      294.000   3.01879e-20
      294.100   2.93758e-20
      294.200   2.86496e-20
      294.300   2.79412e-20
      294.400   2.72498e-20
      294.500   2.65758e-20
      294.600   2.59182e-20
      294.700   2.52768e-20
      294.800   2.46510e-20
      294.900   2.40413e-20
      295.000   2.34469e-20
      295.100   2.28673e-20
      295.200   2.23018e-20
      295.300   2.17502e-20
      295.400   2.12122e-20
      295.500   2.06876e-20
      295.600   2.01757e-20
      295.700   1.96764e-20
      295.800   1.91893e-20
      295.900   1.87139e-20
      296.000   1.82504e-20
      296.100   1.77981e-20
      296.200   1.73572e-20
      296.300   1.69272e-20
      296.400   1.65086e-20
      296.500   1.60998e-20
      296.600   1.57011e-20
      296.700   1.53122e-20
      296.800   1.49330e-20
      296.900   1.45629e-20
      297.000   1.42019e-20
      297.100   1.38497e-20
      297.200   1.35062e-20
      297.300   1.31710e-20
      297.400   1.28441e-20
      297.500   1.25252e-20
      297.600   1.22143e-20
      297.700   1.19113e-20
      297.800   1.16158e-20
      297.900   1.13275e-20
      298.000   1.10463e-20
      298.100   1.07720e-20
      298.200   1.05044e-20
      298.300   1.02217e-20
      298.400   9.91294e-21
      298.500   9.60189e-21
      298.600   9.30040e-21
      298.700   9.00828e-21
      298.800   8.72503e-21
      298.900   8.45138e-21
      299.000   8.18623e-21
      299.100   7.92920e-21
      299.200   7.67998e-21
      299.300   7.43852e-21
      299.400   7.20446e-21
      299.500   6.97765e-21
      299.600   6.75785e-21
      299.700   6.54486e-21
      299.800   6.33830e-21
      299.900   6.13833e-21
      300.000   5.94449e-21
      300.100   5.75678e-21
      300.192   5.58940e-21
      300.285   5.42496e-21
      300.377   5.26706e-21
      300.470   5.11210e-21
      300.562   4.96321e-21
      300.654   4.81857e-21
      300.747   4.67655e-21
      300.839   4.54019e-21
      300.932   4.40623e-21
      301.025   4.27619e-21
      301.117   4.15135e-21
      301.210   4.02874e-21
      301.303   3.90969e-21
      301.395   3.79547e-21
      301.488   3.69096e-21
      301.581   3.61482e-21
      301.674   3.54094e-21
      301.766   3.46934e-21
      301.859   3.39837e-21
      301.952   3.32889e-21
      302.045   3.26077e-21
      302.138   3.19406e-21
      302.231   3.12878e-21
      302.324   3.06481e-21
      302.417   3.00212e-21
      302.510   2.94064e-21
      302.603   2.88051e-21
      302.696   2.82151e-21
      302.789   2.76371e-21
      302.882   2.70705e-21
      302.976   2.65100e-21
      303.069   2.59662e-21
      303.162   2.54336e-21
      303.255   2.49116e-21
      303.349   2.43946e-21
      303.442   2.38932e-21
      303.535   2.34025e-21
      303.629   2.29164e-21
      303.722   2.24453e-21
      303.816   2.19786e-21
      303.909   2.15265e-21
      304.003   2.10786e-21
      304.096   2.06444e-21
      304.190   2.02144e-21
      304.283   1.97977e-21
      304.377   1.93854e-21
      304.471   1.89811e-21
      304.564   1.85893e-21
      304.658   1.81836e-21
      304.752   1.76724e-21
      304.846   1.71636e-21
      304.939   1.66744e-21
      305.033   1.61938e-21
      305.127   1.57268e-21
      305.221   1.52730e-21
      305.315   1.48323e-21
      305.409   1.44039e-21
      305.503   1.39879e-21
      305.597   1.35836e-21
      305.691   1.31907e-21
      305.785   1.29208e-21
      305.879   1.26866e-21
      305.973   1.24588e-21
      306.067   1.22348e-21
      306.161   1.20149e-21
      306.255   1.17988e-21
      306.350   1.15843e-21
      306.444   1.13757e-21
      306.538   1.11708e-21
      306.633   1.09676e-21
      306.727   1.07699e-21
      306.821   1.05757e-21
      306.916   1.03830e-21
      307.010   1.01957e-21
      307.105   1.00099e-21
      307.199   9.82926e-22
      307.294   9.64985e-22
      307.388   9.47562e-22
      307.483   9.30263e-22
      307.577   9.13453e-22
      307.672   8.96766e-22
      307.767   8.80380e-22
      307.861   8.62013e-22
      307.956   8.39799e-22
      308.051   8.17434e-22
      308.146   7.95663e-22
      308.240   7.74685e-22
      308.335   7.54032e-22
      308.430   7.33911e-22
      308.525   7.14326e-22
      308.620   6.95264e-22
      308.715   6.76701e-22
      308.810   6.58627e-22
      308.905   6.41024e-22
      309.000   6.23890e-22
      309.095   6.07203e-22
      309.190   5.90966e-22
      309.285   5.75149e-22
      309.380   5.59753e-22
      309.476   5.44612e-22
      309.571   5.30019e-22
      309.666   5.15812e-22
      309.761   5.01984e-22
      309.857   4.88384e-22
      309.952   4.75346e-22
      310.047   4.63291e-22
      310.143   4.51576e-22
      310.238   4.40270e-22
      310.334   4.29132e-22
      310.429   4.18379e-22
      310.525   4.07788e-22
      310.620   3.97569e-22
      310.716   3.87496e-22
      310.811   3.77592e-22
      310.907   3.67779e-22
      311.003   3.58216e-22
      311.098   3.48991e-22
      311.194   3.39909e-22
      311.290   3.31063e-22
      311.386   3.22446e-22
      311.481   3.14136e-22
      311.577   3.05956e-22
      311.673   2.97985e-22
      311.769   2.90219e-22
      311.865   2.82656e-22
      311.961   2.75296e-22
      312.057   2.68162e-22
      312.153   2.61227e-22
      312.249   2.54469e-22
      312.345   2.47886e-22
      312.441   2.41469e-22
      312.537   2.35220e-22
      312.633   2.29131e-22
      312.730   2.23133e-22
      312.826   2.17356e-22
      312.922   2.11726e-22
      313.018   2.06240e-22
      313.115   2.00841e-22
      313.211   1.95634e-22
      313.307   1.90563e-22
      313.404   1.85573e-22
      313.500   1.80760e-22
      313.597   1.76026e-22
      313.693   1.71461e-22
      313.790   1.66968e-22
      313.886   1.62985e-22
      313.983   1.60049e-22
      314.079   1.57547e-22
      314.176   1.55059e-22
      314.273   1.52610e-22
      314.369   1.50226e-22
      314.466   1.47855e-22
      314.563   1.45521e-22
      314.660   1.43225e-22
      314.756   1.40987e-22
      314.853   1.38762e-22
      314.950   1.36573e-22
      315.047   1.34419e-22
      315.144   1.32299e-22
      315.241   1.30213e-22
      315.338   1.28159e-22
      315.435   1.26139e-22
      315.532   1.24151e-22
      315.629   1.22195e-22
      315.726   1.20270e-22
      315.823   1.18374e-22
      315.921   1.16491e-22
      316.018   1.14656e-22
      316.115   1.12852e-22
      316.212   1.11076e-22
      316.310   1.09011e-22
      316.407   1.06620e-22
      316.504   1.04163e-22
      316.602   1.01738e-22
      316.699   9.93939e-23
      316.796   9.71044e-23
      316.894   9.48450e-23
      316.991   9.26623e-23
      317.089   9.05219e-23
      317.187   8.84368e-23
      317.284   8.64208e-23
      317.382   8.44307e-23
      317.479   8.25056e-23
      317.577   8.06062e-23
      317.675   7.87510e-23
      317.773   7.69380e-23
      317.870   7.51852e-23
      317.968   7.34536e-23
      318.066   7.17626e-23
      318.164   7.01108e-23
      318.262   6.84973e-23
      318.360   6.69205e-23
      318.458   6.53808e-23
      318.556   6.38772e-23
      318.654   6.24079e-23
      318.752   6.06660e-23
      318.850   5.86107e-23
      318.948   5.65158e-23
      319.046   5.44952e-23
      319.144   5.25458e-23
      319.242   5.06666e-23
      319.341   4.88357e-23
      319.439   4.70881e-23
      319.537   4.54029e-23
      319.635   4.37772e-23
      319.734   4.21938e-23
      319.832   4.06823e-23
      319.930   3.92243e-23
      320.029   3.78045e-23
      320.127   3.64493e-23
      320.226   3.51290e-23
      320.324   3.38685e-23
      320.423   3.26406e-23
      320.522   3.14579e-23
      320.620   3.03288e-23
      320.719   2.92286e-23
      320.818   2.81682e-23
      320.916   2.71562e-23
      321.015   2.61702e-23
      321.114   2.52197e-23
      321.213   2.43036e-23
      321.311   2.34296e-23
      321.410   2.25785e-23
      321.509   2.17575e-23
      321.608   2.09666e-23
      321.707   2.02040e-23
      321.806   1.94688e-23
      321.905   1.87605e-23
      322.004   1.80773e-23
      322.103   1.74193e-23
      322.202   1.67848e-23
      322.301   1.61733e-23
      322.401   1.55780e-23
      322.500   1.50102e-23
      322.599   1.44629e-23
      322.698   1.39355e-23
      322.798   1.34220e-23
      322.897   1.29321e-23
      322.996   1.24600e-23
      323.096   1.20003e-23
      323.195   1.15618e-23
      323.294   1.11394e-23
      323.394   1.07282e-23
      323.493   1.03359e-23
      323.593   9.95408e-24
      323.692   9.58986e-24
      323.792   9.23542e-24
      323.892   8.89394e-24
      323.991   8.56807e-24
      324.091   8.25112e-24
      324.191   7.94564e-24
      324.291   7.65143e-24
      324.390   7.37093e-24
      324.490   7.09768e-24
      324.590   6.83471e-24
      324.690   6.58136e-24
      324.790   6.33724e-24
      324.890   6.10217e-24
      324.990   5.87563e-24
      325.090   5.65738e-24
      325.190   5.44729e-24
      325.290   5.24497e-24
      325.390   5.04988e-24
      325.490   4.86217e-24
      325.590   4.68137e-24
      325.690   4.50708e-24
      325.790   4.33931e-24
      325.891   4.17612e-24
      325.991   4.02053e-24
      326.091   3.87065e-24
      326.192   3.72490e-24
      326.292   3.58594e-24
      326.392   3.45216e-24
      326.493   3.32202e-24
      326.593   3.19792e-24
      326.694   3.07733e-24
      326.794   2.96229e-24
      326.895   2.85043e-24
      326.995   2.74376e-24
      327.096   2.64011e-24
      327.197   2.54029e-24
      327.297   2.44511e-24
      327.398   2.35259e-24
      327.499   2.26353e-24
      327.599   2.17861e-24
      327.700   2.09604e-24
      327.801   2.01658e-24
      327.902   1.94013e-24
      328.003   1.86649e-24
      328.104   1.79563e-24
      328.205   1.72743e-24
      328.306   1.66179e-24
      328.407   1.59862e-24
      328.508   1.53781e-24
      328.609   1.47928e-24
      328.710   1.42297e-24
      328.811   1.36877e-24
      328.912   1.31661e-24
      329.013   1.26641e-24
      329.115   1.21765e-24
      329.216   1.17118e-24
      329.317   1.12646e-24
      329.419   1.08303e-24
      329.520   1.04163e-24
      329.621   1.00178e-24
      329.723   9.63074e-25
      329.824   9.26234e-25
      329.926   8.90425e-25
      330.027   8.56301e-25
      330.129   8.23153e-25
      330.230   7.91596e-25
      330.332   7.60920e-25
      330.434   7.31427e-25
      330.535   7.03322e-25
      330.637   6.76026e-25
      330.739   6.49789e-25
      330.840   6.24788e-25
      330.942   6.00502e-25
      331.044   5.77150e-25
      331.146   5.54693e-25
      331.248   5.33100e-25
      331.350   5.12341e-25
      331.452   4.92378e-25
      331.554   4.73301e-25
      331.656   4.55115e-25
      331.758   4.37624e-25
      331.860   4.20789e-25
      331.962   4.04596e-25
      332.064   3.89015e-25
      332.166   3.74034e-25
      332.268   3.59613e-25
      332.371   3.45617e-25
      332.473   3.32278e-25
      332.575   3.19442e-25
      332.677   3.07104e-25
      332.780   2.95125e-25
      332.882   2.83712e-25
      332.985   2.72633e-25
      333.087   2.62074e-25
      333.190   2.51826e-25
      333.292   2.42033e-25
      333.395   2.32441e-25
      333.497   2.23286e-25
      333.600   2.14401e-25
      333.702   2.05946e-25
      333.805   1.97746e-25
      333.908   1.89860e-25
      334.011   1.82290e-25
      334.113   1.75084e-25
      334.216   1.68092e-25
      334.319   1.61378e-25
      334.422   1.54926e-25
      334.525   1.48729e-25
      334.628   1.42776e-25
      334.731   1.37062e-25
      334.834   1.31571e-25
      334.937   1.26296e-25
      335.040   1.21228e-25
      335.143   1.16365e-25
      335.246   1.11692e-25
      335.349   1.07204e-25
      335.452   1.02895e-25
      335.555   9.87575e-26
      335.659   9.47446e-26
      335.762   9.09289e-26
      335.865   8.72668e-26
      335.969   8.37153e-26
      336.072   8.03365e-26
      336.175   7.70957e-26
      336.279   7.39538e-26
      336.382   7.09663e-26
      336.486   6.80697e-26
      336.589   6.53160e-26
      336.693   6.26489e-26
      336.796   6.01130e-26
      336.900   5.76543e-26
      337.004   5.52939e-26
      337.107   5.30527e-26
      337.211   5.08790e-26
      337.315   4.87948e-26
      337.419   4.67937e-26
      337.523   4.48737e-26
      337.626   4.30488e-26
      337.730   4.12813e-26
      337.834   3.95848e-26
      337.938   3.79577e-26
      338.042   3.63972e-26
      338.146   3.49042e-26
      338.250   3.34731e-26
      338.354   3.20995e-26
      338.458   3.07812e-26
      338.562   2.95165e-26
      338.667   2.82923e-26
      338.771   2.71286e-26
      338.875   2.60125e-26
      338.979   2.49413e-26
      339.084   2.39051e-26
      339.188   2.29201e-26
      339.292   2.19755e-26
      339.397   2.10604e-26
      339.501   2.01916e-26
      339.606   1.93497e-26
      339.710   1.85506e-26
      339.815   1.77766e-26
      339.919   1.70419e-26
      340.024   1.63300e-26
      340.128   1.56546e-26
      340.233   1.50000e-26
      340.338   1.43732e-26
      340.442   1.37774e-26
      340.547   1.32008e-26
      340.652   1.26480e-26
      340.757   1.21182e-26
      340.862   1.16102e-26
      340.966   1.11280e-26
      341.071   1.06613e-26
      341.176   1.02139e-26
      341.281   9.78500e-27
      341.386   9.37414e-27
      341.491   8.98005e-27
      341.596   8.60265e-27
      341.702   8.23751e-27
      341.807   7.89088e-27
      341.912   7.55872e-27
      342.017   7.24036e-27
      342.122   6.93522e-27
      342.228   6.64038e-27
      342.333   6.36033e-27
      342.438   6.09200e-27
      342.544   5.83262e-27
      342.649   5.58631e-27
      342.754   5.35050e-27
      342.860   5.12232e-27
      342.965   4.90565e-27
      343.071   4.69647e-27
      343.176   4.49779e-27
      343.282   4.30563e-27
      343.388   4.12170e-27
      343.493   3.94741e-27
      343.599   3.78104e-27
      343.705   3.62183e-27
      343.810   3.47062e-27
      343.916   3.32439e-27
      344.022   3.18426e-27
      344.128   3.05000e-27
      344.234   2.92129e-27
      344.340   2.79804e-27
      344.446   2.67988e-27
      344.552   2.56667e-27
      344.658   2.45823e-27
      344.764   2.35439e-27
      344.870   2.25482e-27
      344.976   2.15949e-27
      345.082   2.06811e-27
      345.188   1.98061e-27
      345.294   1.89673e-27
      345.401   1.81566e-27
      345.507   1.73873e-27
      345.613   1.66507e-27
      345.719   1.59447e-27
      345.826   1.52623e-27
      345.932   1.46148e-27
      346.039   1.39889e-27
      346.145   1.33950e-27
      346.252   1.28211e-27
      346.358   1.22765e-27
      346.465   1.17504e-27
      346.571   1.12508e-27
      346.678   1.07680e-27
      346.785   1.03057e-27
      346.891   9.86736e-28
      346.998   9.44381e-28
      347.105   9.03816e-28
      347.212   8.64973e-28
      347.319   8.27786e-28
      347.425   7.92500e-28
      347.532   7.58408e-28
      347.639   7.25790e-28
      347.746   6.94551e-28
      347.853   6.64631e-28
      347.960   6.36010e-28
      348.067   6.08620e-28
      348.174   5.82405e-28
      348.281   5.57300e-28
      348.389   5.33057e-28
      348.496   5.10059e-28
      348.603   4.88068e-28
      348.710   4.67007e-28
      348.818   4.46668e-28
      348.925   4.27378e-28
      349.032   4.08924e-28
      349.140   3.91089e-28
      349.247   3.74183e-28
      349.355   3.57868e-28
      349.462   3.42390e-28
      349.570   3.27433e-28
      349.677   3.13268e-28
      349.785   2.99579e-28
      349.892   2.86608e-28
      350.000   2.74084e-28
      350.100   2.62971e-28
      350.193   2.53042e-28
      350.287   2.43375e-28
      350.380   2.34184e-28
      350.473   2.25333e-28
      350.567   2.16718e-28
      350.660   2.08524e-28
      350.754   2.00552e-28
      350.847   1.92968e-28
      350.941   1.85589e-28
      351.034   1.78567e-28
      351.128   1.71734e-28
      351.221   1.65235e-28
      351.315   1.58908e-28
      351.409   1.52821e-28
      351.502   1.47032e-28
      351.596   1.41402e-28
      351.690   1.35980e-28
      351.783   1.30828e-28
      351.877   1.25814e-28
      351.971   1.20990e-28
      352.065   1.16349e-28
      352.159   1.11885e-28
      352.252   1.07638e-28
      352.346   1.03506e-28
      352.440   9.95334e-29
      352.534   9.57148e-29
      352.628   9.20375e-29
      352.722   8.85006e-29
      352.816   8.51010e-29
      352.910   8.18320e-29
      353.004   7.86872e-29
      353.098   7.56609e-29
      353.192   7.27506e-29
      353.287   6.99225e-29
      353.381   6.72306e-29
      353.475   6.46446e-29
      353.569   6.21547e-29
      353.663   5.97626e-29
      353.758   5.74371e-29
      353.852   5.52247e-29
      353.946   5.30968e-29
      354.041   5.10286e-29
      354.135   4.90612e-29
      354.229   4.71690e-29
      354.324   4.53303e-29
      354.418   4.35817e-29
      354.513   4.18818e-29
      354.607   4.02661e-29
      354.702   3.86933e-29
      354.796   3.71939e-29
      354.891   3.57368e-29
      354.985   3.43517e-29
      355.080   3.30059e-29
      355.175   3.17115e-29
      355.269   3.04811e-29
      355.364   2.92852e-29
      355.459   2.81367e-29
      355.553   2.70435e-29
      355.648   2.59823e-29
      355.743   2.49628e-29
      355.838   2.39815e-29
      355.933   2.30398e-29
      356.027   2.21440e-29
      356.122   2.12731e-29
      356.217   2.04366e-29
      356.312   1.96334e-29
      356.407   1.88608e-29
      356.502   1.81188e-29
      356.597   1.74053e-29
      356.692   1.67202e-29
      356.787   1.60617e-29
      356.882   1.54285e-29
      356.977   1.48208e-29
      357.073   1.42305e-29
      357.168   1.36690e-29
      357.263   1.31300e-29
      357.358   1.26118e-29
      357.453   1.21142e-29
      357.549   1.16310e-29
      357.644   1.11717e-29
      357.739   1.07306e-29
      357.835   1.03019e-29
      357.930   9.89471e-30
      358.025   9.50349e-30
      358.121   9.12375e-30
      358.216   8.76277e-30
      358.312   8.41223e-30
      358.407   8.07930e-30
      358.503   7.75601e-30
      358.598   7.44892e-30
      358.694   7.15071e-30
      358.790   6.86416e-30
      358.885   6.59193e-30
      358.981   6.32768e-30
      359.076   6.07673e-30
      359.172   5.83313e-30
      359.268   5.59894e-30
      359.364   5.37418e-30
      359.459   5.16082e-30
      359.555   4.95353e-30
      359.651   4.75451e-30
      359.747   4.56345e-30
      359.843   4.37998e-30
      359.939   4.20383e-30
      360.035   4.03473e-30
      360.131   3.87244e-30
      360.227   3.71641e-30
      360.323   3.56678e-30
      360.419   3.42118e-30
      360.515   3.26365e-30
      360.611   3.10849e-30
      360.707   2.96051e-30
      360.803   2.81979e-30
      360.899   2.68551e-30
      360.995   2.55765e-30
      361.092   2.43453e-30
      361.188   2.31845e-30
      361.284   2.20786e-30
      361.380   2.10251e-30
      361.477   2.00108e-30
      361.573   1.90545e-30
      361.669   1.81441e-30
      361.766   1.72673e-30
      361.862   1.64415e-30
      361.959   1.56466e-30
      362.055   1.48966e-30
      362.152   1.41759e-30
      362.248   1.34964e-30
      362.345   1.28420e-30
      362.441   1.22259e-30
      362.538   1.16331e-30
      362.635   1.10686e-30
      362.731   1.05365e-30
      362.828   1.00246e-30
      362.925   9.53744e-31
      363.021   9.07818e-31
      363.118   8.63669e-31
      363.215   8.21612e-31
      363.312   7.81583e-31
      363.409   7.43508e-31
      363.505   7.07625e-31
      363.602   6.73087e-31
      363.699   6.40237e-31
      363.796   6.08972e-31
      363.893   5.79215e-31
      363.990   5.50900e-31
      364.087   5.23955e-31
      364.184   4.98313e-31
      364.281   4.73907e-31
      364.378   4.50691e-31
      364.475   4.28597e-31
      364.573   4.07357e-31
      364.670   3.87368e-31
      364.767   3.68350e-31
      364.864   3.50251e-31
      364.961   3.33034e-31
      365.059   3.16488e-31
      365.156   3.00921e-31
      365.253   2.86104e-31
      365.351   2.71866e-31
      365.448   2.58463e-31
      365.545   2.45718e-31
      365.643   2.33468e-31
      365.740   2.21937e-31
      365.838   2.10863e-31
      365.935   2.00445e-31
      366.033   1.90431e-31
      366.130   1.81007e-31
      366.228   1.71945e-31
      366.326   1.62329e-31
      366.423   1.52839e-31
      366.521   1.43806e-31
      366.618   1.35382e-31
      366.716   1.27370e-31
      366.814   1.19829e-31
      366.912   1.12731e-31
      367.010   1.06043e-31
      367.107   9.98122e-32
      367.205   9.38826e-32
      367.303   8.83031e-32
      367.401   8.30523e-32
      367.499   7.81082e-32
      367.597   7.34564e-32
      367.695   6.90796e-32
      367.793   6.49616e-32
      367.891   6.10857e-32
      367.989   5.74353e-32
      368.087   5.40034e-32
      368.185   5.07745e-32
      368.283   4.77352e-32
      368.381   4.48749e-32
      368.480   4.21596e-32
      368.578   3.96304e-32
      368.676   3.72525e-32
      368.774   3.50156e-32
      368.873   3.28903e-32
      368.971   3.09123e-32
      369.069   2.90518e-32
      369.168   2.72838e-32
      369.266   2.56396e-32
      369.364   2.40930e-32
      369.463   2.26241e-32
      369.561   2.12578e-32
      369.660   1.99602e-32
      369.758   1.87530e-32
      369.857   1.76068e-32
      369.955   1.65405e-32
      370.054   1.55278e-32
      370.153   1.45766e-32
      370.251   1.36919e-32
      370.350   1.28520e-32
      370.449   1.20634e-32
      370.547   1.13297e-32
      370.646   1.06328e-32
      370.745   9.97896e-33
      370.844   9.36465e-33
      370.943   8.78780e-33
      371.041   8.25151e-33
      371.140   7.74237e-33
      371.239   7.26422e-33
      371.338   6.81552e-33
      371.437   6.39428e-33
      371.536   5.99884e-33
      371.635   5.62731e-33
      371.734   5.27875e-33
      371.833   4.95157e-33
      371.932   4.64441e-33
      372.032   4.35321e-33
      372.131   4.08273e-33
      372.230   3.82900e-33
      372.329   3.59079e-33
      372.428   3.36723e-33
      372.528   3.15546e-33
      372.627   2.95882e-33
      372.726   2.77428e-33
      372.826   2.59943e-33
      372.925   2.43701e-33
      373.024   2.28465e-33
      373.124   2.14030e-33
      373.223   2.00639e-33
      373.323   1.87951e-33
      373.422   1.76168e-33
      373.522   1.65008e-33
      373.621   1.54656e-33
      373.721   1.44846e-33
      373.820   1.35744e-33
      373.920   1.27124e-33
      374.020   1.19039e-33
      374.119   1.11546e-33
      374.219   1.04444e-33
      374.319   9.77939e-34
      374.419   9.15655e-34
      374.518   8.57818e-34
      374.618   8.03080e-34
      374.718   7.51760e-34
      374.818   7.03750e-34
      374.918   6.58777e-34
      375.018   6.16611e-34
      375.118   5.77143e-34
      375.218   5.40152e-34
      375.318   5.05523e-34
      375.418   4.73075e-34
      375.518   4.42714e-34
      375.618   4.14280e-34
      375.718   3.87643e-34
      375.818   3.62709e-34
      375.918   3.39362e-34
      376.019   3.17297e-34
      376.119   2.96840e-34
      376.219   2.77698e-34
      376.319   2.59768e-34
      376.420   2.42833e-34
      376.520   2.27141e-34
      376.620   2.12456e-34
      376.721   1.98572e-34
      376.821   1.85716e-34
      376.922   1.73567e-34
      377.022   1.62311e-34
      377.122   1.51784e-34
      377.223   1.41835e-34
      377.323   1.32623e-34
      377.424   1.23915e-34
      377.525   1.15779e-34
      377.625   1.08244e-34
      377.726   1.01128e-34
      377.827   9.44738e-35
      377.927   8.83116e-35
      378.028   8.24954e-35
      378.129   7.70560e-35
      378.230   7.19722e-35
      378.330   6.72680e-35
      378.431   6.28267e-35
      378.532   5.86784e-35
      378.633   5.47982e-35
      378.734   5.11723e-35
      378.835   4.77857e-35
      378.936   4.46211e-35
      379.037   4.16643e-35
      379.138   3.89012e-35
      379.239   3.63192e-35
      379.340   3.39088e-35
      379.441   3.16559e-35
      379.542   2.95510e-35
      379.643   2.75855e-35
      379.745   2.57321e-35
      379.846   2.40177e-35
      379.947   2.24168e-35
      380.048   2.09223e-35
      380.150   1.95126e-35
      380.251   1.82096e-35
      380.352   1.69933e-35
      380.454   1.58468e-35
      380.555   1.47867e-35
      380.656   1.37967e-35
      380.758   1.28638e-35
      380.859   1.20018e-35
      380.961   1.11897e-35
      381.062   1.04391e-35
      381.164   9.73144e-36
      381.266   9.07153e-36
      381.367   8.46167e-36
      381.469   7.88722e-36
      381.570   7.35657e-36
      381.672   6.85662e-36
      381.774   6.39012e-36
      381.876   5.95527e-36
      381.977   5.55353e-36
      382.079   5.17515e-36
      382.181   4.82230e-36
      382.283   4.49350e-36
      382.385   4.18678e-36
      382.487   3.90065e-36
      382.589   3.63417e-36
      382.691   3.38571e-36
      382.793   3.15411e-36
      382.895   2.93818e-36
      382.997   2.73688e-36
      383.099   2.54928e-36
      383.201   2.37449e-36
      383.303   2.21150e-36
      383.405   2.05965e-36
      383.507   1.91817e-36
      383.610   1.78511e-36
      383.712   1.66229e-36
      383.814   1.54795e-36
      383.916   1.44138e-36
      384.019   1.34114e-36
      384.121   1.24867e-36
      384.223   1.16256e-36
      384.326   1.08159e-36
      384.428   1.00690e-36
      384.531   9.36683e-37
      384.633   8.71933e-37
      384.736   8.11045e-37
      384.838   7.54897e-37
      384.941   7.02129e-37
      385.043   6.53470e-37
      385.146   6.07746e-37
      385.249   5.65195e-37
      385.351   5.25959e-37
      385.454   4.89081e-37
      385.557   4.54789e-37
      385.660   4.22865e-37
      385.762   3.93455e-37
      385.865   3.65815e-37
      385.968   3.40093e-37
      386.071   3.16163e-37
      386.174   2.93911e-37
      386.277   2.73220e-37
      386.380   2.53972e-37
      386.483   2.36067e-37
      386.586   2.19422e-37
      386.689   2.03936e-37
      386.792   1.89533e-37
      386.895   1.76143e-37
      386.998   1.63692e-37
      387.101   1.52118e-37
      387.204   1.41348e-37
      387.308   1.31246e-37
      387.411   1.21946e-37
      387.514   1.13301e-37
      387.617   1.05266e-37
      387.721   9.77283e-38
      387.824   9.07894e-38
      387.927   8.43349e-38
      388.031   7.82850e-38
      388.134   7.27167e-38
      388.238   6.74974e-38
      388.341   6.26890e-38
      388.445   5.81811e-38
      388.548   5.40325e-38
      388.652   5.01438e-38
      388.755   4.65659e-38
      388.859   4.32109e-38
      388.962   4.01239e-38
      389.066   3.72285e-38
      389.170   3.45429e-38
      389.274   3.20477e-38
      389.377   2.97527e-38
      389.481   2.76009e-38
      389.585   2.56049e-38
      389.689   2.37517e-38
      389.793   2.20308e-38
      389.897   2.04353e-38
      390.000   1.89665e-38
      390.104   1.75912e-38
      390.208   1.63141e-38
      390.312   1.51293e-38
      390.416   1.40302e-38
      390.520   1.30099e-38
      390.625   1.20540e-38
      390.729   1.11769e-38
      390.833   1.03626e-38
      390.937   9.60711e-39
      391.041   8.90668e-39
      391.145   8.25699e-39
      391.250   7.64847e-39
      391.354   7.09001e-39
      391.458   6.57186e-39
      391.563   6.08685e-39
      391.667   5.64153e-39
      391.771   5.22860e-39
      391.876   4.84204e-39
      391.980   4.48710e-39
      392.085   4.15509e-39
      392.189   3.85021e-39
      392.294   3.56491e-39
      392.398   3.30307e-39
      392.503   3.05809e-39
      392.607   2.83324e-39
      392.712   2.62290e-39
      392.817   2.42798e-39
      392.921   2.24917e-39
      393.026   2.08186e-39
      393.131   1.92697e-39
      393.236   1.78343e-39
      393.340   1.65175e-39
      393.445   1.52865e-39
      393.550   1.41465e-39
      393.655   1.30904e-39
      393.760   1.21132e-39
      393.865   1.12080e-39
      393.970   1.03706e-39
      394.075   9.59462e-40
      394.180   8.87675e-40
      394.285   8.21195e-40
      394.390   7.59685e-40
      394.495   7.02712e-40
      394.600   6.50005e-40
      394.706   6.00783e-40
      394.811   5.55681e-40
      394.916   5.13907e-40
      395.021   4.75266e-40
      395.126   4.39527e-40
      395.232   4.06144e-40
      395.337   3.75548e-40
      395.443   3.46998e-40
      395.548   3.20834e-40
      395.653   2.96637e-40
      395.759   2.74032e-40
      395.864   2.53341e-40
      395.970   2.34021e-40
      396.075   2.16324e-40
      396.181   1.99810e-40
      396.286   1.84676e-40
      396.392   1.70569e-40
      396.498   1.57524e-40
      396.603   1.45572e-40
      396.709   1.34428e-40
      396.815   1.24131e-40
      396.921   1.14612e-40
      397.026   1.05900e-40
      397.132   9.77686e-41
      397.238   9.02646e-41
      397.344   8.33240e-41
      397.450   7.69257e-41
      397.556   7.10052e-41
      397.662   6.55387e-41
      397.768   6.04899e-41
      397.874   5.58291e-41
      397.980   5.15215e-41
      398.086   4.75447e-41
      398.192   4.38761e-41
      398.298   4.04863e-41
      398.404   3.73558e-41
      398.510   3.44677e-41
      398.617   3.17772e-41
      398.723   2.93166e-41
      398.829   2.70423e-41
      398.935   2.49459e-41
      399.042   2.29939e-41
      399.148   2.12087e-41
      399.255   1.95467e-41
      399.361   1.80291e-41
      399.467   1.66236e-41
      399.574   1.53204e-41
      399.680   1.41279e-41
      399.787   1.30167e-41
      399.893       0.00000
      400.000       0.00000
