Filter Al-med
observation_date 22-Sept-2021 22:45:45
wavelength effective area
      1.00000   2.66384e-10
      1.10000   7.49522e-10
      1.20000   1.91512e-09
      1.30000   4.48760e-09
      1.40000   9.94632e-09
      1.50000   2.06561e-08
      1.60000   4.05595e-08
      1.70000   7.60790e-08
      1.80000   1.36311e-07
      1.90000   2.34789e-07
      2.00000   3.89499e-07
      2.10000   6.24938e-07
      2.20000   9.74164e-07
      2.30000   1.47327e-06
      2.40000   2.16527e-06
      2.50000   3.08200e-06
      2.60000   4.35708e-06
      2.70000   5.98512e-06
      2.80000   8.02215e-06
      2.90000   1.05757e-05
      3.00000   1.36491e-05
      3.10000   1.72878e-05
      3.20000   2.15264e-05
      3.30000   2.63684e-05
      3.40000   3.17695e-05
      3.50000   3.76792e-05
      3.60000   4.41658e-05
      3.70000   5.09341e-05
      3.80000   5.80788e-05
      3.90000   6.54283e-05
      4.00000   7.27863e-05
      4.10000   8.00611e-05
      4.20000   8.71565e-05
      4.30000   9.39556e-05
      4.40000   0.000100327
      4.50000   0.000106123
      4.60000   0.000111162
      4.70000   0.000115607
      4.80000   0.000119205
      4.90000   0.000120673
      5.00000   0.000124281
      5.10000   0.000125579
      5.20000   0.000126154
      5.30000   0.000125031
      5.40000   0.000122711
      5.50000   0.000119881
      5.60000   0.000112835
      5.70000   0.000111167
      5.80000   9.77683e-05
      5.90000   0.000111556
      6.00000   0.000111426
      6.10000   0.000105171
      6.20000   9.55624e-05
      6.30000   8.25606e-05
      6.40000   6.78453e-05
      6.50000   5.31451e-05
      6.60000   3.94525e-05
      6.70000   2.87413e-05
      6.80000   2.03393e-05
      6.90000   1.86925e-05
      7.00000   1.41824e-05
      7.10000   1.03988e-05
      7.20000   7.48153e-06
      7.30000   5.33472e-06
      7.40000   3.77701e-06
      7.50000   2.63089e-06
      7.60000   1.80031e-06
      7.70000   1.22762e-06
      7.80000   8.18889e-07
      7.90000   5.41035e-07
      8.00000      0.298610
      8.10000      0.314892
      8.20000      0.307860
      8.30000      0.299359
      8.40000      0.290301
      8.50000      0.280967
      8.60000      0.271315
      8.70000      0.261501
      8.80000      0.251496
      8.90000      0.241406
      9.00000      0.231286
      9.10000      0.221181
      9.20000      0.211132
      9.30000      0.201221
      9.40000      0.191442
      9.50000      0.181822
      9.60000      0.172442
      9.70000      0.163273
      9.80000      0.154303
      9.90000      0.145588
      10.0000      0.137129
      10.1000      0.128927
      10.2000      0.120997
      10.3000      0.113392
      10.4000      0.106121
      10.5000     0.0991554
      10.6000     0.0925003
      10.7000     0.0861549
      10.8000     0.0801313
      10.9000     0.0744400
      11.0000     0.0690453
      11.1000     0.0639432
      11.2000     0.0591261
      11.3000     0.0545888
      11.4000     0.0503219
      11.5000     0.0463158
      11.6000     0.0425623
      11.7000     0.0390652
      11.8000     0.0358048
      11.9000     0.0327939
      12.0000     0.0299759
      12.1000     0.0274740
      12.2000     0.0256071
      12.3000     0.0235596
      12.4000     0.0214712
      12.5000     0.0195246
      12.6000     0.0177221
      12.7000     0.0160585
      12.8000     0.0145279
      12.9000     0.0131235
      13.0000     0.0118372
      13.1000     0.0106608
      13.2000    0.00958687
      13.3000    0.00860795
      13.4000    0.00771732
      13.5000    0.00691044
      13.6000    0.00618571
      13.7000    0.00552906
      13.8000    0.00493478
      13.9000    0.00439785
      14.0000    0.00391330
      14.1000    0.00347647
      14.2000    0.00308318
      14.3000    0.00272964
      14.4000    0.00241234
      14.5000    0.00212993
      14.6000    0.00188018
      14.7000    0.00165673
      14.8000    0.00145704
      14.9000    0.00127881
      15.0000    0.00111999
      15.1000   0.000978712
      15.2000   0.000856179
      15.3000   0.000747860
      15.4000   0.000651734
      15.5000   0.000566574
      15.6000   0.000491294
      15.7000   0.000425949
      15.8000   0.000369593
      15.9000   0.000319893
      16.0000   0.000276153
      16.1000   0.000237749
      16.2000   0.000205241
      16.3000   0.000176982
      16.4000   0.000152115
      16.5000   0.000130289
      16.6000   0.000111635
      16.7000   9.57713e-05
      16.8000   8.18295e-05
      16.9000   6.96223e-05
      17.0000   5.92968e-05
      17.1000   5.05605e-05
      17.2000   4.29003e-05
      17.3000   3.62223e-05
      17.4000   3.07984e-05
      17.5000   2.61734e-05
      17.6000   2.21631e-05
      17.7000   1.87778e-05
      17.8000   1.60503e-05
      17.9000   1.36439e-05
      18.0000   1.15238e-05
      18.1000   9.79882e-06
      18.2000   8.27491e-06
      18.3000   6.92279e-06
      18.4000   5.79611e-06
      18.5000   4.82961e-06
      18.6000   3.97582e-06
      18.7000   3.26780e-06
      18.8000   2.68529e-06
      18.9000   2.18171e-06
      19.0000   1.78262e-06
      19.1000   1.45710e-06
      19.2000   1.17697e-06
      19.3000   9.61395e-07
      19.4000   7.83302e-07
      19.5000   6.30313e-07
      19.6000   5.16806e-07
      19.7000   4.19817e-07
      19.8000   3.37461e-07
      19.9000   2.76964e-07
      20.0000   2.23640e-07
      20.1000   1.80638e-07
      20.2000   1.46858e-07
      20.3000   1.17308e-07
      20.4000   9.51717e-08
      20.5000   7.64509e-08
      20.6000   6.07724e-08
      20.7000   4.91960e-08
      20.8000   3.89512e-08
      20.9000   3.12310e-08
      21.0000   2.48756e-08
      21.1000   1.95450e-08
      21.2000   1.56963e-08
      21.3000   1.22722e-08
      21.4000   9.77853e-09
      21.5000   7.68919e-09
      21.6000   6.00883e-09
      21.7000   4.76060e-09
      21.8000   3.65704e-09
      21.9000   2.91402e-09
      22.0000   2.24820e-09
      22.1000   1.76010e-09
      22.2000   1.36231e-09
      22.3000   1.04295e-09
      22.4000   8.00506e-10
      22.5000   5.83240e-10
      22.6000   4.18493e-10
      22.7000   2.81866e-10
      22.8000   2.71019e-10
      22.9000   2.68943e-10
      23.0000   2.72475e-10
      23.1000   2.53282e-10
      23.2000   2.12700e-10
      23.3000   1.73213e-10
      23.4000   1.34294e-10
      23.5000   1.06439e-10
      23.6000   8.13522e-11
      23.7000   6.45770e-11
      23.8000   4.87335e-11
      23.9000   3.86823e-11
      24.0000   2.91620e-11
      24.1000   2.29561e-11
      24.2000   1.72711e-11
      24.3000   1.35061e-11
      24.4000   1.01545e-11
      24.5000   7.89895e-12
      24.6000   5.93564e-12
      24.7000   4.59588e-12
      24.8000   3.45042e-12
      24.9000   2.66718e-12
      25.0000   2.00189e-12
      25.1000   1.54298e-12
      25.2000   1.15433e-12
      25.3000   8.89194e-13
      25.4000   6.62913e-13
      25.5000   5.10133e-13
      25.6000   3.77967e-13
      25.7000   2.90971e-13
      25.8000   2.14017e-13
      25.9000   1.64958e-13
      26.0000   1.20240e-13
      26.1000   9.28937e-14
      26.2000   6.70093e-14
      26.3000   5.19434e-14
      26.4000   3.70273e-14
      26.5000   2.88250e-14
      26.6000   2.06673e-14
      26.7000   1.58660e-14
      26.8000   1.14827e-14
      26.9000   8.65971e-15
      27.0000   6.33308e-15
      27.1000   4.68260e-15
      27.2000   3.46252e-15
      27.3000   2.50911e-15
      27.4000   1.88608e-15
      27.5000   1.34244e-15
      27.6000   1.01879e-15
      27.7000   7.05785e-16
      27.8000   5.42034e-16
      27.9000   3.79171e-16
      28.0000   2.84808e-16
      28.1000   2.04118e-16
      28.2000   1.48422e-16
      28.3000   1.09420e-16
      28.4000   7.73539e-17
      28.5000   5.82753e-17
      28.6000   3.99958e-17
      28.7000   3.10359e-17
      28.8000   2.21257e-17
      28.9000   1.66762e-17
      29.0000   1.22285e-17
      29.1000   8.84144e-18
      29.2000   6.64972e-18
      29.3000   4.62350e-18
      29.4000   3.55723e-18
      29.5000   2.49700e-18
      29.6000   1.87167e-18
      29.7000   1.36272e-18
      29.8000   9.68521e-19
      29.9000   7.27491e-19
      30.0000   4.92835e-19
      30.1000   3.80237e-19
      30.2000   2.68282e-19
      30.3000   1.96489e-19
      30.4000   1.47729e-19
      30.5000   1.04189e-19
      30.6000   7.92547e-20
      30.7000   5.44628e-20
      30.8000   4.01642e-20
      30.9000   2.90562e-20
      31.0000   1.98780e-20
      31.1000   1.49739e-20
      31.2000   1.00981e-20
      31.3000   7.48500e-21
      31.4000   5.36465e-21
      31.5000   3.63949e-21
      31.6000   2.73139e-21
      31.7000   1.82861e-21
      31.8000   1.34188e-21
      31.9000   9.61168e-22
      32.0000   6.38803e-22
      32.1000   4.80763e-22
      32.2000   3.23648e-22
      32.3000   2.30946e-22
      32.4000   1.66794e-22
      32.5000   1.07168e-22
      32.6000   8.14114e-23
      32.7000   5.58056e-23
      32.8000   3.80611e-23
      32.9000   2.79396e-23
      33.0000   1.78777e-23
      33.1000   1.32191e-23
      33.2000   9.31105e-24
      33.3000   5.98279e-24
      33.4000   4.48906e-24
      33.5000   3.00387e-24
      33.6000   2.04583e-24
      33.7000   1.48810e-24
      33.8000   9.33516e-25
      33.9000   6.85577e-25
      34.0000   4.80977e-25
      34.1000   2.99017e-25
      34.2000   2.23890e-25
      34.3000   1.49161e-25
      34.4000   9.58717e-26
      34.5000   7.00052e-26
      34.6000   4.42787e-26
      34.7000   2.98965e-26
      34.8000   2.08012e-26
      34.9000   1.17546e-26
      35.0000   8.40379e-27
      35.1000   5.65449e-27
      35.2000   3.12608e-27
      35.3000   2.31061e-27
      35.4000   1.49953e-27
      35.5000   8.56484e-28
      35.6000   6.21771e-28
      35.7000   3.88321e-28
      35.8000   2.29716e-28
      35.9000   1.63846e-28
      36.0000   9.83312e-29
      36.1000   6.03309e-29
      36.2000   4.23143e-29
      36.3000   2.43953e-29
      36.4000   1.55184e-29
      36.5000   1.07176e-29
      36.6000   5.94316e-30
      36.7000   3.90900e-30
      36.8000   2.66416e-30
      36.9000   1.42621e-30
      37.0000   9.64663e-31
      37.1000   6.50604e-31
      37.2000   3.38262e-31
      37.3000   2.33230e-31
      37.4000   1.56169e-31
      37.5000   7.95355e-32
      37.6000   5.52345e-32
      37.7000   3.68591e-32
      37.8000   1.85861e-32
      37.9000   1.28105e-32
      38.0000   8.55353e-33
      38.1000   4.32019e-33
      38.2000   2.90772e-33
      38.3000   1.95022e-33
      38.4000   9.98038e-34
      38.5000   6.45281e-34
      38.6000   4.36387e-34
      38.7000   2.28658e-34
      38.8000   1.39902e-34
      38.9000   9.57140e-35
      39.0000   5.17714e-35
      39.1000   2.96005e-35
      39.2000   2.05428e-35
      39.3000   1.15355e-35
      39.4000   6.10402e-36
      39.5000   4.30595e-36
      39.6000   2.51805e-36
      39.7000   1.22512e-36
      39.8000   8.79728e-37
      39.9000   5.36266e-37
      40.0000   2.39005e-37
      40.1000   1.74835e-37
      40.2000   1.11024e-37
      40.3000   4.75790e-38
      40.4000   3.37333e-38
      40.5000   2.22754e-38
      40.6000   1.08817e-38
      40.7000   6.30693e-39
      40.8000   4.31955e-39
      40.9000   2.34354e-39
      41.0000   1.14033e-39
      41.1000   8.07776e-40
      41.2000   4.77132e-40
      41.3000   1.99129e-40
      41.4000   1.45473e-40
      41.5000   9.21144e-41
      41.6000   3.90584e-41
      41.7000   2.51981e-41
      41.8000   1.68983e-41
      41.9000   8.64601e-42
      42.0000   4.19549e-42
      42.1000   2.94833e-42
      42.2000   1.71239e-42
      42.3000   6.68419e-43
      42.4000   4.89053e-43
      42.5000   3.12490e-43
      42.6000   1.37327e-43
      42.7000   7.70714e-44
      42.8000   5.04467e-44
      42.9000   2.52234e-44
      43.0000   1.26117e-44
      43.1000   9.80909e-45
      43.2000   7.00649e-45
      43.3000       0.00000
      43.4000   2.80260e-45
      43.5000   2.80260e-45
      43.6000   2.80260e-45
      43.7000       0.00000
      43.8000       0.00000
      43.9000       0.00000
      44.0000       0.00000
      44.1000       0.00000
      44.2000       0.00000
      44.3000       0.00000
      44.4000       0.00000
      44.5000       0.00000
      44.6000       0.00000
      44.7000       0.00000
      44.8000       0.00000
      44.9000       0.00000
      45.0000       0.00000
      45.1000       0.00000
      45.2000       0.00000
      45.3000       0.00000
      45.4000       0.00000
      45.5000       0.00000
      45.6000       0.00000
      45.7000       0.00000
      45.8000       0.00000
      45.9000       0.00000
      46.0000       0.00000
      46.1000       0.00000
      46.2000       0.00000
      46.3000       0.00000
      46.4000       0.00000
      46.5000       0.00000
      46.6000       0.00000
      46.7000       0.00000
      46.8000       0.00000
      46.9000       0.00000
      47.0000       0.00000
      47.1000       0.00000
      47.2000       0.00000
      47.3000       0.00000
      47.4000       0.00000
      47.5000       0.00000
      47.6000       0.00000
      47.7000       0.00000
      47.8000       0.00000
      47.9000       0.00000
      48.0000       0.00000
      48.1000       0.00000
      48.2000       0.00000
      48.3000       0.00000
      48.4000       0.00000
      48.5000       0.00000
      48.6000       0.00000
      48.7000       0.00000
      48.8000       0.00000
      48.9000       0.00000
      49.0000       0.00000
      49.1000       0.00000
      49.2000       0.00000
      49.3000       0.00000
      49.4000       0.00000
      49.5000       0.00000
      49.6000       0.00000
      49.7000       0.00000
      49.8000       0.00000
      49.9000       0.00000
      50.0000       0.00000
      50.1000       0.00000
      50.2000       0.00000
      50.3000       0.00000
      50.4000       0.00000
      50.5000       0.00000
      50.6000       0.00000
      50.7000       0.00000
      50.8000       0.00000
      50.9000       0.00000
      51.0000       0.00000
      51.1000       0.00000
      51.2000       0.00000
      51.3000       0.00000
      51.4000       0.00000
      51.5000       0.00000
      51.6000       0.00000
      51.7000       0.00000
      51.8000       0.00000
      51.9000       0.00000
      52.0000       0.00000
      52.1000       0.00000
      52.2000       0.00000
      52.3000       0.00000
      52.4000       0.00000
      52.5000       0.00000
      52.6000       0.00000
      52.7000       0.00000
      52.8000       0.00000
      52.9000       0.00000
      53.0000       0.00000
      53.1000       0.00000
      53.2000       0.00000
      53.3000       0.00000
      53.4000       0.00000
      53.5000       0.00000
      53.6000       0.00000
      53.7000       0.00000
      53.8000       0.00000
      53.9000       0.00000
      54.0000       0.00000
      54.1000       0.00000
      54.2000       0.00000
      54.3000       0.00000
      54.4000       0.00000
      54.5000       0.00000
      54.6000       0.00000
      54.7000       0.00000
      54.8000       0.00000
      54.9000       0.00000
      55.0000       0.00000
      55.1000       0.00000
      55.2000       0.00000
      55.3000       0.00000
      55.4000       0.00000
      55.5000       0.00000
      55.6000       0.00000
      55.7000       0.00000
      55.8000       0.00000
      55.9000       0.00000
      56.0000       0.00000
      56.1000       0.00000
      56.2000       0.00000
      56.3000       0.00000
      56.4000       0.00000
      56.5000       0.00000
      56.6000       0.00000
      56.7000       0.00000
      56.8000       0.00000
      56.9000       0.00000
      57.0000       0.00000
      57.1000       0.00000
      57.2000       0.00000
      57.3000       0.00000
      57.4000       0.00000
      57.5000       0.00000
      57.6000       0.00000
      57.7000       0.00000
      57.8000       0.00000
      57.9000       0.00000
      58.0000       0.00000
      58.1000       0.00000
      58.2000       0.00000
      58.3000       0.00000
      58.4000       0.00000
      58.5000       0.00000
      58.6000       0.00000
      58.7000       0.00000
      58.8000       0.00000
      58.9000       0.00000
      59.0000       0.00000
      59.1000       0.00000
      59.2000       0.00000
      59.3000       0.00000
      59.4000       0.00000
      59.5000       0.00000
      59.6000       0.00000
      59.7000       0.00000
      59.8000       0.00000
      59.9000       0.00000
      60.0000       0.00000
      60.1000       0.00000
      60.2000       0.00000
      60.3000       0.00000
      60.4000       0.00000
      60.5000       0.00000
      60.6000       0.00000
      60.7000       0.00000
      60.8000       0.00000
      60.9000       0.00000
      61.0000       0.00000
      61.1000       0.00000
      61.2000       0.00000
      61.3000       0.00000
      61.4000       0.00000
      61.5000       0.00000
      61.6000       0.00000
      61.7000       0.00000
      61.8000       0.00000
      61.9000       0.00000
      62.0000       0.00000
      62.1000       0.00000
      62.2000       0.00000
      62.3000       0.00000
      62.4000       0.00000
      62.5000       0.00000
      62.6000       0.00000
      62.7000       0.00000
      62.8000       0.00000
      62.9000       0.00000
      63.0000       0.00000
      63.1000       0.00000
      63.2000       0.00000
      63.3000       0.00000
      63.4000       0.00000
      63.5000       0.00000
      63.6000       0.00000
      63.7000       0.00000
      63.8000       0.00000
      63.9000       0.00000
      64.0000       0.00000
      64.1000       0.00000
      64.2000       0.00000
      64.3000       0.00000
      64.4000       0.00000
      64.5000       0.00000
      64.6000       0.00000
      64.7000       0.00000
      64.8000       0.00000
      64.9000       0.00000
      65.0000       0.00000
      65.1000       0.00000
      65.2000       0.00000
      65.3000       0.00000
      65.4000       0.00000
      65.5000       0.00000
      65.6000       0.00000
      65.7000       0.00000
      65.8000       0.00000
      65.9000       0.00000
      66.0000       0.00000
      66.1000       0.00000
      66.2000       0.00000
      66.3000       0.00000
      66.4000       0.00000
      66.5000       0.00000
      66.6000       0.00000
      66.7000       0.00000
      66.8000       0.00000
      66.9000       0.00000
      67.0000       0.00000
      67.1000       0.00000
      67.2000       0.00000
      67.3000       0.00000
      67.4000       0.00000
      67.5000       0.00000
      67.6000       0.00000
      67.7000       0.00000
      67.8000       0.00000
      67.9000       0.00000
      68.0000       0.00000
      68.1000       0.00000
      68.2000       0.00000
      68.3000       0.00000
      68.4000       0.00000
      68.5000       0.00000
      68.6000       0.00000
      68.7000       0.00000
      68.8000       0.00000
      68.9000       0.00000
      69.0000       0.00000
      69.1000       0.00000
      69.2000       0.00000
      69.3000       0.00000
      69.4000       0.00000
      69.5000       0.00000
      69.6000       0.00000
      69.7000       0.00000
      69.8000       0.00000
      69.9000       0.00000
      70.0000       0.00000
      70.1000       0.00000
      70.2000       0.00000
      70.3000       0.00000
      70.4000       0.00000
      70.5000       0.00000
      70.6000       0.00000
      70.7000       0.00000
      70.8000       0.00000
      70.9000       0.00000
      71.0000       0.00000
      71.1000       0.00000
      71.2000       0.00000
      71.3000       0.00000
      71.4000       0.00000
      71.5000       0.00000
      71.6000       0.00000
      71.7000       0.00000
      71.8000       0.00000
      71.9000       0.00000
      72.0000       0.00000
      72.1000       0.00000
      72.2000       0.00000
      72.3000       0.00000
      72.4000       0.00000
      72.5000       0.00000
      72.6000       0.00000
      72.7000       0.00000
      72.8000       0.00000
      72.9000       0.00000
      73.0000       0.00000
      73.1000       0.00000
      73.2000       0.00000
      73.3000       0.00000
      73.4000       0.00000
      73.5000       0.00000
      73.6000       0.00000
      73.7000       0.00000
      73.8000       0.00000
      73.9000       0.00000
      74.0000       0.00000
      74.1000       0.00000
      74.2000       0.00000
      74.3000       0.00000
      74.4000       0.00000
      74.5000       0.00000
      74.6000       0.00000
      74.7000       0.00000
      74.8000       0.00000
      74.9000       0.00000
      75.0000       0.00000
      75.1000       0.00000
      75.2000       0.00000
      75.3000       0.00000
      75.4000       0.00000
      75.5000       0.00000
      75.6000       0.00000
      75.7000       0.00000
      75.8000       0.00000
      75.9000       0.00000
      76.0000       0.00000
      76.1000       0.00000
      76.2000       0.00000
      76.3000       0.00000
      76.4000       0.00000
      76.5000       0.00000
      76.6000       0.00000
      76.7000       0.00000
      76.8000       0.00000
      76.9000       0.00000
      77.0000       0.00000
      77.1000       0.00000
      77.2000       0.00000
      77.3000       0.00000
      77.4000       0.00000
      77.5000       0.00000
      77.6000       0.00000
      77.7000       0.00000
      77.8000       0.00000
      77.9000       0.00000
      78.0000       0.00000
      78.1000       0.00000
      78.2000       0.00000
      78.3000       0.00000
      78.4000       0.00000
      78.5000       0.00000
      78.6000       0.00000
      78.7000       0.00000
      78.8000       0.00000
      78.9000       0.00000
      79.0000       0.00000
      79.1000       0.00000
      79.2000       0.00000
      79.3000       0.00000
      79.4000       0.00000
      79.5000       0.00000
      79.6000       0.00000
      79.7000       0.00000
      79.8000       0.00000
      79.9000       0.00000
      80.0000       0.00000
      80.1000       0.00000
      80.2000       0.00000
      80.3000       0.00000
      80.4000       0.00000
      80.5000       0.00000
      80.6000       0.00000
      80.7000       0.00000
      80.8000       0.00000
      80.9000       0.00000
      81.0000       0.00000
      81.1000       0.00000
      81.2000       0.00000
      81.3000       0.00000
      81.4000       0.00000
      81.5000       0.00000
      81.6000       0.00000
      81.7000       0.00000
      81.8000       0.00000
      81.9000       0.00000
      82.0000       0.00000
      82.1000       0.00000
      82.2000       0.00000
      82.3000       0.00000
      82.4000       0.00000
      82.5000       0.00000
      82.6000       0.00000
      82.7000       0.00000
      82.8000       0.00000
      82.9000       0.00000
      83.0000       0.00000
      83.1000       0.00000
      83.2000       0.00000
      83.3000       0.00000
      83.4000       0.00000
      83.5000       0.00000
      83.6000       0.00000
      83.7000       0.00000
      83.8000       0.00000
      83.9000       0.00000
      84.0000       0.00000
      84.1000       0.00000
      84.2000       0.00000
      84.3000       0.00000
      84.4000       0.00000
      84.5000       0.00000
      84.6000       0.00000
      84.7000       0.00000
      84.8000       0.00000
      84.9000       0.00000
      85.0000       0.00000
      85.1000       0.00000
      85.2000       0.00000
      85.3000       0.00000
      85.4000       0.00000
      85.5000       0.00000
      85.6000       0.00000
      85.7000       0.00000
      85.8000       0.00000
      85.9000       0.00000
      86.0000       0.00000
      86.1000       0.00000
      86.2000       0.00000
      86.3000       0.00000
      86.4000       0.00000
      86.5000       0.00000
      86.6000       0.00000
      86.7000       0.00000
      86.8000       0.00000
      86.9000       0.00000
      87.0000       0.00000
      87.1000       0.00000
      87.2000       0.00000
      87.3000       0.00000
      87.4000       0.00000
      87.5000       0.00000
      87.6000       0.00000
      87.7000       0.00000
      87.8000       0.00000
      87.9000       0.00000
      88.0000       0.00000
      88.1000       0.00000
      88.2000       0.00000
      88.3000       0.00000
      88.4000       0.00000
      88.5000       0.00000
      88.6000       0.00000
      88.7000       0.00000
      88.8000       0.00000
      88.9000       0.00000
      89.0000       0.00000
      89.1000       0.00000
      89.2000       0.00000
      89.3000       0.00000
      89.4000       0.00000
      89.5000       0.00000
      89.6000       0.00000
      89.7000       0.00000
      89.8000       0.00000
      89.9000       0.00000
      90.0000       0.00000
      90.1000       0.00000
      90.2000       0.00000
      90.3000       0.00000
      90.4000       0.00000
      90.5000       0.00000
      90.6000       0.00000
      90.7000       0.00000
      90.8000       0.00000
      90.9000       0.00000
      91.0000       0.00000
      91.1000       0.00000
      91.2000       0.00000
      91.3000       0.00000
      91.4000       0.00000
      91.5000       0.00000
      91.6000       0.00000
      91.7000       0.00000
      91.8000       0.00000
      91.9000       0.00000
      92.0000       0.00000
      92.1000       0.00000
      92.2000       0.00000
      92.3000       0.00000
      92.4000       0.00000
      92.5000       0.00000
      92.6000       0.00000
      92.7000       0.00000
      92.8000       0.00000
      92.9000       0.00000
      93.0000       0.00000
      93.1000       0.00000
      93.2000       0.00000
      93.3000       0.00000
      93.4000       0.00000
      93.5000       0.00000
      93.6000       0.00000
      93.7000       0.00000
      93.8000       0.00000
      93.9000       0.00000
      94.0000       0.00000
      94.1000       0.00000
      94.2000       0.00000
      94.3000       0.00000
      94.4000       0.00000
      94.5000       0.00000
      94.6000       0.00000
      94.7000       0.00000
      94.8000       0.00000
      94.9000       0.00000
      95.0000       0.00000
      95.1000       0.00000
      95.2000       0.00000
      95.3000       0.00000
      95.4000       0.00000
      95.5000       0.00000
      95.6000       0.00000
      95.7000       0.00000
      95.8000       0.00000
      95.9000       0.00000
      96.0000       0.00000
      96.1000       0.00000
      96.2000       0.00000
      96.3000       0.00000
      96.4000       0.00000
      96.5000       0.00000
      96.6000       0.00000
      96.7000       0.00000
      96.8000       0.00000
      96.9000       0.00000
      97.0000       0.00000
      97.1000       0.00000
      97.2000       0.00000
      97.3000       0.00000
      97.4000       0.00000
      97.5000       0.00000
      97.6000       0.00000
      97.7000       0.00000
      97.8000       0.00000
      97.9000       0.00000
      98.0000       0.00000
      98.1000       0.00000
      98.2000       0.00000
      98.3000       0.00000
      98.4000       0.00000
      98.5000       0.00000
      98.6000       0.00000
      98.7000       0.00000
      98.8000       0.00000
      98.9000       0.00000
      99.0000       0.00000
      99.1000       0.00000
      99.2000       0.00000
      99.3000       0.00000
      99.4000       0.00000
      99.5000       0.00000
      99.6000       0.00000
      99.7000       0.00000
      99.8000       0.00000
      99.9000       0.00000
      100.000       0.00000
      100.100       0.00000
      100.200       0.00000
      100.300       0.00000
      100.400       0.00000
      100.500       0.00000
      100.600       0.00000
      100.700       0.00000
      100.800       0.00000
      100.900       0.00000
      101.000       0.00000
      101.100       0.00000
      101.200       0.00000
      101.300       0.00000
      101.400       0.00000
      101.500       0.00000
      101.600       0.00000
      101.700       0.00000
      101.800       0.00000
      101.900       0.00000
      102.000       0.00000
      102.100       0.00000
      102.200       0.00000
      102.300       0.00000
      102.400       0.00000
      102.500       0.00000
      102.600       0.00000
      102.700       0.00000
      102.800       0.00000
      102.900       0.00000
      103.000       0.00000
      103.100       0.00000
      103.200       0.00000
      103.300       0.00000
      103.400       0.00000
      103.500       0.00000
      103.600       0.00000
      103.700       0.00000
      103.800       0.00000
      103.900       0.00000
      104.000       0.00000
      104.100       0.00000
      104.200       0.00000
      104.300       0.00000
      104.400       0.00000
      104.500       0.00000
      104.600       0.00000
      104.700       0.00000
      104.800       0.00000
      104.900       0.00000
      105.000       0.00000
      105.100       0.00000
      105.200       0.00000
      105.300       0.00000
      105.400       0.00000
      105.500       0.00000
      105.600       0.00000
      105.700       0.00000
      105.800       0.00000
      105.900       0.00000
      106.000       0.00000
      106.100       0.00000
      106.200       0.00000
      106.300       0.00000
      106.400       0.00000
      106.500       0.00000
      106.600       0.00000
      106.700       0.00000
      106.800       0.00000
      106.900       0.00000
      107.000       0.00000
      107.100       0.00000
      107.200       0.00000
      107.300       0.00000
      107.400       0.00000
      107.500       0.00000
      107.600       0.00000
      107.700       0.00000
      107.800       0.00000
      107.900       0.00000
      108.000       0.00000
      108.100       0.00000
      108.200       0.00000
      108.300       0.00000
      108.400       0.00000
      108.500       0.00000
      108.600       0.00000
      108.700       0.00000
      108.800       0.00000
      108.900       0.00000
      109.000       0.00000
      109.100       0.00000
      109.200       0.00000
      109.300       0.00000
      109.400       0.00000
      109.500       0.00000
      109.600       0.00000
      109.700       0.00000
      109.800       0.00000
      109.900       0.00000
      110.000       0.00000
      110.100       0.00000
      110.200       0.00000
      110.300       0.00000
      110.400       0.00000
      110.500       0.00000
      110.600       0.00000
      110.700       0.00000
      110.800       0.00000
      110.900       0.00000
      111.000       0.00000
      111.100       0.00000
      111.200       0.00000
      111.300       0.00000
      111.400       0.00000
      111.500       0.00000
      111.600       0.00000
      111.700       0.00000
      111.800       0.00000
      111.900       0.00000
      112.000       0.00000
      112.100       0.00000
      112.200       0.00000
      112.300       0.00000
      112.400       0.00000
      112.500       0.00000
      112.600       0.00000
      112.700       0.00000
      112.800       0.00000
      112.900       0.00000
      113.000       0.00000
      113.100       0.00000
      113.200       0.00000
      113.300       0.00000
      113.400       0.00000
      113.500       0.00000
      113.600       0.00000
      113.700       0.00000
      113.800       0.00000
      113.900       0.00000
      114.000       0.00000
      114.100       0.00000
      114.200       0.00000
      114.300       0.00000
      114.400       0.00000
      114.500       0.00000
      114.600       0.00000
      114.700       0.00000
      114.800       0.00000
      114.900       0.00000
      115.000       0.00000
      115.100       0.00000
      115.200       0.00000
      115.300       0.00000
      115.400       0.00000
      115.500       0.00000
      115.600       0.00000
      115.700       0.00000
      115.800       0.00000
      115.900       0.00000
      116.000       0.00000
      116.100       0.00000
      116.200       0.00000
      116.300       0.00000
      116.400       0.00000
      116.500       0.00000
      116.600       0.00000
      116.700       0.00000
      116.800       0.00000
      116.900       0.00000
      117.000       0.00000
      117.100       0.00000
      117.200       0.00000
      117.300       0.00000
      117.400       0.00000
      117.500       0.00000
      117.600       0.00000
      117.700       0.00000
      117.800       0.00000
      117.900       0.00000
      118.000       0.00000
      118.100       0.00000
      118.200       0.00000
      118.300       0.00000
      118.400       0.00000
      118.500       0.00000
      118.600       0.00000
      118.700       0.00000
      118.800       0.00000
      118.900       0.00000
      119.000       0.00000
      119.100       0.00000
      119.200       0.00000
      119.300       0.00000
      119.400       0.00000
      119.500       0.00000
      119.600       0.00000
      119.700       0.00000
      119.800       0.00000
      119.900       0.00000
      120.000       0.00000
      120.100       0.00000
      120.200       0.00000
      120.300       0.00000
      120.400       0.00000
      120.500       0.00000
      120.600       0.00000
      120.700       0.00000
      120.800       0.00000
      120.900       0.00000
      121.000       0.00000
      121.100       0.00000
      121.200       0.00000
      121.300       0.00000
      121.400       0.00000
      121.500       0.00000
      121.600       0.00000
      121.700       0.00000
      121.800       0.00000
      121.900       0.00000
      122.000       0.00000
      122.100       0.00000
      122.200       0.00000
      122.300       0.00000
      122.400       0.00000
      122.500       0.00000
      122.600       0.00000
      122.700       0.00000
      122.800       0.00000
      122.900       0.00000
      123.000       0.00000
      123.100       0.00000
      123.200       0.00000
      123.300       0.00000
      123.400       0.00000
      123.500       0.00000
      123.600       0.00000
      123.700       0.00000
      123.800       0.00000
      123.900       0.00000
      124.000       0.00000
      124.100       0.00000
      124.200       0.00000
      124.300       0.00000
      124.400       0.00000
      124.500       0.00000
      124.600       0.00000
      124.700       0.00000
      124.800       0.00000
      124.900       0.00000
      125.000       0.00000
      125.100       0.00000
      125.200       0.00000
      125.300       0.00000
      125.400       0.00000
      125.500       0.00000
      125.600       0.00000
      125.700       0.00000
      125.800       0.00000
      125.900       0.00000
      126.000       0.00000
      126.100       0.00000
      126.200       0.00000
      126.300       0.00000
      126.400       0.00000
      126.500       0.00000
      126.600       0.00000
      126.700       0.00000
      126.800       0.00000
      126.900       0.00000
      127.000       0.00000
      127.100       0.00000
      127.200       0.00000
      127.300       0.00000
      127.400       0.00000
      127.500       0.00000
      127.600       0.00000
      127.700       0.00000
      127.800       0.00000
      127.900       0.00000
      128.000       0.00000
      128.100       0.00000
      128.200       0.00000
      128.300       0.00000
      128.400       0.00000
      128.500       0.00000
      128.600       0.00000
      128.700       0.00000
      128.800       0.00000
      128.900       0.00000
      129.000       0.00000
      129.100       0.00000
      129.200       0.00000
      129.300       0.00000
      129.400       0.00000
      129.500       0.00000
      129.600       0.00000
      129.700       0.00000
      129.800       0.00000
      129.900       0.00000
      130.000       0.00000
      130.100       0.00000
      130.200       0.00000
      130.300       0.00000
      130.400       0.00000
      130.500       0.00000
      130.600       0.00000
      130.700       0.00000
      130.800       0.00000
      130.900       0.00000
      131.000       0.00000
      131.100       0.00000
      131.200       0.00000
      131.300       0.00000
      131.400       0.00000
      131.500       0.00000
      131.600       0.00000
      131.700       0.00000
      131.800       0.00000
      131.900       0.00000
      132.000       0.00000
      132.100       0.00000
      132.200       0.00000
      132.300       0.00000
      132.400       0.00000
      132.500       0.00000
      132.600       0.00000
      132.700       0.00000
      132.800       0.00000
      132.900       0.00000
      133.000       0.00000
      133.100       0.00000
      133.200       0.00000
      133.300       0.00000
      133.400       0.00000
      133.500       0.00000
      133.600       0.00000
      133.700       0.00000
      133.800       0.00000
      133.900       0.00000
      134.000       0.00000
      134.100       0.00000
      134.200       0.00000
      134.300       0.00000
      134.400       0.00000
      134.500       0.00000
      134.600       0.00000
      134.700       0.00000
      134.800       0.00000
      134.900       0.00000
      135.000       0.00000
      135.100       0.00000
      135.200       0.00000
      135.300       0.00000
      135.400       0.00000
      135.500       0.00000
      135.600       0.00000
      135.700       0.00000
      135.800       0.00000
      135.900       0.00000
      136.000       0.00000
      136.100       0.00000
      136.200       0.00000
      136.300       0.00000
      136.400       0.00000
      136.500       0.00000
      136.600       0.00000
      136.700       0.00000
      136.800       0.00000
      136.900       0.00000
      137.000       0.00000
      137.100       0.00000
      137.200       0.00000
      137.300       0.00000
      137.400       0.00000
      137.500       0.00000
      137.600       0.00000
      137.700       0.00000
      137.800       0.00000
      137.900       0.00000
      138.000       0.00000
      138.100       0.00000
      138.200       0.00000
      138.300       0.00000
      138.400       0.00000
      138.500       0.00000
      138.600       0.00000
      138.700       0.00000
      138.800       0.00000
      138.900       0.00000
      139.000       0.00000
      139.100       0.00000
      139.200       0.00000
      139.300       0.00000
      139.400       0.00000
      139.500       0.00000
      139.600       0.00000
      139.700       0.00000
      139.800       0.00000
      139.900       0.00000
      140.000       0.00000
      140.100       0.00000
      140.200       0.00000
      140.300       0.00000
      140.400       0.00000
      140.500       0.00000
      140.600       0.00000
      140.700       0.00000
      140.800       0.00000
      140.900       0.00000
      141.000       0.00000
      141.100       0.00000
      141.200       0.00000
      141.300       0.00000
      141.400       0.00000
      141.500       0.00000
      141.600       0.00000
      141.700       0.00000
      141.800       0.00000
      141.900       0.00000
      142.000       0.00000
      142.100       0.00000
      142.200       0.00000
      142.300       0.00000
      142.400       0.00000
      142.500       0.00000
      142.600       0.00000
      142.700       0.00000
      142.800       0.00000
      142.900       0.00000
      143.000       0.00000
      143.100       0.00000
      143.200       0.00000
      143.300       0.00000
      143.400       0.00000
      143.500       0.00000
      143.600       0.00000
      143.700       0.00000
      143.800       0.00000
      143.900       0.00000
      144.000       0.00000
      144.100       0.00000
      144.200       0.00000
      144.300       0.00000
      144.400       0.00000
      144.500       0.00000
      144.600       0.00000
      144.700       0.00000
      144.800       0.00000
      144.900       0.00000
      145.000       0.00000
      145.100       0.00000
      145.200       0.00000
      145.300       0.00000
      145.400       0.00000
      145.500       0.00000
      145.600       0.00000
      145.700       0.00000
      145.800       0.00000
      145.900       0.00000
      146.000       0.00000
      146.100       0.00000
      146.200       0.00000
      146.300       0.00000
      146.400       0.00000
      146.500       0.00000
      146.600       0.00000
      146.700       0.00000
      146.800       0.00000
      146.900       0.00000
      147.000       0.00000
      147.100       0.00000
      147.200       0.00000
      147.300       0.00000
      147.400       0.00000
      147.500       0.00000
      147.600       0.00000
      147.700       0.00000
      147.800       0.00000
      147.900       0.00000
      148.000       0.00000
      148.100       0.00000
      148.200       0.00000
      148.300       0.00000
      148.400       0.00000
      148.500       0.00000
      148.600       0.00000
      148.700       0.00000
      148.800       0.00000
      148.900       0.00000
      149.000       0.00000
      149.100       0.00000
      149.200       0.00000
      149.300       0.00000
      149.400       0.00000
      149.500       0.00000
      149.600       0.00000
      149.700       0.00000
      149.800       0.00000
      149.900       0.00000
      150.000       0.00000
      150.100       0.00000
      150.200       0.00000
      150.300       0.00000
      150.400       0.00000
      150.500       0.00000
      150.600       0.00000
      150.700       0.00000
      150.800       0.00000
      150.900       0.00000
      151.000       0.00000
      151.100       0.00000
      151.200       0.00000
      151.300       0.00000
      151.400       0.00000
      151.500       0.00000
      151.600       0.00000
      151.700       0.00000
      151.800       0.00000
      151.900       0.00000
      152.000       0.00000
      152.100       0.00000
      152.200       0.00000
      152.300       0.00000
      152.400       0.00000
      152.500       0.00000
      152.600       0.00000
      152.700       0.00000
      152.800       0.00000
      152.900       0.00000
      153.000       0.00000
      153.100       0.00000
      153.200       0.00000
      153.300       0.00000
      153.400       0.00000
      153.500       0.00000
      153.600       0.00000
      153.700       0.00000
      153.800       0.00000
      153.900       0.00000
      154.000       0.00000
      154.100       0.00000
      154.200       0.00000
      154.300       0.00000
      154.400       0.00000
      154.500       0.00000
      154.600       0.00000
      154.700       0.00000
      154.800       0.00000
      154.900       0.00000
      155.000       0.00000
      155.100       0.00000
      155.200       0.00000
      155.300       0.00000
      155.400       0.00000
      155.500       0.00000
      155.600       0.00000
      155.700       0.00000
      155.800       0.00000
      155.900       0.00000
      156.000       0.00000
      156.100       0.00000
      156.200       0.00000
      156.300       0.00000
      156.400       0.00000
      156.500       0.00000
      156.600       0.00000
      156.700       0.00000
      156.800       0.00000
      156.900       0.00000
      157.000       0.00000
      157.100       0.00000
      157.200       0.00000
      157.300       0.00000
      157.400       0.00000
      157.500       0.00000
      157.600       0.00000
      157.700       0.00000
      157.800       0.00000
      157.900       0.00000
      158.000       0.00000
      158.100       0.00000
      158.200       0.00000
      158.300       0.00000
      158.400       0.00000
      158.500       0.00000
      158.600       0.00000
      158.700       0.00000
      158.800       0.00000
      158.900       0.00000
      159.000       0.00000
      159.100       0.00000
      159.200       0.00000
      159.300       0.00000
      159.400       0.00000
      159.500       0.00000
      159.600       0.00000
      159.700       0.00000
      159.800       0.00000
      159.900       0.00000
      160.000       0.00000
      160.100       0.00000
      160.200       0.00000
      160.300       0.00000
      160.400       0.00000
      160.500       0.00000
      160.600       0.00000
      160.700       0.00000
      160.800       0.00000
      160.900       0.00000
      161.000       0.00000
      161.100       0.00000
      161.200       0.00000
      161.300       0.00000
      161.400       0.00000
      161.500       0.00000
      161.600       0.00000
      161.700       0.00000
      161.800       0.00000
      161.900       0.00000
      162.000       0.00000
      162.100       0.00000
      162.200       0.00000
      162.300       0.00000
      162.400       0.00000
      162.500       0.00000
      162.600       0.00000
      162.700       0.00000
      162.800       0.00000
      162.900       0.00000
      163.000       0.00000
      163.100       0.00000
      163.200       0.00000
      163.300       0.00000
      163.400       0.00000
      163.500       0.00000
      163.600       0.00000
      163.700       0.00000
      163.800       0.00000
      163.900       0.00000
      164.000       0.00000
      164.100       0.00000
      164.200       0.00000
      164.300       0.00000
      164.400       0.00000
      164.500       0.00000
      164.600       0.00000
      164.700       0.00000
      164.800       0.00000
      164.900       0.00000
      165.000       0.00000
      165.100       0.00000
      165.200       0.00000
      165.300       0.00000
      165.400       0.00000
      165.500       0.00000
      165.600       0.00000
      165.700       0.00000
      165.800       0.00000
      165.900       0.00000
      166.000       0.00000
      166.100       0.00000
      166.200       0.00000
      166.300       0.00000
      166.400       0.00000
      166.500       0.00000
      166.600       0.00000
      166.700       0.00000
      166.800       0.00000
      166.900       0.00000
      167.000       0.00000
      167.100       0.00000
      167.200       0.00000
      167.300       0.00000
      167.400       0.00000
      167.500       0.00000
      167.600       0.00000
      167.700       0.00000
      167.800       0.00000
      167.900       0.00000
      168.000       0.00000
      168.100       0.00000
      168.200       0.00000
      168.300       0.00000
      168.400       0.00000
      168.500       0.00000
      168.600       0.00000
      168.700       0.00000
      168.800       0.00000
      168.900       0.00000
      169.000       0.00000
      169.100       0.00000
      169.200       0.00000
      169.300       0.00000
      169.400       0.00000
      169.500       0.00000
      169.600       0.00000
      169.700       0.00000
      169.800       0.00000
      169.900       0.00000
      170.000       0.00000
      170.100       0.00000
      170.200       0.00000
      170.300       0.00000
      170.400       0.00000
      170.500   2.44593e-31
      170.600   1.12942e-19
      170.700   1.19389e-12
      170.800   1.01216e-10
      170.900   1.65478e-10
      171.000   1.66922e-10
      171.100   1.68366e-10
      171.200   1.69809e-10
      171.300   1.71252e-10
      171.400   1.72694e-10
      171.500   1.74133e-10
      171.600   1.75573e-10
      171.700   1.77014e-10
      171.800   1.78457e-10
      171.900   1.79902e-10
      172.000   1.81352e-10
      172.100   1.82810e-10
      172.200   1.84275e-10
      172.300   1.85743e-10
      172.400   1.87186e-10
      172.500   1.88631e-10
      172.600   1.90088e-10
      172.700   1.91555e-10
      172.800   1.93032e-10
      172.900   1.94524e-10
      173.000   1.96025e-10
      173.100   1.97538e-10
      173.200   1.99063e-10
      173.300   2.00602e-10
      173.400   2.02154e-10
      173.500   2.03718e-10
      173.600   2.05295e-10
      173.700   2.06885e-10
      173.800   2.08489e-10
      173.900   2.10103e-10
      174.000   2.11730e-10
      174.100   2.13373e-10
      174.200   2.15025e-10
      174.300   2.16686e-10
      174.400   2.18361e-10
      174.500   2.20046e-10
      174.600   2.21744e-10
      174.700   2.23452e-10
      174.800   2.25168e-10
      174.900   2.26894e-10
      175.000   2.28632e-10
      175.100   2.30375e-10
      175.200   2.32139e-10
      175.300   2.33908e-10
      175.400   2.35689e-10
      175.500   2.37478e-10
      175.600   2.39273e-10
      175.700   2.41079e-10
      175.800   2.42897e-10
      175.900   2.44722e-10
      176.000   2.46553e-10
      176.100   2.48395e-10
      176.200   2.50246e-10
      176.300   2.52108e-10
      176.400   2.53977e-10
      176.500   2.55855e-10
      176.600   2.57745e-10
      176.700   2.59641e-10
      176.800   2.61546e-10
      176.900   2.63459e-10
      177.000   2.65384e-10
      177.100   2.67317e-10
      177.200   2.69257e-10
      177.300   2.71204e-10
      177.400   2.73163e-10
      177.500   2.75129e-10
      177.600   2.77101e-10
      177.700   2.79081e-10
      177.800   2.81068e-10
      177.900   2.83064e-10
      178.000   2.85086e-10
      178.100   2.87114e-10
      178.200   2.89151e-10
      178.300   2.91198e-10
      178.400   2.93249e-10
      178.500   2.95308e-10
      178.600   2.97375e-10
      178.700   2.99453e-10
      178.800   3.01535e-10
      178.900   3.03622e-10
      179.000   3.05717e-10
      179.100   3.07822e-10
      179.200   3.09936e-10
      179.300   3.12056e-10
      179.400   3.14185e-10
      179.500   3.16323e-10
      179.600   3.18475e-10
      179.700   3.20632e-10
      179.800   3.22799e-10
      179.900   3.24977e-10
      180.000   3.27170e-10
      180.100   3.29369e-10
      180.200   3.31582e-10
      180.300   3.33806e-10
      180.400   3.36046e-10
      180.500   3.38298e-10
      180.600   3.40561e-10
      180.700   3.42837e-10
      180.800   3.45156e-10
      180.900   3.47541e-10
      181.000   3.49962e-10
      181.100   3.52395e-10
      181.200   3.54848e-10
      181.300   3.57319e-10
      181.400   3.59802e-10
      181.500   3.62299e-10
      181.600   3.64815e-10
      181.700   3.67348e-10
      181.800   3.69894e-10
      181.900   3.72456e-10
      182.000   3.75036e-10
      182.100   3.77627e-10
      182.200   3.80242e-10
      182.300   3.82866e-10
      182.400   3.85504e-10
      182.500   3.88158e-10
      182.600   3.90831e-10
      182.700   3.93514e-10
      182.800   3.96209e-10
      182.900   3.98922e-10
      183.000   4.01647e-10
      183.100   4.04386e-10
      183.200   4.07137e-10
      183.300   4.09902e-10
      183.400   4.12683e-10
      183.500   4.15475e-10
      183.600   4.18280e-10
      183.700   4.21216e-10
      183.800   4.24674e-10
      183.900   4.28464e-10
      184.000   4.32274e-10
      184.100   4.36117e-10
      184.200   4.39984e-10
      184.300   4.43883e-10
      184.400   4.47808e-10
      184.500   4.51757e-10
      184.600   4.55734e-10
      184.700   4.59742e-10
      184.800   4.63777e-10
      184.900   4.67837e-10
      185.000   4.71924e-10
      185.100   4.76042e-10
      185.200   4.80190e-10
      185.300   4.84361e-10
      185.400   4.88559e-10
      185.500   4.92783e-10
      185.600   4.97037e-10
      185.700   5.01324e-10
      185.800   5.05637e-10
      185.900   5.09972e-10
      186.000   5.14343e-10
      186.100   5.18735e-10
      186.200   5.23149e-10
      186.300   5.27589e-10
      186.400   5.32059e-10
      186.500   5.36555e-10
      186.600   5.41071e-10
      186.700   5.45607e-10
      186.800   5.50165e-10
      186.900   5.54752e-10
      187.000   5.59362e-10
      187.100   5.63987e-10
      187.200   5.68642e-10
      187.300   5.73324e-10
      187.400   5.78026e-10
      187.500   5.82748e-10
      187.600   5.87493e-10
      187.700   5.92260e-10
      187.800   5.97056e-10
      187.900   6.01875e-10
      188.000   6.06712e-10
      188.100   6.11571e-10
      188.200   6.16458e-10
      188.300   6.21372e-10
      188.400   6.26313e-10
      188.500   6.31276e-10
      188.600   6.36266e-10
      188.700   6.41291e-10
      188.800   6.46338e-10
      188.900   6.51411e-10
      189.000   6.56513e-10
      189.100   6.61651e-10
      189.200   6.66818e-10
      189.300   6.72010e-10
      189.400   6.77233e-10
      189.500   6.82490e-10
      189.600   6.87788e-10
      189.700   6.93109e-10
      189.800   6.98524e-10
      189.900   7.03982e-10
      190.000   7.09485e-10
      190.100   7.15018e-10
      190.200   7.20587e-10
      190.300   7.26191e-10
      190.400   7.31836e-10
      190.500   7.37518e-10
      190.600   7.43234e-10
      190.700   7.48986e-10
      190.800   7.54775e-10
      190.900   7.60602e-10
      191.000   7.66479e-10
      191.100   7.72386e-10
      191.200   7.78333e-10
      191.300   7.84316e-10
      191.400   7.90340e-10
      191.500   7.96403e-10
      191.600   8.02499e-10
      191.700   8.08633e-10
      191.800   8.14811e-10
      191.900   8.21021e-10
      192.000   8.27265e-10
      192.100   8.33550e-10
      192.200   8.39879e-10
      192.300   8.46245e-10
      192.400   8.52657e-10
      192.500   8.59105e-10
      192.600   8.65586e-10
      192.700   8.72105e-10
      192.800   8.78330e-10
      192.900   8.83730e-10
      193.000   8.89069e-10
      193.100   8.94437e-10
      193.200   8.99842e-10
      193.300   9.05266e-10
      193.400   9.10712e-10
      193.500   9.16187e-10
      193.600   9.21693e-10
      193.700   9.27228e-10
      193.800   9.32785e-10
      193.900   9.38363e-10
      194.000   9.43976e-10
      194.100   9.49629e-10
      194.200   9.55298e-10
      194.300   9.60997e-10
      194.400   9.66723e-10
      194.500   9.72483e-10
      194.600   9.78270e-10
      194.700   9.84076e-10
      194.800   9.89909e-10
      194.900   9.95772e-10
      195.000   1.00166e-09
      195.100   1.00759e-09
      195.200   1.01353e-09
      195.300   1.01949e-09
      195.400   1.02548e-09
      195.500   1.03150e-09
      195.600   1.03754e-09
      195.700   1.04359e-09
      195.800   1.04960e-09
      195.900   1.05512e-09
      196.000   1.04340e-09
      196.100   1.03157e-09
      196.200   1.01988e-09
      196.300   1.00831e-09
      196.400   9.96856e-10
      196.500   9.85522e-10
      196.600   9.74309e-10
      196.700   9.63213e-10
      196.800   9.52235e-10
      196.900   9.41377e-10
      197.000   9.30631e-10
      197.100   9.19995e-10
      197.200   9.09469e-10
      197.300   8.99051e-10
      197.400   8.88736e-10
      197.500   8.78526e-10
      197.600   8.68425e-10
      197.700   8.58437e-10
      197.800   8.48558e-10
      197.900   8.38777e-10
      198.000   8.29098e-10
      198.100   8.19521e-10
      198.200   8.10043e-10
      198.300   8.00665e-10
      198.400   7.91388e-10
      198.500   7.82217e-10
      198.600   7.73149e-10
      198.700   7.64177e-10
      198.800   7.55302e-10
      198.900   7.46527e-10
      199.000   7.37843e-10
      199.100   7.29254e-10
      199.200   7.20764e-10
      199.300   7.12376e-10
      199.400   7.04086e-10
      199.500   6.95888e-10
      199.600   6.87779e-10
      199.700   6.79762e-10
      199.800   6.71837e-10
      199.900   6.63999e-10
      200.000   6.56250e-10
      200.100   6.48631e-10
      200.200   6.41066e-10
      200.300   6.33592e-10
      200.400   6.26202e-10
      200.500   6.18896e-10
      200.600   6.11677e-10
      200.700   6.04540e-10
      200.800   5.97482e-10
      200.900   5.90511e-10
      201.000   5.83621e-10
      201.100   5.76812e-10
      201.200   5.70083e-10
      201.300   5.63430e-10
      201.400   5.56858e-10
      201.500   5.50359e-10
      201.600   5.43935e-10
      201.700   5.37587e-10
      201.800   5.31313e-10
      201.900   5.25110e-10
      202.000   5.18987e-10
      202.100   5.12933e-10
      202.200   5.06950e-10
      202.300   5.01079e-10
      202.400   4.95364e-10
      202.500   4.89738e-10
      202.600   4.84171e-10
      202.700   4.78674e-10
      202.800   4.73241e-10
      202.900   4.67870e-10
      203.000   4.62563e-10
      203.100   4.57321e-10
      203.200   4.52137e-10
      203.300   4.47013e-10
      203.400   4.41949e-10
      203.500   4.36944e-10
      203.600   4.31998e-10
      203.700   4.27111e-10
      203.800   4.22283e-10
      203.900   4.17516e-10
      204.000   4.12803e-10
      204.100   4.08147e-10
      204.200   4.03547e-10
      204.300   3.99001e-10
      204.400   3.94509e-10
      204.500   3.90071e-10
      204.600   3.85685e-10
      204.700   3.81350e-10
      204.800   3.77071e-10
      204.900   3.72844e-10
      205.000   3.68666e-10
      205.100   3.64537e-10
      205.200   3.60457e-10
      205.300   3.56426e-10
      205.400   3.52442e-10
      205.500   3.48504e-10
      205.600   3.44345e-10
      205.700   3.39994e-10
      205.800   3.35664e-10
      205.900   3.31392e-10
      206.000   3.27177e-10
      206.100   3.23016e-10
      206.200   3.18906e-10
      206.300   3.14851e-10
      206.400   3.10848e-10
      206.500   3.06894e-10
      206.600   3.02990e-10
      206.700   2.99136e-10
      206.800   2.95328e-10
      206.900   2.91569e-10
      207.000   2.87857e-10
      207.100   2.84192e-10
      207.200   2.80573e-10
      207.300   2.76998e-10
      207.400   2.73467e-10
      207.500   2.69978e-10
      207.600   2.66533e-10
      207.700   2.63128e-10
      207.800   2.59765e-10
      207.900   2.56442e-10
      208.000   2.53159e-10
      208.100   2.49917e-10
      208.200   2.46712e-10
      208.300   2.43547e-10
      208.400   2.40422e-10
      208.500   2.37334e-10
      208.600   2.34283e-10
      208.700   2.31268e-10
      208.800   2.28290e-10
      208.900   2.25042e-10
      209.000   2.21291e-10
      209.100   2.17468e-10
      209.200   2.13708e-10
      209.300   2.10009e-10
      209.400   2.06373e-10
      209.500   2.02796e-10
      209.600   1.99278e-10
      209.700   1.95820e-10
      209.800   1.92423e-10
      209.900   1.89080e-10
      210.000   1.85794e-10
      210.100   1.82562e-10
      210.200   1.79385e-10
      210.300   1.76260e-10
      210.400   1.73189e-10
      210.500   1.70168e-10
      210.600   1.67199e-10
      210.700   1.64279e-10
      210.800   1.61409e-10
      210.900   1.58587e-10
      211.000   1.55812e-10
      211.100   1.53086e-10
      211.200   1.50404e-10
      211.300   1.47771e-10
      211.400   1.45183e-10
      211.500   1.42638e-10
      211.600   1.40137e-10
      211.700   1.37679e-10
      211.800   1.35261e-10
      211.900   1.32885e-10
      212.000   1.30550e-10
      212.100   1.28255e-10
      212.200   1.25998e-10
      212.300   1.23781e-10
      212.400   1.21601e-10
      212.500   1.19458e-10
      212.600   1.17353e-10
      212.700   1.15284e-10
      212.800   1.13249e-10
      212.900   1.11251e-10
      213.000   1.09286e-10
      213.100   1.07357e-10
      213.200   1.05461e-10
      213.300   1.03598e-10
      213.400   1.01766e-10
      213.500   9.99668e-11
      213.600   9.81981e-11
      213.700   9.64608e-11
      213.800   9.47529e-11
      213.900   9.30756e-11
      214.000   9.14269e-11
      214.100   8.98071e-11
      214.200   8.82162e-11
      214.300   8.66525e-11
      214.400   8.51162e-11
      214.500   8.36070e-11
      214.600   8.21248e-11
      214.700   8.06684e-11
      214.800   7.92377e-11
      214.900   7.78328e-11
      215.000   7.64521e-11
      215.100   7.50964e-11
      215.200   7.37649e-11
      215.300   7.24580e-11
      215.400   7.11737e-11
      215.500   6.99125e-11
      215.600   6.86747e-11
      215.700   6.74580e-11
      215.800   6.62631e-11
      215.900   6.50902e-11
      216.000   6.39379e-11
      216.100   6.28061e-11
      216.200   6.16948e-11
      216.300   6.06035e-11
      216.400   5.95320e-11
      216.500   5.84793e-11
      216.600   5.74458e-11
      216.700   5.64311e-11
      216.800   5.54343e-11
      216.900   5.44555e-11
      217.000   5.34943e-11
      217.100   5.25501e-11
      217.200   5.16231e-11
      217.300   5.07126e-11
      217.400   4.98181e-11
      217.500   4.89402e-11
      217.600   4.80776e-11
      217.700   4.72301e-11
      217.800   4.63980e-11
      217.900   4.55810e-11
      218.000   4.47786e-11
      218.100   4.39902e-11
      218.200   4.32159e-11
      218.300   4.24555e-11
      218.400   4.17086e-11
      218.500   4.09744e-11
      218.600   4.02534e-11
      218.700   3.95450e-11
      218.800   3.88490e-11
      218.900   3.81654e-11
      219.000   3.74936e-11
      219.100   3.68334e-11
      219.200   3.61848e-11
      219.300   3.55474e-11
      219.400   3.49210e-11
      219.500   3.43055e-11
      219.600   3.37007e-11
      219.700   3.31064e-11
      219.800   3.25226e-11
      219.900   3.19487e-11
      220.000   3.13847e-11
      220.100   3.08305e-11
      220.200   3.02858e-11
      220.300   2.97506e-11
      220.400   2.92246e-11
      220.500   2.87078e-11
      220.600   2.82000e-11
      220.700   2.77007e-11
      220.800   2.72100e-11
      220.900   2.67280e-11
      221.000   2.62542e-11
      221.100   2.57884e-11
      221.200   2.53309e-11
      221.300   2.48813e-11
      221.400   2.44394e-11
      221.500   2.40052e-11
      221.600   2.35785e-11
      221.700   2.31590e-11
      221.800   2.27467e-11
      221.900   2.23417e-11
      222.000   2.19439e-11
      222.100   2.15526e-11
      222.200   2.11684e-11
      222.300   2.07906e-11
      222.400   2.04195e-11
      222.500   2.00547e-11
      222.600   1.96964e-11
      222.700   1.93442e-11
      222.800   1.89981e-11
      222.900   1.86580e-11
      223.000   1.83237e-11
      223.100   1.79953e-11
      223.200   1.76726e-11
      223.300   1.73555e-11
      223.400   1.70440e-11
      223.500   1.67377e-11
      223.600   1.64369e-11
      223.700   1.61413e-11
      223.800   1.58508e-11
      223.900   1.55656e-11
      224.000   1.52852e-11
      224.100   1.50096e-11
      224.200   1.47389e-11
      224.300   1.44729e-11
      224.400   1.42116e-11
      224.500   1.39548e-11
      224.600   1.37024e-11
      224.700   1.34546e-11
      224.800   1.32111e-11
      224.900   1.29717e-11
      225.000   1.27366e-11
      225.100   1.25056e-11
      225.200   1.22786e-11
      225.300   1.20557e-11
      225.400   1.18366e-11
      225.500   1.16214e-11
      225.600   1.14099e-11
      225.700   1.12022e-11
      225.800   1.09981e-11
      225.900   1.07976e-11
      226.000   1.06007e-11
      226.100   1.04073e-11
      226.200   1.02173e-11
      226.300   1.00314e-11
      226.400   9.84909e-12
      226.500   9.66981e-12
      226.600   9.49349e-12
      226.700   9.32024e-12
      226.800   9.14989e-12
      226.900   8.98254e-12
      227.000   8.81817e-12
      227.100   8.65668e-12
      227.200   8.49812e-12
      227.300   8.34241e-12
      227.400   8.18948e-12
      227.500   8.03930e-12
      227.600   7.89181e-12
      227.700   7.74699e-12
      227.800   7.60480e-12
      227.900   7.46519e-12
      228.000   7.32811e-12
      228.100   7.19350e-12
      228.200   7.06131e-12
      228.300   6.93155e-12
      228.400   6.80419e-12
      228.500   6.67911e-12
      228.600   6.55633e-12
      228.700   6.43580e-12
      228.800   6.31745e-12
      228.900   6.20134e-12
      229.000   6.08731e-12
      229.100   5.97540e-12
      229.200   5.86553e-12
      229.300   5.75769e-12
      229.400   5.65185e-12
      229.500   5.54797e-12
      229.600   5.44597e-12
      229.700   5.34589e-12
      229.800   5.24763e-12
      229.900   5.15121e-12
      230.000   5.05563e-12
      230.100   4.95520e-12
      230.200   4.85655e-12
      230.300   4.75992e-12
      230.400   4.66520e-12
      230.500   4.57237e-12
      230.600   4.48142e-12
      230.700   4.39227e-12
      230.800   4.30491e-12
      230.900   4.21930e-12
      231.000   4.13538e-12
      231.100   4.05314e-12
      231.200   3.97253e-12
      231.300   3.89355e-12
      231.400   3.81616e-12
      231.500   3.74027e-12
      231.600   3.66587e-12
      231.700   3.59299e-12
      231.800   3.52155e-12
      231.900   3.45153e-12
      232.000   3.38290e-12
      232.100   3.31561e-12
      232.200   3.24968e-12
      232.300   3.18506e-12
      232.400   3.12171e-12
      232.500   3.05960e-12
      232.600   2.99874e-12
      232.700   2.93908e-12
      232.800   2.88060e-12
      232.900   2.82327e-12
      233.000   2.76708e-12
      233.100   2.71201e-12
      233.200   2.65801e-12
      233.300   2.60509e-12
      233.400   2.55322e-12
      233.500   2.50238e-12
      233.600   2.45257e-12
      233.700   2.40371e-12
      233.800   2.34996e-12
      233.900   2.29663e-12
      234.000   2.24447e-12
      234.100   2.19349e-12
      234.200   2.14366e-12
      234.300   2.09494e-12
      234.400   2.04730e-12
      234.500   2.00074e-12
      234.600   1.95520e-12
      234.700   1.91070e-12
      234.800   1.86720e-12
      234.900   1.82467e-12
      235.000   1.78308e-12
      235.100   1.74242e-12
      235.200   1.70268e-12
      235.300   1.66383e-12
      235.400   1.62585e-12
      235.500   1.58872e-12
      235.600   1.55243e-12
      235.700   1.51695e-12
      235.800   1.48230e-12
      235.900   1.44843e-12
      236.000   1.41532e-12
      236.100   1.38294e-12
      236.200   1.35129e-12
      236.300   1.32035e-12
      236.400   1.29011e-12
      236.500   1.26055e-12
      236.600   1.23164e-12
      236.700   1.20339e-12
      236.800   1.17576e-12
      236.900   1.14876e-12
      237.000   1.12236e-12
      237.100   1.09655e-12
      237.200   1.07133e-12
      237.300   1.04667e-12
      237.400   1.02256e-12
      237.500   9.98995e-13
      237.600   9.75950e-13
      237.700   9.53446e-13
      237.800   9.31447e-13
      237.900   9.09941e-13
      238.000   8.88924e-13
      238.100   8.68370e-13
      238.200   8.48280e-13
      238.300   8.28641e-13
      238.400   8.09443e-13
      238.500   7.90672e-13
      238.600   7.72327e-13
      238.700   7.54398e-13
      238.800   7.36868e-13
      238.900   7.19733e-13
      239.000   7.02979e-13
      239.100   6.86606e-13
      239.200   6.70605e-13
      239.300   6.54971e-13
      239.400   6.39703e-13
      239.500   6.24778e-13
      239.600   6.10186e-13
      239.700   5.95932e-13
      239.800   5.81994e-13
      239.900   5.68371e-13
      240.000   5.55056e-13
      240.100   5.42040e-13
      240.200   5.29318e-13
      240.300   5.16885e-13
      240.400   5.04730e-13
      240.500   4.92858e-13
      240.600   4.81254e-13
      240.700   4.69913e-13
      240.800   4.58838e-13
      240.900   4.48021e-13
      241.000   4.37454e-13
      241.100   4.27126e-13
      241.200   4.17035e-13
      241.300   4.07172e-13
      241.400   3.97537e-13
      241.500   3.88122e-13
      241.600   3.78923e-13
      241.700   3.69934e-13
      241.800   3.61151e-13
      241.900   3.52568e-13
      242.000   3.44185e-13
      242.100   3.35996e-13
      242.200   3.28005e-13
      242.300   3.20204e-13
      242.400   3.12581e-13
      242.500   3.05134e-13
      242.600   2.97860e-13
      242.700   2.90754e-13
      242.800   2.83814e-13
      242.900   2.77036e-13
      243.000   2.70414e-13
      243.100   2.63948e-13
      243.200   2.57629e-13
      243.300   2.51459e-13
      243.400   2.45436e-13
      243.500   2.39557e-13
      243.600   2.33823e-13
      243.700   2.28220e-13
      243.800   2.22749e-13
      243.900   2.17409e-13
      244.000   2.12192e-13
      244.100   2.07098e-13
      244.200   2.02124e-13
      244.300   1.97266e-13
      244.400   1.92523e-13
      244.500   1.87892e-13
      244.600   1.83369e-13
      244.700   1.78958e-13
      244.800   1.74656e-13
      244.900   1.70455e-13
      245.000   1.66353e-13
      245.100   1.62347e-13
      245.200   1.58439e-13
      245.300   1.54622e-13
      245.400   1.50895e-13
      245.500   1.47257e-13
      245.600   1.43705e-13
      245.700   1.40236e-13
      245.800   1.36850e-13
      245.900   1.33550e-13
      246.000   1.30331e-13
      246.100   1.27187e-13
      246.200   1.24119e-13
      246.300   1.21123e-13
      246.400   1.18199e-13
      246.500   1.15343e-13
      246.600   1.12556e-13
      246.700   1.09836e-13
      246.800   1.07179e-13
      246.900   1.04585e-13
      247.000   1.02058e-13
      247.100   9.95927e-14
      247.200   9.71861e-14
      247.300   9.48370e-14
      247.400   9.25436e-14
      247.500   9.03046e-14
      247.600   8.81190e-14
      247.700   8.59855e-14
      247.800   8.39027e-14
      247.900   8.18695e-14
      248.000   7.98849e-14
      248.100   7.79535e-14
      248.200   7.60675e-14
      248.300   7.42261e-14
      248.400   7.24288e-14
      248.500   7.06738e-14
      248.600   6.89609e-14
      248.700   6.72891e-14
      248.800   6.56570e-14
      248.900   6.40639e-14
      249.000   6.25090e-14
      249.100   6.09942e-14
      249.200   5.95167e-14
      249.300   5.80737e-14
      249.400   5.66653e-14
      249.500   5.52907e-14
      249.600   5.39486e-14
      249.700   5.26385e-14
      249.800   5.13598e-14
      249.900   5.01115e-14
      250.000   4.88932e-14
      250.100   4.77060e-14
      250.200   4.65476e-14
      250.300   4.54179e-14
      250.400   4.43149e-14
      250.500   4.32385e-14
      250.600   4.21879e-14
      250.700   4.11625e-14
      250.800   4.01616e-14
      250.900   3.91847e-14
      251.000   3.82313e-14
      251.100   3.73007e-14
      251.200   3.63933e-14
      251.300   3.55086e-14
      251.400   3.46453e-14
      251.500   3.38022e-14
      251.600   3.29794e-14
      251.700   3.21769e-14
      251.800   3.13934e-14
      251.900   3.06286e-14
      252.000   2.98821e-14
      252.100   2.91538e-14
      252.200   2.84428e-14
      252.300   2.77496e-14
      252.400   2.70732e-14
      252.500   2.64135e-14
      252.600   2.57694e-14
      252.700   2.51408e-14
      252.800   2.45274e-14
      252.900   2.39287e-14
      253.000   2.33443e-14
      253.100   2.27740e-14
      253.200   2.22174e-14
      253.300   2.16790e-14
      253.400   2.11557e-14
      253.500   2.06452e-14
      253.600   2.01473e-14
      253.700   1.96610e-14
      253.800   1.91863e-14
      253.900   1.87230e-14
      254.000   1.82706e-14
      254.100   1.78287e-14
      254.200   1.73974e-14
      254.300   1.69763e-14
      254.400   1.65652e-14
      254.500   1.61638e-14
      254.600   1.57719e-14
      254.700   1.53893e-14
      254.800   1.50164e-14
      254.900   1.46522e-14
      255.000   1.42967e-14
      255.100   1.39494e-14
      255.200   1.36105e-14
      255.300   1.32796e-14
      255.400   1.29565e-14
      255.500   1.26411e-14
      255.600   1.23333e-14
      255.700   1.20327e-14
      255.800   1.17392e-14
      255.900   1.14526e-14
      256.000   1.11729e-14
      256.100   1.09000e-14
      256.200   1.06337e-14
      256.300   1.03738e-14
      256.400   1.01202e-14
      256.500   9.87236e-15
      256.600   9.63058e-15
      256.700   9.39458e-15
      256.800   9.16413e-15
      256.900   8.93917e-15
      257.000   8.71960e-15
      257.100   8.50526e-15
      257.200   8.29610e-15
      257.300   8.09188e-15
      257.400   7.91852e-15
      257.500   7.75817e-15
      257.600   7.60157e-15
      257.700   7.44807e-15
      257.800   7.29755e-15
      257.900   7.15001e-15
      258.000   7.00536e-15
      258.100   6.86352e-15
      258.200   6.72452e-15
      258.300   6.58827e-15
      258.400   6.45462e-15
      258.500   6.32359e-15
      258.600   6.19520e-15
      258.700   6.06932e-15
      258.800   5.94590e-15
      258.900   5.82500e-15
      259.000   5.70639e-15
      259.100   5.59018e-15
      259.200   5.47627e-15
      259.300   5.36473e-15
      259.400   5.25539e-15
      259.500   5.14817e-15
      259.600   5.04312e-15
      259.700   4.94016e-15
      259.800   4.83922e-15
      259.900   4.74025e-15
      260.000   4.64331e-15
      260.100   4.54830e-15
      260.200   4.45517e-15
      260.300   4.36390e-15
      260.400   4.27447e-15
      260.500   4.18684e-15
      260.600   4.10094e-15
      260.700   4.01675e-15
      260.800   3.93431e-15
      260.900   3.85346e-15
      261.000   3.77430e-15
      261.100   3.69676e-15
      261.200   3.62076e-15
      261.300   3.54629e-15
      261.400   3.47335e-15
      261.500   3.40881e-15
      261.600   3.36795e-15
      261.700   3.33148e-15
      261.800   3.29541e-15
      261.900   3.25970e-15
      262.000   3.22438e-15
      262.100   3.18942e-15
      262.200   3.15486e-15
      262.300   3.12064e-15
      262.400   3.08679e-15
      262.500   3.05331e-15
      262.600   3.02018e-15
      262.700   2.98741e-15
      262.800   2.95499e-15
      262.900   2.92288e-15
      263.000   2.89118e-15
      263.100   2.85979e-15
      263.200   2.82874e-15
      263.300   2.79804e-15
      263.400   2.76765e-15
      263.500   2.73760e-15
      263.600   2.70789e-15
      263.700   2.67848e-15
      263.800   2.64939e-15
      263.900   2.62064e-15
      264.000   2.59219e-15
      264.100   2.56404e-15
      264.200   2.53619e-15
      264.300   2.50867e-15
      264.400   2.48144e-15
      264.500   2.45451e-15
      264.600   2.42786e-15
      264.700   2.40151e-15
      264.800   2.37545e-15
      264.900   2.34969e-15
      265.000   2.32420e-15
      265.100   2.29899e-15
      265.200   2.27406e-15
      265.300   2.24940e-15
      265.400   2.22502e-15
      265.500   2.20091e-15
      265.600   2.17706e-15
      265.700   2.15347e-15
      265.800   2.13018e-15
      265.900   2.10714e-15
      266.000   2.08438e-15
      266.100   2.06187e-15
      266.200   2.03959e-15
      266.300   2.01757e-15
      266.400   1.99579e-15
      266.500   1.97425e-15
      266.600   1.95296e-15
      266.700   1.93190e-15
      266.800   1.91109e-15
      266.900   1.89050e-15
      267.000   1.87014e-15
      267.100   1.85001e-15
      267.200   1.83012e-15
      267.300   1.81044e-15
      267.400   1.79097e-15
      267.500   1.77173e-15
      267.600   1.75271e-15
      267.700   1.73389e-15
      267.800   1.71528e-15
      267.900   1.69689e-15
      268.000   1.67870e-15
      268.100   1.66072e-15
      268.200   1.64295e-15
      268.300   1.62537e-15
      268.400   1.60798e-15
      268.500   1.59080e-15
      268.600   1.57380e-15
      268.700   1.55700e-15
      268.800   1.54038e-15
      268.900   1.52395e-15
      269.000   1.50771e-15
      269.100   1.49165e-15
      269.200   1.47577e-15
      269.300   1.46007e-15
      269.400   1.44454e-15
      269.500   1.42918e-15
      269.600   1.41401e-15
      269.700   1.39899e-15
      269.800   1.38415e-15
      269.900   1.36947e-15
      270.000   1.35496e-15
      270.100   1.34062e-15
      270.200   1.32646e-15
      270.300   1.31245e-15
      270.400   1.29859e-15
      270.500   1.28489e-15
      270.600   1.27134e-15
      270.700   1.25794e-15
      270.800   1.24469e-15
      270.900   1.23158e-15
      271.000   1.21862e-15
      271.100   1.20579e-15
      271.200   1.19311e-15
      271.300   1.18057e-15
      271.400   1.16816e-15
      271.500   1.15590e-15
      271.600   1.14376e-15
      271.700   1.13176e-15
      271.800   1.11989e-15
      271.900   1.10814e-15
      272.000   1.09653e-15
      272.100   1.08504e-15
      272.200   1.07367e-15
      272.300   1.06242e-15
      272.400   1.05129e-15
      272.500   1.04029e-15
      272.600   1.02939e-15
      272.700   1.01862e-15
      272.800   1.00796e-15
      272.900   9.97416e-16
      273.000   9.86986e-16
      273.100   9.76664e-16
      273.200   9.66451e-16
      273.300   9.56347e-16
      273.400   9.46346e-16
      273.500   9.36452e-16
      273.600   9.26662e-16
      273.700   9.16970e-16
      273.800   9.07381e-16
      273.900   8.97899e-16
      274.000   8.88511e-16
      274.100   8.79223e-16
      274.200   8.70028e-16
      274.300   8.60930e-16
      274.400   8.51826e-16
      274.500   8.42570e-16
      274.600   8.33368e-16
      274.700   8.24267e-16
      274.800   8.15263e-16
      274.900   8.06353e-16
      275.000   7.97538e-16
      275.100   7.88818e-16
      275.200   7.80189e-16
      275.300   7.71651e-16
      275.400   7.63209e-16
      275.500   7.54856e-16
      275.600   7.46587e-16
      275.700   7.38406e-16
      275.800   7.30315e-16
      275.900   7.22311e-16
      276.000   7.14390e-16
      276.100   7.06551e-16
      276.200   6.98792e-16
      276.300   6.91117e-16
      276.400   6.83524e-16
      276.500   6.76011e-16
      276.600   6.68578e-16
      276.700   6.61220e-16
      276.800   6.53943e-16
      276.900   6.46739e-16
      277.000   6.39613e-16
      277.100   6.32559e-16
      277.200   6.25582e-16
      277.300   6.18679e-16
      277.400   6.11848e-16
      277.500   6.05084e-16
      277.600   5.98397e-16
      277.700   5.91777e-16
      277.800   5.85223e-16
      277.900   5.78743e-16
      278.000   5.72333e-16
      278.100   5.65989e-16
      278.200   5.59709e-16
      278.300   5.53497e-16
      278.400   5.47351e-16
      278.500   5.41265e-16
      278.600   5.35245e-16
      278.700   5.29291e-16
      278.800   5.23400e-16
      278.900   5.17549e-16
      279.000   5.11757e-16
      279.100   5.06027e-16
      279.200   5.00354e-16
      279.300   4.94745e-16
      279.400   4.89191e-16
      279.500   4.83699e-16
      279.600   4.78265e-16
      279.700   4.72890e-16
      279.800   4.67572e-16
      279.900   4.62308e-16
      280.000   4.57101e-16
      280.100   4.51949e-16
      280.200   4.46853e-16
      280.300   4.41810e-16
      280.400   4.36821e-16
      280.500   4.31890e-16
      280.600   4.27008e-16
      280.700   4.22178e-16
      280.800   4.17401e-16
      280.900   4.12674e-16
      281.000   4.07998e-16
      281.100   4.03371e-16
      281.200   3.98795e-16
      281.300   3.94269e-16
      281.400   3.89793e-16
      281.500   3.85363e-16
      281.600   3.80978e-16
      281.700   3.76644e-16
      281.800   3.72358e-16
      281.900   3.68117e-16
      282.000   3.63922e-16
      282.100   3.59772e-16
      282.200   3.55670e-16
      282.300   3.51610e-16
      282.400   3.47595e-16
      282.500   3.43622e-16
      282.600   3.39694e-16
      282.700   3.35808e-16
      282.800   3.31965e-16
      282.900   3.28167e-16
      283.000   3.24408e-16
      283.100   3.20691e-16
      283.200   3.17017e-16
      283.300   3.13381e-16
      283.400   3.09787e-16
      283.500   3.06234e-16
      283.600   3.02719e-16
      283.700   2.99241e-16
      283.800   2.95804e-16
      283.900   2.92406e-16
      284.000   2.89043e-16
      284.100   2.85718e-16
      284.200   2.82430e-16
      284.300   2.79181e-16
      284.400   2.75967e-16
      284.500   2.72789e-16
      284.600   2.69648e-16
      284.700   2.66542e-16
      284.800   2.63471e-16
      284.900   2.60434e-16
      285.000   2.57430e-16
      285.100   2.54460e-16
      285.200   2.51526e-16
      285.300   2.48624e-16
      285.400   2.45754e-16
      285.500   2.42917e-16
      285.600   2.40115e-16
      285.700   2.37343e-16
      285.800   2.34603e-16
      285.900   2.31894e-16
      286.000   2.29216e-16
      286.100   2.26571e-16
      286.200   2.23955e-16
      286.300   2.21370e-16
      286.400   2.18815e-16
      286.500   2.16288e-16
      286.600   2.13790e-16
      286.700   2.11321e-16
      286.800   2.08882e-16
      286.900   2.06470e-16
      287.000   2.04086e-16
      287.100   2.01729e-16
      287.200   1.99401e-16
      287.300   1.97100e-16
      287.400   1.94825e-16
      287.500   1.92576e-16
      287.600   1.90355e-16
      287.700   1.88159e-16
      287.800   1.85988e-16
      287.900   1.83844e-16
      288.000   1.81725e-16
      288.100   1.79629e-16
      288.200   1.77560e-16
      288.300   1.75515e-16
      288.400   1.73495e-16
      288.500   1.71498e-16
      288.600   1.69523e-16
      288.700   1.67573e-16
      288.800   1.65645e-16
      288.900   1.63741e-16
      289.000   1.61859e-16
      289.100   1.59999e-16
      289.200   1.58160e-16
      289.300   1.56344e-16
      289.400   1.54549e-16
      289.500   1.52776e-16
      289.600   1.51023e-16
      289.700   1.49292e-16
      289.800   1.47580e-16
      289.900   1.45888e-16
      290.000   1.44218e-16
      290.100   1.42565e-16
      290.200   1.40935e-16
      290.300   1.39322e-16
      290.400   1.37730e-16
      290.500   1.36157e-16
      290.600   1.34601e-16
      290.700   1.33064e-16
      290.800   1.31546e-16
      290.900   1.30046e-16
      291.000   1.28562e-16
      291.100   1.27097e-16
      291.200   1.25649e-16
      291.300   1.24218e-16
      291.400   1.22804e-16
      291.500   1.21406e-16
      291.600   1.20025e-16
      291.700   1.18661e-16
      291.800   1.17312e-16
      291.900   1.15981e-16
      292.000   1.14665e-16
      292.100   1.13365e-16
      292.200   1.12080e-16
      292.300   1.10809e-16
      292.400   1.09554e-16
      292.500   1.08313e-16
      292.600   1.07087e-16
      292.700   1.05875e-16
      292.800   1.04678e-16
      292.900   1.03494e-16
      293.000   1.02325e-16
      293.100   1.01169e-16
      293.200   1.00026e-16
      293.300   9.88969e-17
      293.400   9.77817e-17
      293.500   9.66791e-17
      293.600   9.55897e-17
      293.700   9.45124e-17
      293.800   9.34482e-17
      293.900   9.23964e-17
      294.000   9.13564e-17
      294.100   9.03286e-17
      294.200   8.93132e-17
      294.300   8.83097e-17
      294.400   8.73169e-17
      294.500   8.63359e-17
      294.600   8.53659e-17
      294.700   8.44075e-17
      294.800   8.34600e-17
      294.900   8.25232e-17
      295.000   8.15979e-17
      295.100   8.06836e-17
      295.200   7.97795e-17
      295.300   7.88851e-17
      295.400   7.80015e-17
      295.500   7.71282e-17
      295.600   7.62645e-17
      295.700   7.54107e-17
      295.800   7.45667e-17
      295.900   7.37317e-17
      296.000   7.29068e-17
      296.100   7.20906e-17
      296.200   7.12844e-17
      296.300   7.04871e-17
      296.400   6.97000e-17
      296.500   6.89205e-17
      296.600   6.81503e-17
      296.700   6.73888e-17
      296.800   6.66359e-17
      296.900   6.58913e-17
      297.000   6.51551e-17
      297.100   6.44269e-17
      297.200   6.37071e-17
      297.300   6.29954e-17
      297.400   6.22916e-17
      297.500   6.15953e-17
      297.600   6.09075e-17
      297.700   6.02271e-17
      297.800   5.95544e-17
      297.900   5.88895e-17
      298.000   5.82320e-17
      298.100   5.75814e-17
      298.200   5.69381e-17
      298.300   5.63022e-17
      298.400   5.56730e-17
      298.500   5.50507e-17
      298.600   5.44353e-17
      298.700   5.38267e-17
      298.800   5.32246e-17
      298.900   5.26296e-17
      299.000   5.20415e-17
      299.100   5.14598e-17
      299.200   5.08840e-17
      299.300   5.03148e-17
      299.400   4.97518e-17
      299.500   4.91949e-17
      299.600   4.86441e-17
      299.700   4.80993e-17
      299.800   4.75603e-17
      299.900   4.70275e-17
      300.000   4.65004e-17
      300.100   4.59790e-17
      300.192   4.55046e-17
      300.285   4.50293e-17
      300.377   4.45644e-17
      300.470   4.40993e-17
      300.562   4.36437e-17
      300.654   4.31925e-17
      300.747   4.27410e-17
      300.839   4.22991e-17
      300.932   4.18564e-17
      301.025   4.14185e-17
      301.117   4.09898e-17
      301.210   4.05603e-17
      301.303   4.01357e-17
      301.395   3.97199e-17
      301.488   3.93032e-17
      301.581   3.88912e-17
      301.674   3.84832e-17
      301.766   3.80834e-17
      301.859   3.76834e-17
      301.952   3.72877e-17
      302.045   3.68958e-17
      302.138   3.65332e-17
      302.231   3.62312e-17
      302.324   3.59339e-17
      302.417   3.56391e-17
      302.510   3.53462e-17
      302.603   3.50561e-17
      302.696   3.47677e-17
      302.789   3.44815e-17
      302.882   3.41975e-17
      302.976   3.39130e-17
      303.069   3.36334e-17
      303.162   3.33559e-17
      303.255   3.30804e-17
      303.349   3.28042e-17
      303.442   3.25329e-17
      303.535   3.22638e-17
      303.629   3.19939e-17
      303.722   3.17289e-17
      303.816   3.14632e-17
      303.909   3.12021e-17
      304.003   3.09403e-17
      304.096   3.06832e-17
      304.190   3.04254e-17
      304.283   3.01722e-17
      304.377   2.99184e-17
      304.471   2.96663e-17
      304.564   2.94189e-17
      304.658   2.91710e-17
      304.752   2.89246e-17
      304.846   2.86804e-17
      304.939   2.84405e-17
      305.033   2.81999e-17
      305.127   2.79611e-17
      305.221   2.77242e-17
      305.315   2.74894e-17
      305.409   2.72560e-17
      305.503   2.70246e-17
      305.597   2.67951e-17
      305.691   2.65672e-17
      305.785   2.63412e-17
      305.879   2.61168e-17
      305.973   2.58942e-17
      306.067   2.56733e-17
      306.161   2.54543e-17
      306.255   2.52369e-17
      306.350   2.50189e-17
      306.444   2.48048e-17
      306.538   2.45925e-17
      306.633   2.43798e-17
      306.727   2.41708e-17
      306.821   2.39635e-17
      306.916   2.37557e-17
      307.010   2.35544e-17
      307.105   2.33614e-17
      307.199   2.31732e-17
      307.294   2.29844e-17
      307.388   2.27990e-17
      307.483   2.26131e-17
      307.577   2.24305e-17
      307.672   2.22473e-17
      307.767   2.20655e-17
      307.861   2.18870e-17
      307.956   2.17077e-17
      308.051   2.15299e-17
      308.146   2.13536e-17
      308.240   2.11802e-17
      308.335   2.10064e-17
      308.430   2.08338e-17
      308.525   2.06627e-17
      308.620   2.04928e-17
      308.715   2.03242e-17
      308.810   2.01570e-17
      308.905   1.99910e-17
      309.000   1.98262e-17
      309.095   1.96627e-17
      309.190   1.95006e-17
      309.285   1.93396e-17
      309.380   1.91800e-17
      309.476   1.90200e-17
      309.571   1.88627e-17
      309.666   1.87067e-17
      309.761   1.85520e-17
      309.857   1.83969e-17
      309.952   1.82444e-17
      310.047   1.80933e-17
      310.143   1.79418e-17
      310.238   1.77931e-17
      310.334   1.76440e-17
      310.429   1.74975e-17
      310.525   1.73508e-17
      310.620   1.72067e-17
      310.716   1.70623e-17
      310.811   1.69206e-17
      310.907   1.67786e-17
      311.003   1.66376e-17
      311.098   1.64993e-17
      311.194   1.63606e-17
      311.290   1.62232e-17
      311.386   1.60868e-17
      311.481   1.59529e-17
      311.577   1.58187e-17
      311.673   1.56857e-17
      311.769   1.55537e-17
      311.865   1.54228e-17
      311.961   1.52934e-17
      312.057   1.51671e-17
      312.153   1.50427e-17
      312.249   1.49191e-17
      312.345   1.47967e-17
      312.441   1.46751e-17
      312.537   1.45546e-17
      312.633   1.44351e-17
      312.730   1.43152e-17
      312.826   1.41977e-17
      312.922   1.40810e-17
      313.018   1.39654e-17
      313.115   1.38495e-17
      313.211   1.37357e-17
      313.307   1.36229e-17
      313.404   1.35100e-17
      313.500   1.33990e-17
      313.597   1.32879e-17
      313.693   1.31789e-17
      313.790   1.30696e-17
      313.886   1.29623e-17
      313.983   1.28549e-17
      314.079   1.27494e-17
      314.176   1.26437e-17
      314.273   1.25390e-17
      314.369   1.24363e-17
      314.466   1.23333e-17
      314.563   1.22312e-17
      314.660   1.21300e-17
      314.756   1.20306e-17
      314.853   1.19311e-17
      314.950   1.18324e-17
      315.047   1.17346e-17
      315.144   1.16377e-17
      315.241   1.15415e-17
      315.338   1.14462e-17
      315.435   1.13517e-17
      315.532   1.12580e-17
      315.629   1.11651e-17
      315.726   1.10730e-17
      315.823   1.09817e-17
      315.921   1.08902e-17
      316.018   1.08005e-17
      316.115   1.07116e-17
      316.212   1.06234e-17
      316.310   1.05351e-17
      316.407   1.04484e-17
      316.504   1.03625e-17
      316.602   1.02765e-17
      316.699   1.01921e-17
      316.796   1.01084e-17
      316.894   1.00246e-17
      316.991   9.94259e-18
      317.089   9.86179e-18
      317.187   9.78245e-18
      317.284   9.70454e-18
      317.382   9.62649e-18
      317.479   9.54984e-18
      317.577   9.47310e-18
      317.675   9.39703e-18
      317.773   9.32159e-18
      317.870   9.24760e-18
      317.968   9.17343e-18
      318.066   9.09989e-18
      318.164   9.02699e-18
      318.262   8.95471e-18
      318.360   8.88306e-18
      318.458   8.81205e-18
      318.556   8.74169e-18
      318.654   8.67188e-18
      318.752   8.60262e-18
      318.850   8.53401e-18
      318.948   8.46596e-18
      319.046   8.39849e-18
      319.144   8.33158e-18
      319.242   8.26526e-18
      319.341   8.19885e-18
      319.439   8.13366e-18
      319.537   8.06906e-18
      319.635   8.00498e-18
      319.734   7.94079e-18
      319.832   7.87782e-18
      319.930   7.81534e-18
      320.029   7.75278e-18
      320.127   7.69139e-18
      320.226   7.62992e-18
      320.324   7.56953e-18
      320.423   7.50903e-18
      320.522   7.44915e-18
      320.620   7.39033e-18
      320.719   7.33138e-18
      320.818   7.27297e-18
      320.916   7.21562e-18
      321.015   7.15818e-18
      321.114   7.10120e-18
      321.213   7.04473e-18
      321.311   6.98931e-18
      321.410   6.93381e-18
      321.509   6.87872e-18
      321.608   6.82413e-18
      321.707   6.77000e-18
      321.806   6.71631e-18
      321.905   6.66309e-18
      322.004   6.61031e-18
      322.103   6.55798e-18
      322.202   6.50604e-18
      322.301   6.45458e-18
      322.401   6.40306e-18
      322.500   6.35246e-18
      322.599   6.30228e-18
      322.698   6.25249e-18
      322.798   6.20264e-18
      322.897   6.15369e-18
      322.996   6.10516e-18
      323.096   6.05652e-18
      323.195   6.00878e-18
      323.294   5.96140e-18
      323.394   5.91397e-18
      323.493   5.86739e-18
      323.593   5.82077e-18
      323.692   5.77495e-18
      323.792   5.72905e-18
      323.892   5.68352e-18
      323.991   5.63880e-18
      324.091   5.59406e-18
      324.191   5.54965e-18
      324.291   5.50559e-18
      324.390   5.46235e-18
      324.490   5.41902e-18
      324.590   5.37603e-18
      324.690   5.33339e-18
      324.790   5.29110e-18
      324.890   5.24916e-18
      324.990   5.20756e-18
      325.090   5.16629e-18
      325.190   5.12533e-18
      325.290   5.08473e-18
      325.390   5.04442e-18
      325.490   5.00446e-18
      325.590   4.96484e-18
      325.690   4.92546e-18
      325.790   4.88643e-18
      325.891   4.84734e-18
      325.991   4.80894e-18
      326.091   4.77082e-18
      326.192   4.73264e-18
      326.292   4.69515e-18
      326.392   4.65795e-18
      326.493   4.62067e-18
      326.593   4.58404e-18
      326.694   4.54737e-18
      326.794   4.51131e-18
      326.895   4.47518e-18
      326.995   4.43969e-18
      327.096   4.40413e-18
      327.197   4.36884e-18
      327.297   4.33418e-18
      327.398   4.29944e-18
      327.499   4.26499e-18
      327.599   4.23112e-18
      327.700   4.19717e-18
      327.801   4.16348e-18
      327.902   4.13009e-18
      328.003   4.09693e-18
      328.104   4.06403e-18
      328.205   4.03139e-18
      328.306   3.99900e-18
      328.407   3.96686e-18
      328.508   3.93494e-18
      328.609   3.90327e-18
      328.710   3.87184e-18
      328.811   3.84066e-18
      328.912   3.80973e-18
      329.013   3.77902e-18
      329.115   3.74827e-18
      329.216   3.71804e-18
      329.317   3.68801e-18
      329.419   3.65796e-18
      329.520   3.62840e-18
      329.621   3.59903e-18
      329.723   3.56964e-18
      329.824   3.54077e-18
      329.926   3.51182e-18
      330.027   3.48336e-18
      330.129   3.45484e-18
      330.230   3.42683e-18
      330.332   3.39873e-18
      330.434   3.37085e-18
      330.535   3.34346e-18
      330.637   3.31600e-18
      330.739   3.28875e-18
      330.840   3.26196e-18
      330.942   3.23511e-18
      331.044   3.20848e-18
      331.146   3.18203e-18
      331.248   3.15579e-18
      331.350   3.12976e-18
      331.452   3.10394e-18
      331.554   3.07905e-18
      331.656   3.05547e-18
      331.758   3.03206e-18
      331.860   3.00880e-18
      331.962   2.98571e-18
      332.064   2.96277e-18
      332.166   2.94002e-18
      332.268   2.91739e-18
      332.371   2.89472e-18
      332.473   2.87240e-18
      332.575   2.85022e-18
      332.677   2.82822e-18
      332.780   2.80615e-18
      332.882   2.78445e-18
      332.985   2.76268e-18
      333.087   2.74126e-18
      333.190   2.71981e-18
      333.292   2.69833e-18
      333.395   2.67586e-18
      333.497   2.65341e-18
      333.600   2.63093e-18
      333.702   2.60882e-18
      333.805   2.58668e-18
      333.908   2.56469e-18
      334.011   2.54289e-18
      334.113   2.52145e-18
      334.216   2.49996e-18
      334.319   2.47865e-18
      334.422   2.45748e-18
      334.525   2.43649e-18
      334.628   2.41565e-18
      334.731   2.39499e-18
      334.834   2.37449e-18
      334.937   2.35413e-18
      335.040   2.33393e-18
      335.143   2.31390e-18
      335.246   2.29401e-18
      335.349   2.27427e-18
      335.452   2.25469e-18
      335.555   2.23527e-18
      335.659   2.21581e-18
      335.762   2.19670e-18
      335.865   2.17774e-18
      335.969   2.15873e-18
      336.072   2.14004e-18
      336.175   2.12151e-18
      336.279   2.10295e-18
      336.382   2.08472e-18
      336.486   2.06645e-18
      336.589   2.04849e-18
      336.693   2.03052e-18
      336.796   2.01286e-18
      336.900   1.99517e-18
      337.004   1.97761e-18
      337.107   1.96037e-18
      337.211   1.94310e-18
      337.315   1.92599e-18
      337.419   1.90899e-18
      337.523   1.89212e-18
      337.626   1.87556e-18
      337.730   1.85900e-18
      337.834   1.84254e-18
      337.938   1.82624e-18
      338.042   1.81011e-18
      338.146   1.79434e-18
      338.250   1.77873e-18
      338.354   1.76324e-18
      338.458   1.74786e-18
      338.562   1.73261e-18
      338.667   1.71735e-18
      338.771   1.70234e-18
      338.875   1.68746e-18
      338.979   1.67270e-18
      339.084   1.65794e-18
      339.188   1.64342e-18
      339.292   1.62904e-18
      339.397   1.61462e-18
      339.501   1.60047e-18
      339.606   1.58629e-18
      339.710   1.57237e-18
      339.815   1.55843e-18
      339.919   1.54475e-18
      340.024   1.53104e-18
      340.128   1.51758e-18
      340.233   1.50410e-18
      340.338   1.49075e-18
      340.442   1.47762e-18
      340.547   1.46449e-18
      340.652   1.45147e-18
      340.757   1.43855e-18
      340.862   1.42574e-18
      340.966   1.41318e-18
      341.071   1.40058e-18
      341.176   1.38810e-18
      341.281   1.37573e-18
      341.386   1.36348e-18
      341.491   1.35131e-18
      341.596   1.33927e-18
      341.702   1.32721e-18
      341.807   1.31536e-18
      341.912   1.30363e-18
      342.017   1.29200e-18
      342.122   1.28046e-18
      342.228   1.26892e-18
      342.333   1.25759e-18
      342.438   1.24636e-18
      342.544   1.23513e-18
      342.649   1.22409e-18
      342.754   1.21316e-18
      342.860   1.20221e-18
      342.965   1.19146e-18
      343.071   1.18073e-18
      343.176   1.17018e-18
      343.282   1.15962e-18
      343.388   1.14916e-18
      343.493   1.13897e-18
      343.599   1.12938e-18
      343.705   1.11995e-18
      343.810   1.11067e-18
      343.916   1.10138e-18
      344.022   1.09219e-18
      344.128   1.08306e-18
      344.234   1.07401e-18
      344.340   1.06504e-18
      344.446   1.05613e-18
      344.552   1.04731e-18
      344.658   1.03857e-18
      344.764   1.02991e-18
      344.870   1.02131e-18
      344.976   1.01279e-18
      345.082   1.00434e-18
      345.188   9.95965e-19
      345.294   9.87657e-19
      345.401   9.79347e-19
      345.507   9.71185e-19
      345.613   9.63096e-19
      345.719   9.55075e-19
      345.826   9.47051e-19
      345.932   9.39167e-19
      346.039   9.31283e-19
      346.145   9.23533e-19
      346.252   9.15787e-19
      346.358   9.08178e-19
      346.465   9.00561e-19
      346.571   8.93084e-19
      346.678   8.85600e-19
      346.785   8.78182e-19
      346.891   8.70899e-19
      346.998   8.63614e-19
      347.105   8.56397e-19
      347.212   8.49236e-19
      347.319   8.42142e-19
      347.425   8.35168e-19
      347.532   8.28196e-19
      347.639   8.21290e-19
      347.746   8.14439e-19
      347.853   8.07655e-19
      347.960   8.00922e-19
      348.067   7.94261e-19
      348.174   7.87658e-19
      348.281   7.81101e-19
      348.389   7.74554e-19
      348.496   7.68112e-19
      348.603   7.61743e-19
      348.710   7.55418e-19
      348.818   7.49102e-19
      348.925   7.42890e-19
      349.032   7.36741e-19
      349.140   7.30572e-19
      349.247   7.24512e-19
      349.355   7.18461e-19
      349.462   7.12511e-19
      349.570   7.06554e-19
      349.677   7.00713e-19
      349.785   6.94864e-19
      349.892   6.89127e-19
      350.000   6.83388e-19
      350.100   6.78118e-19
      350.193   6.73260e-19
      350.287   6.68382e-19
      350.380   6.63593e-19
      350.473   6.58845e-19
      350.567   6.54078e-19
      350.660   6.49402e-19
      350.754   6.44711e-19
      350.847   6.40111e-19
      350.941   6.35493e-19
      351.034   6.30957e-19
      351.128   6.26413e-19
      351.221   6.21950e-19
      351.315   6.17477e-19
      351.409   6.13031e-19
      351.502   6.08672e-19
      351.596   6.04297e-19
      351.690   5.99956e-19
      351.783   5.95698e-19
      351.877   5.91430e-19
      351.971   5.87187e-19
      352.065   5.82981e-19
      352.159   5.78809e-19
      352.252   5.74710e-19
      352.346   5.70597e-19
      352.440   5.66518e-19
      352.534   5.62475e-19
      352.628   5.58461e-19
      352.722   5.54474e-19
      352.816   5.50518e-19
      352.910   5.46596e-19
      353.004   5.42703e-19
      353.098   5.38838e-19
      353.192   5.35002e-19
      353.287   5.31158e-19
      353.381   5.27382e-19
      353.475   5.23638e-19
      353.569   5.19916e-19
      353.663   5.16225e-19
      353.758   5.12529e-19
      353.852   5.08897e-19
      353.946   5.05292e-19
      354.041   5.01674e-19
      354.135   4.98124e-19
      354.229   4.94598e-19
      354.324   4.91067e-19
      354.418   4.87592e-19
      354.513   4.84110e-19
      354.607   4.80697e-19
      354.702   4.77255e-19
      354.796   4.73835e-19
      354.891   4.70397e-19
      354.985   4.67026e-19
      355.080   4.63642e-19
      355.175   4.60286e-19
      355.269   4.56986e-19
      355.364   4.53680e-19
      355.459   4.50399e-19
      355.553   4.47177e-19
      355.648   4.43945e-19
      355.743   4.40739e-19
      355.838   4.37553e-19
      355.933   4.34397e-19
      356.027   4.31296e-19
      356.122   4.28183e-19
      356.217   4.25094e-19
      356.312   4.22032e-19
      356.407   4.18990e-19
      356.502   4.15972e-19
      356.597   4.12972e-19
      356.692   4.10002e-19
      356.787   4.07050e-19
      356.882   4.04119e-19
      356.977   4.01213e-19
      357.073   3.98299e-19
      357.168   3.95432e-19
      357.263   3.92589e-19
      357.358   3.89768e-19
      357.453   3.86968e-19
      357.549   3.84160e-19
      357.644   3.81400e-19
      357.739   3.78662e-19
      357.835   3.75916e-19
      357.930   3.73218e-19
      358.025   3.70538e-19
      358.121   3.67851e-19
      358.216   3.65211e-19
      358.312   3.62563e-19
      358.407   3.59963e-19
      358.503   3.57354e-19
      358.598   3.54794e-19
      358.694   3.52223e-19
      358.790   3.49671e-19
      358.885   3.47162e-19
      358.981   3.44648e-19
      359.076   3.42177e-19
      359.172   3.39700e-19
      359.268   3.37237e-19
      359.364   3.34794e-19
      359.459   3.32396e-19
      359.555   3.29990e-19
      359.651   3.27598e-19
      359.747   3.25225e-19
      359.843   3.22870e-19
      359.939   3.20530e-19
      360.035   3.18209e-19
      360.131   3.15904e-19
      360.227   3.13614e-19
      360.323   3.11343e-19
      360.419   3.09087e-19
      360.515   3.06848e-19
      360.611   3.04625e-19
      360.707   3.02414e-19
      360.803   3.00223e-19
      360.899   2.98045e-19
      360.995   2.95886e-19
      361.092   2.93718e-19
      361.188   2.91587e-19
      361.284   2.89471e-19
      361.380   2.87372e-19
      361.477   2.85264e-19
      361.573   2.83193e-19
      361.669   2.81137e-19
      361.766   2.79071e-19
      361.862   2.77045e-19
      361.959   2.75011e-19
      362.055   2.73009e-19
      362.152   2.71004e-19
      362.248   2.69032e-19
      362.345   2.67052e-19
      362.441   2.65109e-19
      362.538   2.63160e-19
      362.635   2.61223e-19
      362.731   2.59318e-19
      362.828   2.57406e-19
      362.925   2.55509e-19
      363.021   2.53645e-19
      363.118   2.51775e-19
      363.215   2.49916e-19
      363.312   2.48070e-19
      363.409   2.46239e-19
      363.505   2.44437e-19
      363.602   2.42629e-19
      363.699   2.40836e-19
      363.796   2.39054e-19
      363.893   2.37283e-19
      363.990   2.35525e-19
      364.087   2.33779e-19
      364.184   2.32046e-19
      364.281   2.30324e-19
      364.378   2.28615e-19
      364.475   2.26917e-19
      364.573   2.25212e-19
      364.670   2.23536e-19
      364.767   2.21874e-19
      364.864   2.20222e-19
      364.961   2.18581e-19
      365.059   2.16935e-19
      365.156   2.15318e-19
      365.253   2.13711e-19
      365.351   2.12098e-19
      365.448   2.10512e-19
      365.545   2.08939e-19
      365.643   2.07359e-19
      365.740   2.05806e-19
      365.838   2.04248e-19
      365.935   2.02717e-19
      366.033   2.01181e-19
      366.130   1.99670e-19
      366.228   1.98155e-19
      366.326   1.96650e-19
      366.423   1.95170e-19
      366.521   1.93686e-19
      366.618   1.92226e-19
      366.716   1.90761e-19
      366.814   1.89307e-19
      366.912   1.87863e-19
      367.010   1.86429e-19
      367.107   1.85020e-19
      367.205   1.83605e-19
      367.303   1.82199e-19
      367.401   1.80804e-19
      367.499   1.79418e-19
      367.597   1.78042e-19
      367.695   1.76675e-19
      367.793   1.75318e-19
      367.891   1.73971e-19
      367.989   1.72633e-19
      368.087   1.71303e-19
      368.185   1.69983e-19
      368.283   1.68672e-19
      368.381   1.67370e-19
      368.480   1.66064e-19
      368.578   1.64780e-19
      368.676   1.63506e-19
      368.774   1.62240e-19
      368.873   1.60971e-19
      368.971   1.59722e-19
      369.069   1.58483e-19
      369.168   1.57239e-19
      369.266   1.56016e-19
      369.364   1.54802e-19
      369.463   1.53585e-19
      369.561   1.52389e-19
      369.660   1.51188e-19
      369.758   1.50008e-19
      369.857   1.48825e-19
      369.955   1.47662e-19
      370.054   1.46494e-19
      370.153   1.45335e-19
      370.251   1.44196e-19
      370.350   1.43055e-19
      370.449   1.41921e-19
      370.547   1.40806e-19
      370.646   1.39687e-19
      370.745   1.38578e-19
      370.844   1.37476e-19
      370.943   1.36382e-19
      371.041   1.35307e-19
      371.140   1.34227e-19
      371.239   1.33156e-19
      371.338   1.32094e-19
      371.437   1.31039e-19
      371.536   1.29991e-19
      371.635   1.28950e-19
      371.734   1.27918e-19
      371.833   1.26893e-19
      371.932   1.25875e-19
      372.032   1.24855e-19
      372.131   1.23852e-19
      372.230   1.22857e-19
      372.329   1.21869e-19
      372.428   1.20889e-19
      372.528   1.19906e-19
      372.627   1.18940e-19
      372.726   1.17982e-19
      372.826   1.17021e-19
      372.925   1.16076e-19
      373.024   1.15139e-19
      373.124   1.14198e-19
      373.223   1.13275e-19
      373.323   1.12349e-19
      373.422   1.11439e-19
      373.522   1.10527e-19
      373.621   1.09631e-19
      373.721   1.08732e-19
      373.820   1.07849e-19
      373.920   1.06964e-19
      374.020   1.06085e-19
      374.119   1.05222e-19
      374.219   1.04357e-19
      374.319   1.03499e-19
      374.419   1.02647e-19
      374.518   1.01810e-19
      374.618   1.00971e-19
      374.718   1.00137e-19
      374.818   9.93113e-20
      374.918   9.84917e-20
      375.018   9.76780e-20
      375.118   9.68710e-20
      375.218   9.60695e-20
      375.318   9.52749e-20
      375.418   9.44858e-20
      375.518   9.37037e-20
      375.618   9.29276e-20
      375.718   9.21566e-20
      375.818   9.13921e-20
      375.918   9.06336e-20
      376.019   8.98741e-20
      376.119   8.91277e-20
      376.219   8.83871e-20
      376.319   8.76521e-20
      376.420   8.69160e-20
      376.520   8.61926e-20
      376.620   8.54755e-20
      376.721   8.47565e-20
      376.821   8.40505e-20
      376.922   8.33431e-20
      377.022   8.26480e-20
      377.122   8.19592e-20
      377.223   8.12689e-20
      377.323   8.05908e-20
      377.424   7.99113e-20
      377.525   7.92376e-20
      377.625   7.85756e-20
      377.726   7.79126e-20
      377.827   7.72553e-20
      377.927   7.66092e-20
      378.028   7.59625e-20
      378.129   7.53208e-20
      378.230   7.47683e-20
      378.330   7.43533e-20
      378.431   7.39578e-20
      378.532   7.35647e-20
      378.633   7.31729e-20
      378.734   7.27834e-20
      378.835   7.23958e-20
      378.936   7.20101e-20
      379.037   7.16262e-20
      379.138   7.12436e-20
      379.239   7.08634e-20
      379.340   7.04857e-20
      379.441   7.01095e-20
      379.542   6.97350e-20
      379.643   6.93625e-20
      379.745   6.89883e-20
      379.846   6.86196e-20
      379.947   6.82522e-20
      380.048   6.78873e-20
      380.150   6.75206e-20
      380.251   6.71592e-20
      380.352   6.67999e-20
      380.454   6.64391e-20
      380.555   6.60833e-20
      380.656   6.57291e-20
      380.758   6.53736e-20
      380.859   6.50233e-20
      380.961   6.46717e-20
      381.062   6.43252e-20
      381.164   6.39772e-20
      381.266   6.36310e-20
      381.367   6.32900e-20
      381.469   6.29477e-20
      381.570   6.26105e-20
      381.672   6.22715e-20
      381.774   6.19346e-20
      381.876   6.15993e-20
      381.977   6.12694e-20
      382.079   6.09378e-20
      382.181   6.06081e-20
      382.283   6.02805e-20
      382.385   5.99543e-20
      382.487   5.96301e-20
      382.589   5.93076e-20
      382.691   5.89868e-20
      382.793   5.86680e-20
      382.895   5.83510e-20
      382.997   5.80357e-20
      383.099   5.77221e-20
      383.201   5.74103e-20
      383.303   5.71004e-20
      383.405   5.67918e-20
      383.507   5.64849e-20
      383.610   5.61773e-20
      383.712   5.58741e-20
      383.814   5.55728e-20
      383.916   5.52734e-20
      384.019   5.49725e-20
      384.121   5.46763e-20
      384.223   5.43814e-20
      384.326   5.40953e-20
      384.428   5.38368e-20
      384.531   5.35842e-20
      384.633   5.33354e-20
      384.736   5.30854e-20
      384.838   5.28387e-20
      384.941   5.25911e-20
      385.043   5.23471e-20
      385.146   5.21024e-20
      385.249   5.18585e-20
      385.351   5.16182e-20
      385.454   5.13771e-20
      385.557   5.11371e-20
      385.660   5.08984e-20
      385.762   5.06633e-20
      385.865   5.04270e-20
      385.968   5.01918e-20
      386.071   4.99580e-20
      386.174   4.97253e-20
      386.277   4.94938e-20
      386.380   4.92636e-20
      386.483   4.90344e-20
      386.586   4.88070e-20
      386.689   4.85805e-20
      386.792   4.83550e-20
      386.895   4.81307e-20
      386.998   4.79078e-20
      387.101   4.76858e-20
      387.204   4.74647e-20
      387.308   4.72432e-20
      387.411   4.70249e-20
      387.514   4.68076e-20
      387.617   4.65915e-20
      387.721   4.63745e-20
      387.824   4.61608e-20
      387.927   4.59480e-20
      388.031   4.57343e-20
      388.134   4.55239e-20
      388.238   4.53127e-20
      388.341   4.51044e-20
      388.445   4.48955e-20
      388.548   4.46893e-20
      388.652   4.44827e-20
      388.755   4.42790e-20
      388.859   4.40742e-20
      388.962   4.38725e-20
      389.066   4.36699e-20
      389.170   4.34686e-20
      389.274   4.32684e-20
      389.377   4.30713e-20
      389.481   4.28729e-20
      389.585   4.26757e-20
      389.689   4.24795e-20
      389.793   4.22845e-20
      389.897   4.20905e-20
      390.000   4.18995e-20
      390.104   4.17077e-20
      390.208   4.15166e-20
      390.312   4.13267e-20
      390.416   4.11374e-20
      390.520   4.09487e-20
      390.625   4.07593e-20
      390.729   4.05727e-20
      390.833   4.03871e-20
      390.937   4.02025e-20
      391.041   4.00189e-20
      391.145   3.98360e-20
      391.250   3.96526e-20
      391.354   3.94718e-20
      391.458   3.92919e-20
      391.563   3.91113e-20
      391.667   3.89334e-20
      391.771   3.87565e-20
      391.876   3.85788e-20
      391.980   3.84035e-20
      392.085   3.82276e-20
      392.189   3.80544e-20
      392.294   3.78804e-20
      392.398   3.77090e-20
      392.503   3.75368e-20
      392.607   3.73669e-20
      392.712   3.71967e-20
      392.817   3.70270e-20
      392.921   3.68602e-20
      393.026   3.66923e-20
      393.131   3.65255e-20
      393.236   3.63592e-20
      393.340   3.61958e-20
      393.445   3.60317e-20
      393.550   3.58681e-20
      393.655   3.57055e-20
      393.760   3.55437e-20
      393.865   3.53829e-20
      393.970   3.52227e-20
      394.075   3.50633e-20
      394.180   3.49051e-20
      394.285   3.47475e-20
      394.390   3.45905e-20
      394.495   3.44344e-20
      394.600   3.42792e-20
      394.706   3.41232e-20
      394.811   3.39697e-20
      394.916   3.38164e-20
      395.021   3.36642e-20
      395.126   3.35129e-20
      395.232   3.33607e-20
      395.337   3.32106e-20
      395.443   3.30601e-20
      395.548   3.29116e-20
      395.653   3.27637e-20
      395.759   3.26155e-20
      395.864   3.24693e-20
      395.970   3.23224e-20
      396.075   3.21775e-20
      396.181   3.20320e-20
      396.286   3.18883e-20
      396.392   3.17443e-20
      396.498   3.16011e-20
      396.603   3.14594e-20
      396.709   3.13173e-20
      396.815   3.11755e-20
      396.921   3.10347e-20
      397.026   3.08959e-20
      397.132   3.07565e-20
      397.238   3.06178e-20
      397.344   3.04796e-20
      397.450   3.03423e-20
      397.556   3.02053e-20
      397.662   3.00690e-20
      397.768   2.99334e-20
      397.874   2.97987e-20
      397.980   2.96641e-20
      398.086   2.95305e-20
      398.192   2.93972e-20
      398.298   2.92646e-20
      398.404   2.91329e-20
      398.510   2.90015e-20
      398.617   2.88695e-20
      398.723   2.87394e-20
      398.829   2.86098e-20
      398.935   2.84806e-20
      399.042   2.83512e-20
      399.148   2.82231e-20
      399.255   2.80946e-20
      399.361   2.79679e-20
      399.467   2.78415e-20
      399.574   2.77149e-20
      399.680   2.75896e-20
      399.787   2.74636e-20
      399.893       0.00000
      400.000       0.00000
