Filter Al-med
observation_date 22-Sept-2023 22:45:45
wavelength effective area
      1.00000   2.66384e-10
      1.10000   7.49522e-10
      1.20000   1.91512e-09
      1.30000   4.48760e-09
      1.40000   9.94632e-09
      1.50000   2.06560e-08
      1.60000   4.05595e-08
      1.70000   7.60789e-08
      1.80000   1.36311e-07
      1.90000   2.34789e-07
      2.00000   3.89498e-07
      2.10000   6.24937e-07
      2.20000   9.74162e-07
      2.30000   1.47327e-06
      2.40000   2.16526e-06
      2.50000   3.08200e-06
      2.60000   4.35707e-06
      2.70000   5.98510e-06
      2.80000   8.02212e-06
      2.90000   1.05756e-05
      3.00000   1.36491e-05
      3.10000   1.72878e-05
      3.20000   2.15263e-05
      3.30000   2.63682e-05
      3.40000   3.17693e-05
      3.50000   3.76789e-05
      3.60000   4.41654e-05
      3.70000   5.09337e-05
      3.80000   5.80782e-05
      3.90000   6.54276e-05
      4.00000   7.27855e-05
      4.10000   8.00601e-05
      4.20000   8.71554e-05
      4.30000   9.39543e-05
      4.40000   0.000100326
      4.50000   0.000106122
      4.60000   0.000111160
      4.70000   0.000115605
      4.80000   0.000119202
      4.90000   0.000120670
      5.00000   0.000124279
      5.10000   0.000125576
      5.20000   0.000126151
      5.30000   0.000125027
      5.40000   0.000122707
      5.50000   0.000119878
      5.60000   0.000112831
      5.70000   0.000111163
      5.80000   9.77650e-05
      5.90000   0.000111552
      6.00000   0.000111422
      6.10000   0.000105167
      6.20000   9.55586e-05
      6.30000   8.25571e-05
      6.40000   6.78423e-05
      6.50000   5.31427e-05
      6.60000   3.94506e-05
      6.70000   2.87399e-05
      6.80000   2.03382e-05
      6.90000   1.86915e-05
      7.00000   1.41816e-05
      7.10000   1.03982e-05
      7.20000   7.48107e-06
      7.30000   5.33438e-06
      7.40000   3.77676e-06
      7.50000   2.63070e-06
      7.60000   1.80018e-06
      7.70000   1.22753e-06
      7.80000   8.18825e-07
      7.90000   5.40992e-07
      8.00000      0.298585
      8.10000      0.314865
      8.20000      0.307833
      8.30000      0.299331
      8.40000      0.290274
      8.50000      0.280939
      8.60000      0.271288
      8.70000      0.261473
      8.80000      0.251468
      8.90000      0.241379
      9.00000      0.231259
      9.10000      0.221155
      9.20000      0.211106
      9.30000      0.201195
      9.40000      0.191417
      9.50000      0.181797
      9.60000      0.172418
      9.70000      0.163250
      9.80000      0.154280
      9.90000      0.145566
      10.0000      0.137108
      10.1000      0.128907
      10.2000      0.120977
      10.3000      0.113373
      10.4000      0.106102
      10.5000     0.0991376
      10.6000     0.0924833
      10.7000     0.0861387
      10.8000     0.0801158
      10.9000     0.0744252
      11.0000     0.0690312
      11.1000     0.0639298
      11.2000     0.0591134
      11.3000     0.0545768
      11.4000     0.0503106
      11.5000     0.0463052
      11.6000     0.0425522
      11.7000     0.0390558
      11.8000     0.0357960
      11.9000     0.0327856
      12.0000     0.0299681
      12.1000     0.0274667
      12.2000     0.0256002
      12.3000     0.0235531
      12.4000     0.0214651
      12.5000     0.0195189
      12.6000     0.0177168
      12.7000     0.0160536
      12.8000     0.0145234
      12.9000     0.0131194
      13.0000     0.0118334
      13.1000     0.0106573
      13.2000    0.00958365
      13.3000    0.00860499
      13.4000    0.00771462
      13.5000    0.00690797
      13.6000    0.00618346
      13.7000    0.00552701
      13.8000    0.00493292
      13.9000    0.00439615
      14.0000    0.00391176
      14.1000    0.00347507
      14.2000    0.00308192
      14.3000    0.00272851
      14.4000    0.00241132
      14.5000    0.00212901
      14.6000    0.00187935
      14.7000    0.00165599
      14.8000    0.00145637
      14.9000    0.00127822
      15.0000    0.00111946
      15.1000   0.000978240
      15.2000   0.000855759
      15.3000   0.000747486
      15.4000   0.000651402
      15.5000   0.000566281
      15.6000   0.000491035
      15.7000   0.000425721
      15.8000   0.000369392
      15.9000   0.000319716
      16.0000   0.000275997
      16.1000   0.000237613
      16.2000   0.000205122
      16.3000   0.000176878
      16.4000   0.000152023
      16.5000   0.000130209
      16.6000   0.000111566
      16.7000   9.57109e-05
      16.8000   8.17771e-05
      16.9000   6.95769e-05
      17.0000   5.92576e-05
      17.1000   5.05265e-05
      17.2000   4.28710e-05
      17.3000   3.61972e-05
      17.4000   3.07767e-05
      17.5000   2.61547e-05
      17.6000   2.21471e-05
      17.7000   1.87640e-05
      17.8000   1.60383e-05
      17.9000   1.36336e-05
      18.0000   1.15150e-05
      18.1000   9.79123e-06
      18.2000   8.26841e-06
      18.3000   6.91729e-06
      18.4000   5.79143e-06
      18.5000   4.82566e-06
      18.6000   3.97253e-06
      18.7000   3.26506e-06
      18.8000   2.68301e-06
      18.9000   2.17983e-06
      19.0000   1.78106e-06
      19.1000   1.45581e-06
      19.2000   1.17592e-06
      19.3000   9.60520e-07
      19.4000   7.82580e-07
      19.5000   6.29724e-07
      19.6000   5.16317e-07
      19.7000   4.19415e-07
      19.8000   3.37134e-07
      19.9000   2.76692e-07
      20.0000   2.23418e-07
      20.1000   1.80456e-07
      20.2000   1.46709e-07
      20.3000   1.17187e-07
      20.4000   9.50722e-08
      20.5000   7.63700e-08
      20.6000   6.07073e-08
      20.7000   4.91426e-08
      20.8000   3.89084e-08
      20.9000   3.11963e-08
      21.0000   2.48476e-08
      21.1000   1.95227e-08
      21.2000   1.56783e-08
      21.3000   1.22579e-08
      21.4000   9.76701e-09
      21.5000   7.68004e-09
      21.6000   6.00159e-09
      21.7000   4.75480e-09
      21.8000   3.65254e-09
      21.9000   2.91038e-09
      22.0000   2.24536e-09
      22.1000   1.75786e-09
      22.2000   1.36055e-09
      22.3000   1.04159e-09
      22.4000   7.99450e-10
      22.5000   5.82461e-10
      22.6000   4.17928e-10
      22.7000   2.81498e-10
      22.8000   2.70714e-10
      22.9000   2.68671e-10
      23.0000   2.72201e-10
      23.1000   2.53025e-10
      23.2000   2.12480e-10
      23.3000   1.73032e-10
      23.4000   1.34152e-10
      23.5000   1.06325e-10
      23.6000   8.12645e-11
      23.7000   6.45066e-11
      23.8000   4.86798e-11
      23.9000   3.86393e-11
      24.0000   2.91292e-11
      24.1000   2.29299e-11
      24.2000   1.72512e-11
      24.3000   1.34904e-11
      24.4000   1.01426e-11
      24.5000   7.88959e-12
      24.6000   5.92853e-12
      24.7000   4.59032e-12
      24.8000   3.44620e-12
      24.9000   2.66389e-12
      25.0000   1.99940e-12
      25.1000   1.54104e-12
      25.2000   1.15286e-12
      25.3000   8.88050e-13
      25.4000   6.62052e-13
      25.5000   5.09464e-13
      25.6000   3.77466e-13
      25.7000   2.90582e-13
      25.8000   2.13728e-13
      25.9000   1.64733e-13
      26.0000   1.20074e-13
      26.1000   9.27646e-14
      26.2000   6.69153e-14
      26.3000   5.18698e-14
      26.4000   3.69744e-14
      26.5000   2.87834e-14
      26.6000   2.06372e-14
      26.7000   1.58426e-14
      26.8000   1.14656e-14
      26.9000   8.64674e-15
      27.0000   6.32351e-15
      27.1000   4.67545e-15
      27.2000   3.45719e-15
      27.3000   2.50521e-15
      27.4000   1.88313e-15
      27.5000   1.34032e-15
      27.6000   1.01717e-15
      27.7000   7.04649e-16
      27.8000   5.41153e-16
      27.9000   3.78549e-16
      28.0000   2.84337e-16
      28.1000   2.03777e-16
      28.2000   1.48172e-16
      28.3000   1.09234e-16
      28.4000   7.72213e-17
      28.5000   5.81746e-17
      28.6000   3.99261e-17
      28.7000   3.09814e-17
      28.8000   2.20865e-17
      28.9000   1.66464e-17
      29.0000   1.22065e-17
      29.1000   8.82535e-18
      29.2000   6.63751e-18
      29.3000   4.61494e-18
      29.4000   3.55059e-18
      29.5000   2.49230e-18
      29.6000   1.86812e-18
      29.7000   1.36012e-18
      29.8000   9.66652e-19
      29.9000   7.26075e-19
      30.0000   4.91867e-19
      30.1000   3.79485e-19
      30.2000   2.67746e-19
      30.3000   1.96094e-19
      30.4000   1.47429e-19
      30.5000   1.03976e-19
      30.6000   7.90913e-20
      30.7000   5.43496e-20
      30.8000   4.00801e-20
      30.9000   2.89948e-20
      31.0000   1.98357e-20
      31.1000   1.49418e-20
      31.2000   1.00763e-20
      31.3000   7.46867e-21
      31.4000   5.35286e-21
      31.5000   3.63143e-21
      31.6000   2.72530e-21
      31.7000   1.82449e-21
      31.8000   1.33883e-21
      31.9000   9.58971e-22
      32.0000   6.37331e-22
      32.1000   4.79647e-22
      32.2000   3.22891e-22
      32.3000   2.30402e-22
      32.4000   1.66398e-22
      32.5000   1.06912e-22
      32.6000   8.12151e-23
      32.7000   5.56701e-23
      32.8000   3.79680e-23
      32.9000   2.78707e-23
      33.0000   1.78334e-23
      33.1000   1.31861e-23
      33.2000   9.28763e-24
      33.3000   5.96763e-24
      33.4000   4.47761e-24
      33.5000   2.99616e-24
      33.6000   2.04054e-24
      33.7000   1.48424e-24
      33.8000   9.31075e-25
      33.9000   6.83772e-25
      34.0000   4.79702e-25
      34.1000   2.98219e-25
      34.2000   2.23288e-25
      34.3000   1.48758e-25
      34.4000   9.56109e-26
      34.5000   6.98136e-26
      34.6000   4.41566e-26
      34.7000   2.98135e-26
      34.8000   2.07431e-26
      34.9000   1.17216e-26
      35.0000   8.38001e-27
      35.1000   5.63840e-27
      35.2000   3.11713e-27
      35.3000   2.30396e-27
      35.4000   1.49518e-27
      35.5000   8.53985e-28
      35.6000   6.19944e-28
      35.7000   3.87173e-28
      35.8000   2.29033e-28
      35.9000   1.63355e-28
      36.0000   9.80352e-29
      36.1000   6.01482e-29
      36.2000   4.21853e-29
      36.3000   2.43205e-29
      36.4000   1.54706e-29
      36.5000   1.06843e-29
      36.6000   5.92459e-30
      36.7000   3.89671e-30
      36.8000   2.65574e-30
      36.9000   1.42167e-30
      37.0000   9.61577e-31
      37.1000   6.48510e-31
      37.2000   3.37166e-31
      37.3000   2.32470e-31
      37.4000   1.55657e-31
      37.5000   7.92731e-32
      37.6000   5.50512e-32
      37.7000   3.67361e-32
      37.8000   1.85238e-32
      37.9000   1.27673e-32
      38.0000   8.52450e-33
      38.1000   4.30544e-33
      38.2000   2.89773e-33
      38.3000   1.94348e-33
      38.4000   9.94567e-34
      38.5000   6.43024e-34
      38.6000   4.34853e-34
      38.7000   2.27850e-34
      38.8000   1.39405e-34
      38.9000   9.53719e-35
      39.0000   5.15853e-35
      39.1000   2.94935e-35
      39.2000   2.04681e-35
      39.3000   1.14933e-35
      39.4000   6.08154e-36
      39.5000   4.29000e-36
      39.6000   2.50867e-36
      39.7000   1.22054e-36
      39.8000   8.76419e-37
      39.9000   5.34237e-37
      40.0000   2.38096e-37
      40.1000   1.74166e-37
      40.2000   1.10597e-37
      40.3000   4.73949e-38
      40.4000   3.36019e-38
      40.5000   2.21882e-38
      40.6000   1.08388e-38
      40.7000   6.28199e-39
      40.8000   4.30238e-39
      40.9000   2.33417e-39
      41.0000   1.13575e-39
      41.1000   8.04513e-40
      41.2000   4.75193e-40
      41.3000   1.98315e-40
      41.4000   1.44876e-40
      41.5000   9.17332e-41
      41.6000   3.88958e-41
      41.7000   2.50931e-41
      41.8000   1.68282e-41
      41.9000   8.61098e-42
      42.0000   4.17867e-42
      42.1000   2.93572e-42
      42.2000   1.70678e-42
      42.3000   6.64215e-43
      42.4000   4.86251e-43
      42.5000   3.12490e-43
      42.6000   1.34525e-43
      42.7000   7.70714e-44
      42.8000   5.04467e-44
      42.9000   2.52234e-44
      43.0000   1.26117e-44
      43.1000   9.80909e-45
      43.2000   2.80260e-45
      43.3000       0.00000
      43.4000   2.80260e-45
      43.5000   2.80260e-45
      43.6000   2.80260e-45
      43.7000       0.00000
      43.8000       0.00000
      43.9000       0.00000
      44.0000       0.00000
      44.1000       0.00000
      44.2000       0.00000
      44.3000       0.00000
      44.4000       0.00000
      44.5000       0.00000
      44.6000       0.00000
      44.7000       0.00000
      44.8000       0.00000
      44.9000       0.00000
      45.0000       0.00000
      45.1000       0.00000
      45.2000       0.00000
      45.3000       0.00000
      45.4000       0.00000
      45.5000       0.00000
      45.6000       0.00000
      45.7000       0.00000
      45.8000       0.00000
      45.9000       0.00000
      46.0000       0.00000
      46.1000       0.00000
      46.2000       0.00000
      46.3000       0.00000
      46.4000       0.00000
      46.5000       0.00000
      46.6000       0.00000
      46.7000       0.00000
      46.8000       0.00000
      46.9000       0.00000
      47.0000       0.00000
      47.1000       0.00000
      47.2000       0.00000
      47.3000       0.00000
      47.4000       0.00000
      47.5000       0.00000
      47.6000       0.00000
      47.7000       0.00000
      47.8000       0.00000
      47.9000       0.00000
      48.0000       0.00000
      48.1000       0.00000
      48.2000       0.00000
      48.3000       0.00000
      48.4000       0.00000
      48.5000       0.00000
      48.6000       0.00000
      48.7000       0.00000
      48.8000       0.00000
      48.9000       0.00000
      49.0000       0.00000
      49.1000       0.00000
      49.2000       0.00000
      49.3000       0.00000
      49.4000       0.00000
      49.5000       0.00000
      49.6000       0.00000
      49.7000       0.00000
      49.8000       0.00000
      49.9000       0.00000
      50.0000       0.00000
      50.1000       0.00000
      50.2000       0.00000
      50.3000       0.00000
      50.4000       0.00000
      50.5000       0.00000
      50.6000       0.00000
      50.7000       0.00000
      50.8000       0.00000
      50.9000       0.00000
      51.0000       0.00000
      51.1000       0.00000
      51.2000       0.00000
      51.3000       0.00000
      51.4000       0.00000
      51.5000       0.00000
      51.6000       0.00000
      51.7000       0.00000
      51.8000       0.00000
      51.9000       0.00000
      52.0000       0.00000
      52.1000       0.00000
      52.2000       0.00000
      52.3000       0.00000
      52.4000       0.00000
      52.5000       0.00000
      52.6000       0.00000
      52.7000       0.00000
      52.8000       0.00000
      52.9000       0.00000
      53.0000       0.00000
      53.1000       0.00000
      53.2000       0.00000
      53.3000       0.00000
      53.4000       0.00000
      53.5000       0.00000
      53.6000       0.00000
      53.7000       0.00000
      53.8000       0.00000
      53.9000       0.00000
      54.0000       0.00000
      54.1000       0.00000
      54.2000       0.00000
      54.3000       0.00000
      54.4000       0.00000
      54.5000       0.00000
      54.6000       0.00000
      54.7000       0.00000
      54.8000       0.00000
      54.9000       0.00000
      55.0000       0.00000
      55.1000       0.00000
      55.2000       0.00000
      55.3000       0.00000
      55.4000       0.00000
      55.5000       0.00000
      55.6000       0.00000
      55.7000       0.00000
      55.8000       0.00000
      55.9000       0.00000
      56.0000       0.00000
      56.1000       0.00000
      56.2000       0.00000
      56.3000       0.00000
      56.4000       0.00000
      56.5000       0.00000
      56.6000       0.00000
      56.7000       0.00000
      56.8000       0.00000
      56.9000       0.00000
      57.0000       0.00000
      57.1000       0.00000
      57.2000       0.00000
      57.3000       0.00000
      57.4000       0.00000
      57.5000       0.00000
      57.6000       0.00000
      57.7000       0.00000
      57.8000       0.00000
      57.9000       0.00000
      58.0000       0.00000
      58.1000       0.00000
      58.2000       0.00000
      58.3000       0.00000
      58.4000       0.00000
      58.5000       0.00000
      58.6000       0.00000
      58.7000       0.00000
      58.8000       0.00000
      58.9000       0.00000
      59.0000       0.00000
      59.1000       0.00000
      59.2000       0.00000
      59.3000       0.00000
      59.4000       0.00000
      59.5000       0.00000
      59.6000       0.00000
      59.7000       0.00000
      59.8000       0.00000
      59.9000       0.00000
      60.0000       0.00000
      60.1000       0.00000
      60.2000       0.00000
      60.3000       0.00000
      60.4000       0.00000
      60.5000       0.00000
      60.6000       0.00000
      60.7000       0.00000
      60.8000       0.00000
      60.9000       0.00000
      61.0000       0.00000
      61.1000       0.00000
      61.2000       0.00000
      61.3000       0.00000
      61.4000       0.00000
      61.5000       0.00000
      61.6000       0.00000
      61.7000       0.00000
      61.8000       0.00000
      61.9000       0.00000
      62.0000       0.00000
      62.1000       0.00000
      62.2000       0.00000
      62.3000       0.00000
      62.4000       0.00000
      62.5000       0.00000
      62.6000       0.00000
      62.7000       0.00000
      62.8000       0.00000
      62.9000       0.00000
      63.0000       0.00000
      63.1000       0.00000
      63.2000       0.00000
      63.3000       0.00000
      63.4000       0.00000
      63.5000       0.00000
      63.6000       0.00000
      63.7000       0.00000
      63.8000       0.00000
      63.9000       0.00000
      64.0000       0.00000
      64.1000       0.00000
      64.2000       0.00000
      64.3000       0.00000
      64.4000       0.00000
      64.5000       0.00000
      64.6000       0.00000
      64.7000       0.00000
      64.8000       0.00000
      64.9000       0.00000
      65.0000       0.00000
      65.1000       0.00000
      65.2000       0.00000
      65.3000       0.00000
      65.4000       0.00000
      65.5000       0.00000
      65.6000       0.00000
      65.7000       0.00000
      65.8000       0.00000
      65.9000       0.00000
      66.0000       0.00000
      66.1000       0.00000
      66.2000       0.00000
      66.3000       0.00000
      66.4000       0.00000
      66.5000       0.00000
      66.6000       0.00000
      66.7000       0.00000
      66.8000       0.00000
      66.9000       0.00000
      67.0000       0.00000
      67.1000       0.00000
      67.2000       0.00000
      67.3000       0.00000
      67.4000       0.00000
      67.5000       0.00000
      67.6000       0.00000
      67.7000       0.00000
      67.8000       0.00000
      67.9000       0.00000
      68.0000       0.00000
      68.1000       0.00000
      68.2000       0.00000
      68.3000       0.00000
      68.4000       0.00000
      68.5000       0.00000
      68.6000       0.00000
      68.7000       0.00000
      68.8000       0.00000
      68.9000       0.00000
      69.0000       0.00000
      69.1000       0.00000
      69.2000       0.00000
      69.3000       0.00000
      69.4000       0.00000
      69.5000       0.00000
      69.6000       0.00000
      69.7000       0.00000
      69.8000       0.00000
      69.9000       0.00000
      70.0000       0.00000
      70.1000       0.00000
      70.2000       0.00000
      70.3000       0.00000
      70.4000       0.00000
      70.5000       0.00000
      70.6000       0.00000
      70.7000       0.00000
      70.8000       0.00000
      70.9000       0.00000
      71.0000       0.00000
      71.1000       0.00000
      71.2000       0.00000
      71.3000       0.00000
      71.4000       0.00000
      71.5000       0.00000
      71.6000       0.00000
      71.7000       0.00000
      71.8000       0.00000
      71.9000       0.00000
      72.0000       0.00000
      72.1000       0.00000
      72.2000       0.00000
      72.3000       0.00000
      72.4000       0.00000
      72.5000       0.00000
      72.6000       0.00000
      72.7000       0.00000
      72.8000       0.00000
      72.9000       0.00000
      73.0000       0.00000
      73.1000       0.00000
      73.2000       0.00000
      73.3000       0.00000
      73.4000       0.00000
      73.5000       0.00000
      73.6000       0.00000
      73.7000       0.00000
      73.8000       0.00000
      73.9000       0.00000
      74.0000       0.00000
      74.1000       0.00000
      74.2000       0.00000
      74.3000       0.00000
      74.4000       0.00000
      74.5000       0.00000
      74.6000       0.00000
      74.7000       0.00000
      74.8000       0.00000
      74.9000       0.00000
      75.0000       0.00000
      75.1000       0.00000
      75.2000       0.00000
      75.3000       0.00000
      75.4000       0.00000
      75.5000       0.00000
      75.6000       0.00000
      75.7000       0.00000
      75.8000       0.00000
      75.9000       0.00000
      76.0000       0.00000
      76.1000       0.00000
      76.2000       0.00000
      76.3000       0.00000
      76.4000       0.00000
      76.5000       0.00000
      76.6000       0.00000
      76.7000       0.00000
      76.8000       0.00000
      76.9000       0.00000
      77.0000       0.00000
      77.1000       0.00000
      77.2000       0.00000
      77.3000       0.00000
      77.4000       0.00000
      77.5000       0.00000
      77.6000       0.00000
      77.7000       0.00000
      77.8000       0.00000
      77.9000       0.00000
      78.0000       0.00000
      78.1000       0.00000
      78.2000       0.00000
      78.3000       0.00000
      78.4000       0.00000
      78.5000       0.00000
      78.6000       0.00000
      78.7000       0.00000
      78.8000       0.00000
      78.9000       0.00000
      79.0000       0.00000
      79.1000       0.00000
      79.2000       0.00000
      79.3000       0.00000
      79.4000       0.00000
      79.5000       0.00000
      79.6000       0.00000
      79.7000       0.00000
      79.8000       0.00000
      79.9000       0.00000
      80.0000       0.00000
      80.1000       0.00000
      80.2000       0.00000
      80.3000       0.00000
      80.4000       0.00000
      80.5000       0.00000
      80.6000       0.00000
      80.7000       0.00000
      80.8000       0.00000
      80.9000       0.00000
      81.0000       0.00000
      81.1000       0.00000
      81.2000       0.00000
      81.3000       0.00000
      81.4000       0.00000
      81.5000       0.00000
      81.6000       0.00000
      81.7000       0.00000
      81.8000       0.00000
      81.9000       0.00000
      82.0000       0.00000
      82.1000       0.00000
      82.2000       0.00000
      82.3000       0.00000
      82.4000       0.00000
      82.5000       0.00000
      82.6000       0.00000
      82.7000       0.00000
      82.8000       0.00000
      82.9000       0.00000
      83.0000       0.00000
      83.1000       0.00000
      83.2000       0.00000
      83.3000       0.00000
      83.4000       0.00000
      83.5000       0.00000
      83.6000       0.00000
      83.7000       0.00000
      83.8000       0.00000
      83.9000       0.00000
      84.0000       0.00000
      84.1000       0.00000
      84.2000       0.00000
      84.3000       0.00000
      84.4000       0.00000
      84.5000       0.00000
      84.6000       0.00000
      84.7000       0.00000
      84.8000       0.00000
      84.9000       0.00000
      85.0000       0.00000
      85.1000       0.00000
      85.2000       0.00000
      85.3000       0.00000
      85.4000       0.00000
      85.5000       0.00000
      85.6000       0.00000
      85.7000       0.00000
      85.8000       0.00000
      85.9000       0.00000
      86.0000       0.00000
      86.1000       0.00000
      86.2000       0.00000
      86.3000       0.00000
      86.4000       0.00000
      86.5000       0.00000
      86.6000       0.00000
      86.7000       0.00000
      86.8000       0.00000
      86.9000       0.00000
      87.0000       0.00000
      87.1000       0.00000
      87.2000       0.00000
      87.3000       0.00000
      87.4000       0.00000
      87.5000       0.00000
      87.6000       0.00000
      87.7000       0.00000
      87.8000       0.00000
      87.9000       0.00000
      88.0000       0.00000
      88.1000       0.00000
      88.2000       0.00000
      88.3000       0.00000
      88.4000       0.00000
      88.5000       0.00000
      88.6000       0.00000
      88.7000       0.00000
      88.8000       0.00000
      88.9000       0.00000
      89.0000       0.00000
      89.1000       0.00000
      89.2000       0.00000
      89.3000       0.00000
      89.4000       0.00000
      89.5000       0.00000
      89.6000       0.00000
      89.7000       0.00000
      89.8000       0.00000
      89.9000       0.00000
      90.0000       0.00000
      90.1000       0.00000
      90.2000       0.00000
      90.3000       0.00000
      90.4000       0.00000
      90.5000       0.00000
      90.6000       0.00000
      90.7000       0.00000
      90.8000       0.00000
      90.9000       0.00000
      91.0000       0.00000
      91.1000       0.00000
      91.2000       0.00000
      91.3000       0.00000
      91.4000       0.00000
      91.5000       0.00000
      91.6000       0.00000
      91.7000       0.00000
      91.8000       0.00000
      91.9000       0.00000
      92.0000       0.00000
      92.1000       0.00000
      92.2000       0.00000
      92.3000       0.00000
      92.4000       0.00000
      92.5000       0.00000
      92.6000       0.00000
      92.7000       0.00000
      92.8000       0.00000
      92.9000       0.00000
      93.0000       0.00000
      93.1000       0.00000
      93.2000       0.00000
      93.3000       0.00000
      93.4000       0.00000
      93.5000       0.00000
      93.6000       0.00000
      93.7000       0.00000
      93.8000       0.00000
      93.9000       0.00000
      94.0000       0.00000
      94.1000       0.00000
      94.2000       0.00000
      94.3000       0.00000
      94.4000       0.00000
      94.5000       0.00000
      94.6000       0.00000
      94.7000       0.00000
      94.8000       0.00000
      94.9000       0.00000
      95.0000       0.00000
      95.1000       0.00000
      95.2000       0.00000
      95.3000       0.00000
      95.4000       0.00000
      95.5000       0.00000
      95.6000       0.00000
      95.7000       0.00000
      95.8000       0.00000
      95.9000       0.00000
      96.0000       0.00000
      96.1000       0.00000
      96.2000       0.00000
      96.3000       0.00000
      96.4000       0.00000
      96.5000       0.00000
      96.6000       0.00000
      96.7000       0.00000
      96.8000       0.00000
      96.9000       0.00000
      97.0000       0.00000
      97.1000       0.00000
      97.2000       0.00000
      97.3000       0.00000
      97.4000       0.00000
      97.5000       0.00000
      97.6000       0.00000
      97.7000       0.00000
      97.8000       0.00000
      97.9000       0.00000
      98.0000       0.00000
      98.1000       0.00000
      98.2000       0.00000
      98.3000       0.00000
      98.4000       0.00000
      98.5000       0.00000
      98.6000       0.00000
      98.7000       0.00000
      98.8000       0.00000
      98.9000       0.00000
      99.0000       0.00000
      99.1000       0.00000
      99.2000       0.00000
      99.3000       0.00000
      99.4000       0.00000
      99.5000       0.00000
      99.6000       0.00000
      99.7000       0.00000
      99.8000       0.00000
      99.9000       0.00000
      100.000       0.00000
      100.100       0.00000
      100.200       0.00000
      100.300       0.00000
      100.400       0.00000
      100.500       0.00000
      100.600       0.00000
      100.700       0.00000
      100.800       0.00000
      100.900       0.00000
      101.000       0.00000
      101.100       0.00000
      101.200       0.00000
      101.300       0.00000
      101.400       0.00000
      101.500       0.00000
      101.600       0.00000
      101.700       0.00000
      101.800       0.00000
      101.900       0.00000
      102.000       0.00000
      102.100       0.00000
      102.200       0.00000
      102.300       0.00000
      102.400       0.00000
      102.500       0.00000
      102.600       0.00000
      102.700       0.00000
      102.800       0.00000
      102.900       0.00000
      103.000       0.00000
      103.100       0.00000
      103.200       0.00000
      103.300       0.00000
      103.400       0.00000
      103.500       0.00000
      103.600       0.00000
      103.700       0.00000
      103.800       0.00000
      103.900       0.00000
      104.000       0.00000
      104.100       0.00000
      104.200       0.00000
      104.300       0.00000
      104.400       0.00000
      104.500       0.00000
      104.600       0.00000
      104.700       0.00000
      104.800       0.00000
      104.900       0.00000
      105.000       0.00000
      105.100       0.00000
      105.200       0.00000
      105.300       0.00000
      105.400       0.00000
      105.500       0.00000
      105.600       0.00000
      105.700       0.00000
      105.800       0.00000
      105.900       0.00000
      106.000       0.00000
      106.100       0.00000
      106.200       0.00000
      106.300       0.00000
      106.400       0.00000
      106.500       0.00000
      106.600       0.00000
      106.700       0.00000
      106.800       0.00000
      106.900       0.00000
      107.000       0.00000
      107.100       0.00000
      107.200       0.00000
      107.300       0.00000
      107.400       0.00000
      107.500       0.00000
      107.600       0.00000
      107.700       0.00000
      107.800       0.00000
      107.900       0.00000
      108.000       0.00000
      108.100       0.00000
      108.200       0.00000
      108.300       0.00000
      108.400       0.00000
      108.500       0.00000
      108.600       0.00000
      108.700       0.00000
      108.800       0.00000
      108.900       0.00000
      109.000       0.00000
      109.100       0.00000
      109.200       0.00000
      109.300       0.00000
      109.400       0.00000
      109.500       0.00000
      109.600       0.00000
      109.700       0.00000
      109.800       0.00000
      109.900       0.00000
      110.000       0.00000
      110.100       0.00000
      110.200       0.00000
      110.300       0.00000
      110.400       0.00000
      110.500       0.00000
      110.600       0.00000
      110.700       0.00000
      110.800       0.00000
      110.900       0.00000
      111.000       0.00000
      111.100       0.00000
      111.200       0.00000
      111.300       0.00000
      111.400       0.00000
      111.500       0.00000
      111.600       0.00000
      111.700       0.00000
      111.800       0.00000
      111.900       0.00000
      112.000       0.00000
      112.100       0.00000
      112.200       0.00000
      112.300       0.00000
      112.400       0.00000
      112.500       0.00000
      112.600       0.00000
      112.700       0.00000
      112.800       0.00000
      112.900       0.00000
      113.000       0.00000
      113.100       0.00000
      113.200       0.00000
      113.300       0.00000
      113.400       0.00000
      113.500       0.00000
      113.600       0.00000
      113.700       0.00000
      113.800       0.00000
      113.900       0.00000
      114.000       0.00000
      114.100       0.00000
      114.200       0.00000
      114.300       0.00000
      114.400       0.00000
      114.500       0.00000
      114.600       0.00000
      114.700       0.00000
      114.800       0.00000
      114.900       0.00000
      115.000       0.00000
      115.100       0.00000
      115.200       0.00000
      115.300       0.00000
      115.400       0.00000
      115.500       0.00000
      115.600       0.00000
      115.700       0.00000
      115.800       0.00000
      115.900       0.00000
      116.000       0.00000
      116.100       0.00000
      116.200       0.00000
      116.300       0.00000
      116.400       0.00000
      116.500       0.00000
      116.600       0.00000
      116.700       0.00000
      116.800       0.00000
      116.900       0.00000
      117.000       0.00000
      117.100       0.00000
      117.200       0.00000
      117.300       0.00000
      117.400       0.00000
      117.500       0.00000
      117.600       0.00000
      117.700       0.00000
      117.800       0.00000
      117.900       0.00000
      118.000       0.00000
      118.100       0.00000
      118.200       0.00000
      118.300       0.00000
      118.400       0.00000
      118.500       0.00000
      118.600       0.00000
      118.700       0.00000
      118.800       0.00000
      118.900       0.00000
      119.000       0.00000
      119.100       0.00000
      119.200       0.00000
      119.300       0.00000
      119.400       0.00000
      119.500       0.00000
      119.600       0.00000
      119.700       0.00000
      119.800       0.00000
      119.900       0.00000
      120.000       0.00000
      120.100       0.00000
      120.200       0.00000
      120.300       0.00000
      120.400       0.00000
      120.500       0.00000
      120.600       0.00000
      120.700       0.00000
      120.800       0.00000
      120.900       0.00000
      121.000       0.00000
      121.100       0.00000
      121.200       0.00000
      121.300       0.00000
      121.400       0.00000
      121.500       0.00000
      121.600       0.00000
      121.700       0.00000
      121.800       0.00000
      121.900       0.00000
      122.000       0.00000
      122.100       0.00000
      122.200       0.00000
      122.300       0.00000
      122.400       0.00000
      122.500       0.00000
      122.600       0.00000
      122.700       0.00000
      122.800       0.00000
      122.900       0.00000
      123.000       0.00000
      123.100       0.00000
      123.200       0.00000
      123.300       0.00000
      123.400       0.00000
      123.500       0.00000
      123.600       0.00000
      123.700       0.00000
      123.800       0.00000
      123.900       0.00000
      124.000       0.00000
      124.100       0.00000
      124.200       0.00000
      124.300       0.00000
      124.400       0.00000
      124.500       0.00000
      124.600       0.00000
      124.700       0.00000
      124.800       0.00000
      124.900       0.00000
      125.000       0.00000
      125.100       0.00000
      125.200       0.00000
      125.300       0.00000
      125.400       0.00000
      125.500       0.00000
      125.600       0.00000
      125.700       0.00000
      125.800       0.00000
      125.900       0.00000
      126.000       0.00000
      126.100       0.00000
      126.200       0.00000
      126.300       0.00000
      126.400       0.00000
      126.500       0.00000
      126.600       0.00000
      126.700       0.00000
      126.800       0.00000
      126.900       0.00000
      127.000       0.00000
      127.100       0.00000
      127.200       0.00000
      127.300       0.00000
      127.400       0.00000
      127.500       0.00000
      127.600       0.00000
      127.700       0.00000
      127.800       0.00000
      127.900       0.00000
      128.000       0.00000
      128.100       0.00000
      128.200       0.00000
      128.300       0.00000
      128.400       0.00000
      128.500       0.00000
      128.600       0.00000
      128.700       0.00000
      128.800       0.00000
      128.900       0.00000
      129.000       0.00000
      129.100       0.00000
      129.200       0.00000
      129.300       0.00000
      129.400       0.00000
      129.500       0.00000
      129.600       0.00000
      129.700       0.00000
      129.800       0.00000
      129.900       0.00000
      130.000       0.00000
      130.100       0.00000
      130.200       0.00000
      130.300       0.00000
      130.400       0.00000
      130.500       0.00000
      130.600       0.00000
      130.700       0.00000
      130.800       0.00000
      130.900       0.00000
      131.000       0.00000
      131.100       0.00000
      131.200       0.00000
      131.300       0.00000
      131.400       0.00000
      131.500       0.00000
      131.600       0.00000
      131.700       0.00000
      131.800       0.00000
      131.900       0.00000
      132.000       0.00000
      132.100       0.00000
      132.200       0.00000
      132.300       0.00000
      132.400       0.00000
      132.500       0.00000
      132.600       0.00000
      132.700       0.00000
      132.800       0.00000
      132.900       0.00000
      133.000       0.00000
      133.100       0.00000
      133.200       0.00000
      133.300       0.00000
      133.400       0.00000
      133.500       0.00000
      133.600       0.00000
      133.700       0.00000
      133.800       0.00000
      133.900       0.00000
      134.000       0.00000
      134.100       0.00000
      134.200       0.00000
      134.300       0.00000
      134.400       0.00000
      134.500       0.00000
      134.600       0.00000
      134.700       0.00000
      134.800       0.00000
      134.900       0.00000
      135.000       0.00000
      135.100       0.00000
      135.200       0.00000
      135.300       0.00000
      135.400       0.00000
      135.500       0.00000
      135.600       0.00000
      135.700       0.00000
      135.800       0.00000
      135.900       0.00000
      136.000       0.00000
      136.100       0.00000
      136.200       0.00000
      136.300       0.00000
      136.400       0.00000
      136.500       0.00000
      136.600       0.00000
      136.700       0.00000
      136.800       0.00000
      136.900       0.00000
      137.000       0.00000
      137.100       0.00000
      137.200       0.00000
      137.300       0.00000
      137.400       0.00000
      137.500       0.00000
      137.600       0.00000
      137.700       0.00000
      137.800       0.00000
      137.900       0.00000
      138.000       0.00000
      138.100       0.00000
      138.200       0.00000
      138.300       0.00000
      138.400       0.00000
      138.500       0.00000
      138.600       0.00000
      138.700       0.00000
      138.800       0.00000
      138.900       0.00000
      139.000       0.00000
      139.100       0.00000
      139.200       0.00000
      139.300       0.00000
      139.400       0.00000
      139.500       0.00000
      139.600       0.00000
      139.700       0.00000
      139.800       0.00000
      139.900       0.00000
      140.000       0.00000
      140.100       0.00000
      140.200       0.00000
      140.300       0.00000
      140.400       0.00000
      140.500       0.00000
      140.600       0.00000
      140.700       0.00000
      140.800       0.00000
      140.900       0.00000
      141.000       0.00000
      141.100       0.00000
      141.200       0.00000
      141.300       0.00000
      141.400       0.00000
      141.500       0.00000
      141.600       0.00000
      141.700       0.00000
      141.800       0.00000
      141.900       0.00000
      142.000       0.00000
      142.100       0.00000
      142.200       0.00000
      142.300       0.00000
      142.400       0.00000
      142.500       0.00000
      142.600       0.00000
      142.700       0.00000
      142.800       0.00000
      142.900       0.00000
      143.000       0.00000
      143.100       0.00000
      143.200       0.00000
      143.300       0.00000
      143.400       0.00000
      143.500       0.00000
      143.600       0.00000
      143.700       0.00000
      143.800       0.00000
      143.900       0.00000
      144.000       0.00000
      144.100       0.00000
      144.200       0.00000
      144.300       0.00000
      144.400       0.00000
      144.500       0.00000
      144.600       0.00000
      144.700       0.00000
      144.800       0.00000
      144.900       0.00000
      145.000       0.00000
      145.100       0.00000
      145.200       0.00000
      145.300       0.00000
      145.400       0.00000
      145.500       0.00000
      145.600       0.00000
      145.700       0.00000
      145.800       0.00000
      145.900       0.00000
      146.000       0.00000
      146.100       0.00000
      146.200       0.00000
      146.300       0.00000
      146.400       0.00000
      146.500       0.00000
      146.600       0.00000
      146.700       0.00000
      146.800       0.00000
      146.900       0.00000
      147.000       0.00000
      147.100       0.00000
      147.200       0.00000
      147.300       0.00000
      147.400       0.00000
      147.500       0.00000
      147.600       0.00000
      147.700       0.00000
      147.800       0.00000
      147.900       0.00000
      148.000       0.00000
      148.100       0.00000
      148.200       0.00000
      148.300       0.00000
      148.400       0.00000
      148.500       0.00000
      148.600       0.00000
      148.700       0.00000
      148.800       0.00000
      148.900       0.00000
      149.000       0.00000
      149.100       0.00000
      149.200       0.00000
      149.300       0.00000
      149.400       0.00000
      149.500       0.00000
      149.600       0.00000
      149.700       0.00000
      149.800       0.00000
      149.900       0.00000
      150.000       0.00000
      150.100       0.00000
      150.200       0.00000
      150.300       0.00000
      150.400       0.00000
      150.500       0.00000
      150.600       0.00000
      150.700       0.00000
      150.800       0.00000
      150.900       0.00000
      151.000       0.00000
      151.100       0.00000
      151.200       0.00000
      151.300       0.00000
      151.400       0.00000
      151.500       0.00000
      151.600       0.00000
      151.700       0.00000
      151.800       0.00000
      151.900       0.00000
      152.000       0.00000
      152.100       0.00000
      152.200       0.00000
      152.300       0.00000
      152.400       0.00000
      152.500       0.00000
      152.600       0.00000
      152.700       0.00000
      152.800       0.00000
      152.900       0.00000
      153.000       0.00000
      153.100       0.00000
      153.200       0.00000
      153.300       0.00000
      153.400       0.00000
      153.500       0.00000
      153.600       0.00000
      153.700       0.00000
      153.800       0.00000
      153.900       0.00000
      154.000       0.00000
      154.100       0.00000
      154.200       0.00000
      154.300       0.00000
      154.400       0.00000
      154.500       0.00000
      154.600       0.00000
      154.700       0.00000
      154.800       0.00000
      154.900       0.00000
      155.000       0.00000
      155.100       0.00000
      155.200       0.00000
      155.300       0.00000
      155.400       0.00000
      155.500       0.00000
      155.600       0.00000
      155.700       0.00000
      155.800       0.00000
      155.900       0.00000
      156.000       0.00000
      156.100       0.00000
      156.200       0.00000
      156.300       0.00000
      156.400       0.00000
      156.500       0.00000
      156.600       0.00000
      156.700       0.00000
      156.800       0.00000
      156.900       0.00000
      157.000       0.00000
      157.100       0.00000
      157.200       0.00000
      157.300       0.00000
      157.400       0.00000
      157.500       0.00000
      157.600       0.00000
      157.700       0.00000
      157.800       0.00000
      157.900       0.00000
      158.000       0.00000
      158.100       0.00000
      158.200       0.00000
      158.300       0.00000
      158.400       0.00000
      158.500       0.00000
      158.600       0.00000
      158.700       0.00000
      158.800       0.00000
      158.900       0.00000
      159.000       0.00000
      159.100       0.00000
      159.200       0.00000
      159.300       0.00000
      159.400       0.00000
      159.500       0.00000
      159.600       0.00000
      159.700       0.00000
      159.800       0.00000
      159.900       0.00000
      160.000       0.00000
      160.100       0.00000
      160.200       0.00000
      160.300       0.00000
      160.400       0.00000
      160.500       0.00000
      160.600       0.00000
      160.700       0.00000
      160.800       0.00000
      160.900       0.00000
      161.000       0.00000
      161.100       0.00000
      161.200       0.00000
      161.300       0.00000
      161.400       0.00000
      161.500       0.00000
      161.600       0.00000
      161.700       0.00000
      161.800       0.00000
      161.900       0.00000
      162.000       0.00000
      162.100       0.00000
      162.200       0.00000
      162.300       0.00000
      162.400       0.00000
      162.500       0.00000
      162.600       0.00000
      162.700       0.00000
      162.800       0.00000
      162.900       0.00000
      163.000       0.00000
      163.100       0.00000
      163.200       0.00000
      163.300       0.00000
      163.400       0.00000
      163.500       0.00000
      163.600       0.00000
      163.700       0.00000
      163.800       0.00000
      163.900       0.00000
      164.000       0.00000
      164.100       0.00000
      164.200       0.00000
      164.300       0.00000
      164.400       0.00000
      164.500       0.00000
      164.600       0.00000
      164.700       0.00000
      164.800       0.00000
      164.900       0.00000
      165.000       0.00000
      165.100       0.00000
      165.200       0.00000
      165.300       0.00000
      165.400       0.00000
      165.500       0.00000
      165.600       0.00000
      165.700       0.00000
      165.800       0.00000
      165.900       0.00000
      166.000       0.00000
      166.100       0.00000
      166.200       0.00000
      166.300       0.00000
      166.400       0.00000
      166.500       0.00000
      166.600       0.00000
      166.700       0.00000
      166.800       0.00000
      166.900       0.00000
      167.000       0.00000
      167.100       0.00000
      167.200       0.00000
      167.300       0.00000
      167.400       0.00000
      167.500       0.00000
      167.600       0.00000
      167.700       0.00000
      167.800       0.00000
      167.900       0.00000
      168.000       0.00000
      168.100       0.00000
      168.200       0.00000
      168.300       0.00000
      168.400       0.00000
      168.500       0.00000
      168.600       0.00000
      168.700       0.00000
      168.800       0.00000
      168.900       0.00000
      169.000       0.00000
      169.100       0.00000
      169.200       0.00000
      169.300       0.00000
      169.400       0.00000
      169.500       0.00000
      169.600       0.00000
      169.700       0.00000
      169.800       0.00000
      169.900       0.00000
      170.000       0.00000
      170.100       0.00000
      170.200       0.00000
      170.300       0.00000
      170.400       0.00000
      170.500   2.42937e-31
      170.600   1.12175e-19
      170.700   1.18576e-12
      170.800   1.00525e-10
      170.900   1.64345e-10
      171.000   1.65776e-10
      171.100   1.67207e-10
      171.200   1.68637e-10
      171.300   1.70067e-10
      171.400   1.71495e-10
      171.500   1.72922e-10
      171.600   1.74348e-10
      171.700   1.75776e-10
      171.800   1.77205e-10
      171.900   1.78636e-10
      172.000   1.80073e-10
      172.100   1.81518e-10
      172.200   1.82969e-10
      172.300   1.84423e-10
      172.400   1.85852e-10
      172.500   1.87283e-10
      172.600   1.88727e-10
      172.700   1.90180e-10
      172.800   1.91644e-10
      172.900   1.93121e-10
      173.000   1.94608e-10
      173.100   1.96107e-10
      173.200   1.97618e-10
      173.300   1.99142e-10
      173.400   2.00680e-10
      173.500   2.02229e-10
      173.600   2.03792e-10
      173.700   2.05366e-10
      173.800   2.06956e-10
      173.900   2.08555e-10
      174.000   2.10167e-10
      174.100   2.11794e-10
      174.200   2.13431e-10
      174.300   2.15077e-10
      174.400   2.16737e-10
      174.500   2.18406e-10
      174.600   2.20088e-10
      174.700   2.21780e-10
      174.800   2.23481e-10
      174.900   2.25192e-10
      175.000   2.26914e-10
      175.100   2.28641e-10
      175.200   2.30389e-10
      175.300   2.32142e-10
      175.400   2.33908e-10
      175.500   2.35681e-10
      175.600   2.37460e-10
      175.700   2.39251e-10
      175.800   2.41052e-10
      175.900   2.42861e-10
      176.000   2.44677e-10
      176.100   2.46503e-10
      176.200   2.48338e-10
      176.300   2.50184e-10
      176.400   2.52037e-10
      176.500   2.53898e-10
      176.600   2.55772e-10
      176.700   2.57652e-10
      176.800   2.59541e-10
      176.900   2.61438e-10
      177.000   2.63347e-10
      177.100   2.65264e-10
      177.200   2.67188e-10
      177.300   2.69119e-10
      177.400   2.71062e-10
      177.500   2.73011e-10
      177.600   2.74968e-10
      177.700   2.76932e-10
      177.800   2.78902e-10
      177.900   2.80882e-10
      178.000   2.82888e-10
      178.100   2.84900e-10
      178.200   2.86921e-10
      178.300   2.88951e-10
      178.400   2.90987e-10
      178.500   2.93029e-10
      178.600   2.95080e-10
      178.700   2.97142e-10
      178.800   2.99207e-10
      178.900   3.01279e-10
      179.000   3.03358e-10
      179.100   3.05446e-10
      179.200   3.07544e-10
      179.300   3.09648e-10
      179.400   3.11760e-10
      179.500   3.13882e-10
      179.600   3.16018e-10
      179.700   3.18159e-10
      179.800   3.20310e-10
      179.900   3.22471e-10
      180.000   3.24648e-10
      180.100   3.26831e-10
      180.200   3.29027e-10
      180.300   3.31234e-10
      180.400   3.33458e-10
      180.500   3.35694e-10
      180.600   3.37939e-10
      180.700   3.40198e-10
      180.800   3.42501e-10
      180.900   3.44867e-10
      181.000   3.47271e-10
      181.100   3.49686e-10
      181.200   3.52120e-10
      181.300   3.54573e-10
      181.400   3.57037e-10
      181.500   3.59516e-10
      181.600   3.62013e-10
      181.700   3.64528e-10
      181.800   3.67055e-10
      181.900   3.69598e-10
      182.000   3.72158e-10
      182.100   3.74730e-10
      182.200   3.77325e-10
      182.300   3.79929e-10
      182.400   3.82548e-10
      182.500   3.85182e-10
      182.600   3.87835e-10
      182.700   3.90497e-10
      182.800   3.93171e-10
      182.900   3.95863e-10
      183.000   3.98568e-10
      183.100   4.01285e-10
      183.200   4.04015e-10
      183.300   4.06759e-10
      183.400   4.09518e-10
      183.500   4.12288e-10
      183.600   4.15071e-10
      183.700   4.17984e-10
      183.800   4.21415e-10
      183.900   4.25175e-10
      184.000   4.28954e-10
      184.100   4.32767e-10
      184.200   4.36603e-10
      184.300   4.40471e-10
      184.400   4.44364e-10
      184.500   4.48281e-10
      184.600   4.52225e-10
      184.700   4.56201e-10
      184.800   4.60202e-10
      184.900   4.64229e-10
      185.000   4.68282e-10
      185.100   4.72366e-10
      185.200   4.76479e-10
      185.300   4.80615e-10
      185.400   4.84778e-10
      185.500   4.88966e-10
      185.600   4.93184e-10
      185.700   4.97434e-10
      185.800   5.01709e-10
      185.900   5.06006e-10
      186.000   5.10339e-10
      186.100   5.14692e-10
      186.200   5.19068e-10
      186.300   5.23469e-10
      186.400   5.27898e-10
      186.500   5.32354e-10
      186.600   5.36829e-10
      186.700   5.41324e-10
      186.800   5.45841e-10
      186.900   5.50385e-10
      187.000   5.54953e-10
      187.100   5.59535e-10
      187.200   5.64146e-10
      187.300   5.68785e-10
      187.400   5.73442e-10
      187.500   5.78120e-10
      187.600   5.82819e-10
      187.700   5.87540e-10
      187.800   5.92290e-10
      187.900   5.97062e-10
      188.000   6.01852e-10
      188.100   6.06664e-10
      188.200   6.11502e-10
      188.300   6.16367e-10
      188.400   6.21259e-10
      188.500   6.26173e-10
      188.600   6.31112e-10
      188.700   6.36086e-10
      188.800   6.41082e-10
      188.900   6.46103e-10
      189.000   6.51152e-10
      189.100   6.56238e-10
      189.200   6.61351e-10
      189.300   6.66489e-10
      189.400   6.71658e-10
      189.500   6.76859e-10
      189.600   6.82100e-10
      189.700   6.87366e-10
      189.800   6.92723e-10
      189.900   6.98123e-10
      190.000   7.03568e-10
      190.100   7.09040e-10
      190.200   7.14550e-10
      190.300   7.20093e-10
      190.400   7.25677e-10
      190.500   7.31297e-10
      190.600   7.36950e-10
      190.700   7.42640e-10
      190.800   7.48365e-10
      190.900   7.54128e-10
      191.000   7.59939e-10
      191.100   7.65781e-10
      191.200   7.71661e-10
      191.300   7.77577e-10
      191.400   7.83534e-10
      191.500   7.89530e-10
      191.600   7.95557e-10
      191.700   8.01622e-10
      191.800   8.07730e-10
      191.900   8.13870e-10
      192.000   8.20043e-10
      192.100   8.26256e-10
      192.200   8.32514e-10
      192.300   8.38806e-10
      192.400   8.45146e-10
      192.500   8.51519e-10
      192.600   8.57926e-10
      192.700   8.64371e-10
      192.800   8.70522e-10
      192.900   8.75858e-10
      193.000   8.81131e-10
      193.100   8.86434e-10
      193.200   8.91773e-10
      193.300   8.97131e-10
      193.400   9.02511e-10
      193.500   9.07919e-10
      193.600   9.13358e-10
      193.700   9.18825e-10
      193.800   9.24315e-10
      193.900   9.29825e-10
      194.000   9.35369e-10
      194.100   9.40954e-10
      194.200   9.46554e-10
      194.300   9.52183e-10
      194.400   9.57839e-10
      194.500   9.63529e-10
      194.600   9.69246e-10
      194.700   9.74982e-10
      194.800   9.80743e-10
      194.900   9.86535e-10
      195.000   9.92353e-10
      195.100   9.98210e-10
      195.200   1.00408e-09
      195.300   1.00997e-09
      195.400   1.01589e-09
      195.500   1.02183e-09
      195.600   1.02780e-09
      195.700   1.03378e-09
      195.800   1.03971e-09
      195.900   1.04517e-09
      196.000   1.03354e-09
      196.100   1.02181e-09
      196.200   1.01021e-09
      196.300   9.98738e-10
      196.400   9.87384e-10
      196.500   9.76144e-10
      196.600   9.65026e-10
      196.700   9.54022e-10
      196.800   9.43137e-10
      196.900   9.32372e-10
      197.000   9.21718e-10
      197.100   9.11173e-10
      197.200   9.00738e-10
      197.300   8.90409e-10
      197.400   8.80184e-10
      197.500   8.70063e-10
      197.600   8.60050e-10
      197.700   8.50149e-10
      197.800   8.40358e-10
      197.900   8.30663e-10
      198.000   8.21071e-10
      198.100   8.11579e-10
      198.200   8.02185e-10
      198.300   7.92891e-10
      198.400   7.83698e-10
      198.500   7.74611e-10
      198.600   7.65624e-10
      198.700   7.56734e-10
      198.800   7.47940e-10
      198.900   7.39245e-10
      199.000   7.30641e-10
      199.100   7.22131e-10
      199.200   7.13719e-10
      199.300   7.05410e-10
      199.400   6.97196e-10
      199.500   6.89075e-10
      199.600   6.81042e-10
      199.700   6.73100e-10
      199.800   6.65249e-10
      199.900   6.57486e-10
      200.000   6.49810e-10
      200.100   6.42263e-10
      200.200   6.34769e-10
      200.300   6.27367e-10
      200.400   6.20047e-10
      200.500   6.12811e-10
      200.600   6.05661e-10
      200.700   5.98593e-10
      200.800   5.91602e-10
      200.900   5.84699e-10
      201.000   5.77875e-10
      201.100   5.71132e-10
      201.200   5.64468e-10
      201.300   5.57880e-10
      201.400   5.51371e-10
      201.500   5.44935e-10
      201.600   5.38574e-10
      201.700   5.32289e-10
      201.800   5.26075e-10
      201.900   5.19933e-10
      202.000   5.13870e-10
      202.100   5.07875e-10
      202.200   5.01952e-10
      202.300   4.96138e-10
      202.400   4.90479e-10
      202.500   4.84909e-10
      202.600   4.79398e-10
      202.700   4.73956e-10
      202.800   4.68576e-10
      202.900   4.63259e-10
      203.000   4.58005e-10
      203.100   4.52815e-10
      203.200   4.47683e-10
      203.300   4.42610e-10
      203.400   4.37596e-10
      203.500   4.32641e-10
      203.600   4.27744e-10
      203.700   4.22906e-10
      203.800   4.18126e-10
      203.900   4.13407e-10
      204.000   4.08741e-10
      204.100   4.04131e-10
      204.200   3.99577e-10
      204.300   3.95077e-10
      204.400   3.90630e-10
      204.500   3.86236e-10
      204.600   3.81893e-10
      204.700   3.77602e-10
      204.800   3.73366e-10
      204.900   3.69180e-10
      205.000   3.65043e-10
      205.100   3.60956e-10
      205.200   3.56916e-10
      205.300   3.52925e-10
      205.400   3.48981e-10
      205.500   3.45082e-10
      205.600   3.40964e-10
      205.700   3.36657e-10
      205.800   3.32369e-10
      205.900   3.28139e-10
      206.000   3.23966e-10
      206.100   3.19846e-10
      206.200   3.15777e-10
      206.300   3.11762e-10
      206.400   3.07799e-10
      206.500   3.03883e-10
      206.600   3.00018e-10
      206.700   2.96202e-10
      206.800   2.92431e-10
      206.900   2.88708e-10
      207.000   2.85033e-10
      207.100   2.81403e-10
      207.200   2.77821e-10
      207.300   2.74280e-10
      207.400   2.70783e-10
      207.500   2.67328e-10
      207.600   2.63916e-10
      207.700   2.60545e-10
      207.800   2.57214e-10
      207.900   2.53923e-10
      208.000   2.50672e-10
      208.100   2.47461e-10
      208.200   2.44288e-10
      208.300   2.41153e-10
      208.400   2.38058e-10
      208.500   2.35000e-10
      208.600   2.31977e-10
      208.700   2.28991e-10
      208.800   2.26042e-10
      208.900   2.22826e-10
      209.000   2.19110e-10
      209.100   2.15324e-10
      209.200   2.11600e-10
      209.300   2.07937e-10
      209.400   2.04335e-10
      209.500   2.00793e-10
      209.600   1.97309e-10
      209.700   1.93883e-10
      209.800   1.90518e-10
      209.900   1.87207e-10
      210.000   1.83953e-10
      210.100   1.80752e-10
      210.200   1.77605e-10
      210.300   1.74510e-10
      210.400   1.71468e-10
      210.500   1.68476e-10
      210.600   1.65535e-10
      210.700   1.62643e-10
      210.800   1.59800e-10
      210.900   1.57005e-10
      211.000   1.54256e-10
      211.100   1.51556e-10
      211.200   1.48899e-10
      211.300   1.46291e-10
      211.400   1.43728e-10
      211.500   1.41207e-10
      211.600   1.38730e-10
      211.700   1.36295e-10
      211.800   1.33900e-10
      211.900   1.31546e-10
      212.000   1.29233e-10
      212.100   1.26960e-10
      212.200   1.24724e-10
      212.300   1.22528e-10
      212.400   1.20368e-10
      212.500   1.18246e-10
      212.600   1.16161e-10
      212.700   1.14111e-10
      212.800   1.12096e-10
      212.900   1.10116e-10
      213.000   1.08170e-10
      213.100   1.06259e-10
      213.200   1.04381e-10
      213.300   1.02535e-10
      213.400   1.00722e-10
      213.500   9.89391e-11
      213.600   9.71871e-11
      213.700   9.54662e-11
      213.800   9.37745e-11
      213.900   9.21132e-11
      214.000   9.04801e-11
      214.100   8.88757e-11
      214.200   8.72999e-11
      214.300   8.57511e-11
      214.400   8.42293e-11
      214.500   8.27346e-11
      214.600   8.12665e-11
      214.700   7.98240e-11
      214.800   7.84070e-11
      214.900   7.70155e-11
      215.000   7.56479e-11
      215.100   7.43052e-11
      215.200   7.29865e-11
      215.300   7.16921e-11
      215.400   7.04202e-11
      215.500   6.91711e-11
      215.600   6.79452e-11
      215.700   6.67402e-11
      215.800   6.55568e-11
      215.900   6.43952e-11
      216.000   6.32540e-11
      216.100   6.21332e-11
      216.200   6.10327e-11
      216.300   5.99520e-11
      216.400   5.88909e-11
      216.500   5.78485e-11
      216.600   5.68251e-11
      216.700   5.58202e-11
      216.800   5.48332e-11
      216.900   5.38640e-11
      217.000   5.29122e-11
      217.100   5.19772e-11
      217.200   5.10593e-11
      217.300   5.01578e-11
      217.400   4.92722e-11
      217.500   4.84030e-11
      217.600   4.75490e-11
      217.700   4.67098e-11
      217.800   4.58860e-11
      217.900   4.50771e-11
      218.000   4.42827e-11
      218.100   4.35022e-11
      218.200   4.27357e-11
      218.300   4.19829e-11
      218.400   4.12435e-11
      218.500   4.05167e-11
      218.600   3.98030e-11
      218.700   3.91017e-11
      218.800   3.84128e-11
      218.900   3.77362e-11
      219.000   3.70712e-11
      219.100   3.64177e-11
      219.200   3.57757e-11
      219.300   3.51449e-11
      219.400   3.45248e-11
      219.500   3.39157e-11
      219.600   3.33171e-11
      219.700   3.27290e-11
      219.800   3.21512e-11
      219.900   3.15833e-11
      220.000   3.10251e-11
      220.100   3.04767e-11
      220.200   2.99377e-11
      220.300   2.94081e-11
      220.400   2.88876e-11
      220.500   2.83763e-11
      220.600   2.78738e-11
      220.700   2.73798e-11
      220.800   2.68943e-11
      220.900   2.64175e-11
      221.000   2.59487e-11
      221.100   2.54879e-11
      221.200   2.50353e-11
      221.300   2.45904e-11
      221.400   2.41533e-11
      221.500   2.37237e-11
      221.600   2.33016e-11
      221.700   2.28868e-11
      221.800   2.24789e-11
      221.900   2.20783e-11
      222.000   2.16848e-11
      222.100   2.12978e-11
      222.200   2.09178e-11
      222.300   2.05441e-11
      222.400   2.01771e-11
      222.500   1.98164e-11
      222.600   1.94620e-11
      222.700   1.91137e-11
      222.800   1.87714e-11
      222.900   1.84351e-11
      223.000   1.81046e-11
      223.100   1.77798e-11
      223.200   1.74607e-11
      223.300   1.71471e-11
      223.400   1.68391e-11
      223.500   1.65363e-11
      223.600   1.62390e-11
      223.700   1.59467e-11
      223.800   1.56595e-11
      223.900   1.53775e-11
      224.000   1.51003e-11
      224.100   1.48279e-11
      224.200   1.45602e-11
      224.300   1.42973e-11
      224.400   1.40389e-11
      224.500   1.37851e-11
      224.600   1.35356e-11
      224.700   1.32907e-11
      224.800   1.30500e-11
      224.900   1.28134e-11
      225.000   1.25810e-11
      225.100   1.23527e-11
      225.200   1.21283e-11
      225.300   1.19081e-11
      225.400   1.16915e-11
      225.500   1.14788e-11
      225.600   1.12698e-11
      225.700   1.10646e-11
      225.800   1.08629e-11
      225.900   1.06648e-11
      226.000   1.04702e-11
      226.100   1.02790e-11
      226.200   1.00913e-11
      226.300   9.90757e-12
      226.400   9.72747e-12
      226.500   9.55032e-12
      226.600   9.37612e-12
      226.700   9.20493e-12
      226.800   9.03663e-12
      226.900   8.87128e-12
      227.000   8.70889e-12
      227.100   8.54934e-12
      227.200   8.39269e-12
      227.300   8.23885e-12
      227.400   8.08777e-12
      227.500   7.93941e-12
      227.600   7.79371e-12
      227.700   7.65065e-12
      227.800   7.51018e-12
      227.900   7.37227e-12
      228.000   7.23686e-12
      228.100   7.10389e-12
      228.200   6.97332e-12
      228.300   6.84514e-12
      228.400   6.71934e-12
      228.500   6.59579e-12
      228.600   6.47452e-12
      228.700   6.35546e-12
      228.800   6.23857e-12
      228.900   6.12388e-12
      229.000   6.01126e-12
      229.100   5.90072e-12
      229.200   5.79221e-12
      229.300   5.68571e-12
      229.400   5.58117e-12
      229.500   5.47857e-12
      229.600   5.37784e-12
      229.700   5.27899e-12
      229.800   5.18196e-12
      229.900   5.08673e-12
      230.000   4.99233e-12
      230.100   4.89316e-12
      230.200   4.79573e-12
      230.300   4.70030e-12
      230.400   4.60676e-12
      230.500   4.51508e-12
      230.600   4.42526e-12
      230.700   4.33722e-12
      230.800   4.25095e-12
      230.900   4.16641e-12
      231.000   4.08354e-12
      231.100   4.00232e-12
      231.200   3.92272e-12
      231.300   3.84472e-12
      231.400   3.76830e-12
      231.500   3.69336e-12
      231.600   3.61989e-12
      231.700   3.54792e-12
      231.800   3.47738e-12
      231.900   3.40823e-12
      232.000   3.34046e-12
      232.100   3.27402e-12
      232.200   3.20891e-12
      232.300   3.14510e-12
      232.400   3.08255e-12
      232.500   3.02122e-12
      232.600   2.96111e-12
      232.700   2.90220e-12
      232.800   2.84446e-12
      232.900   2.78785e-12
      233.000   2.73236e-12
      233.100   2.67798e-12
      233.200   2.62466e-12
      233.300   2.57241e-12
      233.400   2.52119e-12
      233.500   2.47099e-12
      233.600   2.42180e-12
      233.700   2.37355e-12
      233.800   2.32048e-12
      233.900   2.26782e-12
      234.000   2.21631e-12
      234.100   2.16597e-12
      234.200   2.11676e-12
      234.300   2.06865e-12
      234.400   2.02161e-12
      234.500   1.97563e-12
      234.600   1.93067e-12
      234.700   1.88672e-12
      234.800   1.84377e-12
      234.900   1.80176e-12
      235.000   1.76069e-12
      235.100   1.72055e-12
      235.200   1.68131e-12
      235.300   1.64294e-12
      235.400   1.60544e-12
      235.500   1.56877e-12
      235.600   1.53294e-12
      235.700   1.49790e-12
      235.800   1.46368e-12
      235.900   1.43023e-12
      236.000   1.39754e-12
      236.100   1.36557e-12
      236.200   1.33431e-12
      236.300   1.30376e-12
      236.400   1.27390e-12
      236.500   1.24470e-12
      236.600   1.21616e-12
      236.700   1.18826e-12
      236.800   1.16098e-12
      236.900   1.13431e-12
      237.000   1.10824e-12
      237.100   1.08276e-12
      237.200   1.05785e-12
      237.300   1.03350e-12
      237.400   1.00969e-12
      237.500   9.86415e-13
      237.600   9.63658e-13
      237.700   9.41433e-13
      237.800   9.19709e-13
      237.900   8.98472e-13
      238.000   8.77716e-13
      238.100   8.57418e-13
      238.200   8.37578e-13
      238.300   8.18184e-13
      238.400   7.99225e-13
      238.500   7.80688e-13
      238.600   7.62571e-13
      238.700   7.44865e-13
      238.800   7.27554e-13
      238.900   7.10632e-13
      239.000   6.94087e-13
      239.100   6.77917e-13
      239.200   6.62115e-13
      239.300   6.46676e-13
      239.400   6.31598e-13
      239.500   6.16858e-13
      239.600   6.02448e-13
      239.700   5.88371e-13
      239.800   5.74606e-13
      239.900   5.61152e-13
      240.000   5.48003e-13
      240.100   5.35149e-13
      240.200   5.22585e-13
      240.300   5.10307e-13
      240.400   4.98303e-13
      240.500   4.86578e-13
      240.600   4.75119e-13
      240.700   4.63919e-13
      240.800   4.52981e-13
      240.900   4.42300e-13
      241.000   4.31863e-13
      241.100   4.21664e-13
      241.200   4.11698e-13
      241.300   4.01958e-13
      241.400   3.92443e-13
      241.500   3.83145e-13
      241.600   3.74060e-13
      241.700   3.65184e-13
      241.800   3.56510e-13
      241.900   3.48034e-13
      242.000   3.39755e-13
      242.100   3.31669e-13
      242.200   3.23777e-13
      242.300   3.16073e-13
      242.400   3.08545e-13
      242.500   3.01191e-13
      242.600   2.94008e-13
      242.700   2.86990e-13
      242.800   2.80137e-13
      242.900   2.73443e-13
      243.000   2.66905e-13
      243.100   2.60519e-13
      243.200   2.54279e-13
      243.300   2.48186e-13
      243.400   2.42239e-13
      243.500   2.36433e-13
      243.600   2.30771e-13
      243.700   2.25239e-13
      243.800   2.19836e-13
      243.900   2.14563e-13
      244.000   2.09411e-13
      244.100   2.04381e-13
      244.200   1.99470e-13
      244.300   1.94672e-13
      244.400   1.89989e-13
      244.500   1.85416e-13
      244.600   1.80951e-13
      244.700   1.76595e-13
      244.800   1.72347e-13
      244.900   1.68200e-13
      245.000   1.64149e-13
      245.100   1.60194e-13
      245.200   1.56335e-13
      245.300   1.52566e-13
      245.400   1.48886e-13
      245.500   1.45295e-13
      245.600   1.41788e-13
      245.700   1.38363e-13
      245.800   1.35019e-13
      245.900   1.31762e-13
      246.000   1.28584e-13
      246.100   1.25480e-13
      246.200   1.22450e-13
      246.300   1.19492e-13
      246.400   1.16606e-13
      246.500   1.13787e-13
      246.600   1.11035e-13
      246.700   1.08350e-13
      246.800   1.05727e-13
      246.900   1.03167e-13
      247.000   1.00672e-13
      247.100   9.82382e-14
      247.200   9.58626e-14
      247.300   9.35437e-14
      247.400   9.12799e-14
      247.500   8.90698e-14
      247.600   8.69124e-14
      247.700   8.48065e-14
      247.800   8.27507e-14
      247.900   8.07439e-14
      248.000   7.87851e-14
      248.100   7.68787e-14
      248.200   7.50173e-14
      248.300   7.31999e-14
      248.400   7.14259e-14
      248.500   6.96939e-14
      248.600   6.80033e-14
      248.700   6.63534e-14
      248.800   6.47427e-14
      248.900   6.31706e-14
      249.000   6.16361e-14
      249.100   6.01412e-14
      249.200   5.86832e-14
      249.300   5.72592e-14
      249.400   5.58694e-14
      249.500   5.45130e-14
      249.600   5.31886e-14
      249.700   5.18959e-14
      249.800   5.06342e-14
      249.900   4.94025e-14
      250.000   4.82004e-14
      250.100   4.70291e-14
      250.200   4.58861e-14
      250.300   4.47715e-14
      250.400   4.36833e-14
      250.500   4.26213e-14
      250.600   4.15849e-14
      250.700   4.05732e-14
      250.800   3.95858e-14
      250.900   3.86221e-14
      251.000   3.76816e-14
      251.100   3.67635e-14
      251.200   3.58684e-14
      251.300   3.49958e-14
      251.400   3.41441e-14
      251.500   3.33126e-14
      251.600   3.25010e-14
      251.700   3.17095e-14
      251.800   3.09367e-14
      251.900   3.01824e-14
      252.000   2.94461e-14
      252.100   2.87278e-14
      252.200   2.80265e-14
      252.300   2.73430e-14
      252.400   2.66759e-14
      252.500   2.60253e-14
      252.600   2.53901e-14
      252.700   2.47702e-14
      252.800   2.41653e-14
      252.900   2.35749e-14
      253.000   2.29987e-14
      253.100   2.24363e-14
      253.200   2.18875e-14
      253.300   2.13567e-14
      253.400   2.08407e-14
      253.500   2.03374e-14
      253.600   1.98465e-14
      253.700   1.93671e-14
      253.800   1.88991e-14
      253.900   1.84423e-14
      254.000   1.79963e-14
      254.100   1.75608e-14
      254.200   1.71356e-14
      254.300   1.67205e-14
      254.400   1.63152e-14
      254.500   1.59195e-14
      254.600   1.55332e-14
      254.700   1.51562e-14
      254.800   1.47885e-14
      254.900   1.44296e-14
      255.000   1.40792e-14
      255.100   1.37370e-14
      255.200   1.34029e-14
      255.300   1.30768e-14
      255.400   1.27584e-14
      255.500   1.24476e-14
      255.600   1.21442e-14
      255.700   1.18480e-14
      255.800   1.15588e-14
      255.900   1.12764e-14
      256.000   1.10008e-14
      256.100   1.07319e-14
      256.200   1.04695e-14
      256.300   1.02134e-14
      256.400   9.96350e-15
      256.500   9.71936e-15
      256.600   9.48115e-15
      256.700   9.24864e-15
      256.800   9.02160e-15
      256.900   8.79997e-15
      257.000   8.58367e-15
      257.100   8.37251e-15
      257.200   8.16647e-15
      257.300   7.96530e-15
      257.400   7.79451e-15
      257.500   7.63654e-15
      257.600   7.48227e-15
      257.700   7.33105e-15
      257.800   7.18277e-15
      257.900   7.03743e-15
      258.000   6.89494e-15
      258.100   6.75523e-15
      258.200   6.61830e-15
      258.300   6.48410e-15
      258.400   6.35246e-15
      258.500   6.22340e-15
      258.600   6.09694e-15
      258.700   5.97297e-15
      258.800   5.85141e-15
      258.900   5.73234e-15
      259.000   5.61553e-15
      259.100   5.50108e-15
      259.200   5.38890e-15
      259.300   5.27907e-15
      259.400   5.17139e-15
      259.500   5.06581e-15
      259.600   4.96236e-15
      259.700   4.86098e-15
      259.800   4.76159e-15
      259.900   4.66414e-15
      260.000   4.56869e-15
      260.100   4.47514e-15
      260.200   4.38345e-15
      260.300   4.29359e-15
      260.400   4.20554e-15
      260.500   4.11927e-15
      260.600   4.03470e-15
      260.700   3.95181e-15
      260.800   3.87066e-15
      260.900   3.79107e-15
      261.000   3.71314e-15
      261.100   3.63680e-15
      261.200   3.56200e-15
      261.300   3.48869e-15
      261.400   3.41689e-15
      261.500   3.35336e-15
      261.600   3.31312e-15
      261.700   3.27721e-15
      261.800   3.24169e-15
      261.900   3.20652e-15
      262.000   3.17174e-15
      262.100   3.13732e-15
      262.200   3.10328e-15
      262.300   3.06959e-15
      262.400   3.03626e-15
      262.500   3.00330e-15
      262.600   2.97068e-15
      262.700   2.93841e-15
      262.800   2.90649e-15
      262.900   2.87488e-15
      263.000   2.84368e-15
      263.100   2.81277e-15
      263.200   2.78221e-15
      263.300   2.75198e-15
      263.400   2.72206e-15
      263.500   2.69248e-15
      263.600   2.66324e-15
      263.700   2.63429e-15
      263.800   2.60565e-15
      263.900   2.57735e-15
      264.000   2.54935e-15
      264.100   2.52164e-15
      264.200   2.49424e-15
      264.300   2.46715e-15
      264.400   2.44035e-15
      264.500   2.41384e-15
      264.600   2.38762e-15
      264.700   2.36169e-15
      264.800   2.33604e-15
      264.900   2.31069e-15
      265.000   2.28561e-15
      265.100   2.26079e-15
      265.200   2.23626e-15
      265.300   2.21199e-15
      265.400   2.18801e-15
      265.500   2.16428e-15
      265.600   2.14082e-15
      265.700   2.11760e-15
      265.800   2.09469e-15
      265.900   2.07202e-15
      266.000   2.04962e-15
      266.100   2.02747e-15
      266.200   2.00556e-15
      266.300   1.98389e-15
      266.400   1.96246e-15
      266.500   1.94127e-15
      266.600   1.92033e-15
      266.700   1.89960e-15
      266.800   1.87913e-15
      266.900   1.85888e-15
      267.000   1.83885e-15
      267.100   1.81905e-15
      267.200   1.79948e-15
      267.300   1.78012e-15
      267.400   1.76097e-15
      267.500   1.74204e-15
      267.600   1.72333e-15
      267.700   1.70482e-15
      267.800   1.68651e-15
      267.900   1.66842e-15
      268.000   1.65054e-15
      268.100   1.63285e-15
      268.200   1.61536e-15
      268.300   1.59808e-15
      268.400   1.58097e-15
      268.500   1.56407e-15
      268.600   1.54735e-15
      268.700   1.53083e-15
      268.800   1.51448e-15
      268.900   1.49833e-15
      269.000   1.48235e-15
      269.100   1.46655e-15
      269.200   1.45094e-15
      269.300   1.43550e-15
      269.400   1.42022e-15
      269.500   1.40512e-15
      269.600   1.39019e-15
      269.700   1.37542e-15
      269.800   1.36083e-15
      269.900   1.34639e-15
      270.000   1.33213e-15
      270.100   1.31802e-15
      270.200   1.30410e-15
      270.300   1.29032e-15
      270.400   1.27669e-15
      270.500   1.26322e-15
      270.600   1.24989e-15
      270.700   1.23671e-15
      270.800   1.22368e-15
      270.900   1.21079e-15
      271.000   1.19804e-15
      271.100   1.18543e-15
      271.200   1.17296e-15
      271.300   1.16063e-15
      271.400   1.14843e-15
      271.500   1.13637e-15
      271.600   1.12444e-15
      271.700   1.11263e-15
      271.800   1.10096e-15
      271.900   1.08941e-15
      272.000   1.07799e-15
      272.100   1.06669e-15
      272.200   1.05551e-15
      272.300   1.04445e-15
      272.400   1.03350e-15
      272.500   1.02268e-15
      272.600   1.01197e-15
      272.700   1.00138e-15
      272.800   9.90899e-16
      272.900   9.80529e-16
      273.000   9.70273e-16
      273.100   9.60123e-16
      273.200   9.50081e-16
      273.300   9.40146e-16
      273.400   9.30312e-16
      273.500   9.20583e-16
      273.600   9.10957e-16
      273.700   9.01427e-16
      273.800   8.91998e-16
      273.900   8.82674e-16
      274.000   8.73443e-16
      274.100   8.64310e-16
      274.200   8.55269e-16
      274.300   8.46324e-16
      274.400   8.37371e-16
      274.500   8.28269e-16
      274.600   8.19219e-16
      274.700   8.10270e-16
      274.800   8.01415e-16
      274.900   7.92653e-16
      275.000   7.83983e-16
      275.100   7.75409e-16
      275.200   7.66923e-16
      275.300   7.58526e-16
      275.400   7.50224e-16
      275.500   7.42010e-16
      275.600   7.33877e-16
      275.700   7.25833e-16
      275.800   7.17876e-16
      275.900   7.10004e-16
      276.000   7.02215e-16
      276.100   6.94506e-16
      276.200   6.86876e-16
      276.300   6.79328e-16
      276.400   6.71861e-16
      276.500   6.64472e-16
      276.600   6.57163e-16
      276.700   6.49927e-16
      276.800   6.42771e-16
      276.900   6.35686e-16
      277.000   6.28678e-16
      277.100   6.21741e-16
      277.200   6.14880e-16
      277.300   6.08091e-16
      277.400   6.01374e-16
      277.500   5.94722e-16
      277.600   5.88146e-16
      277.700   5.81635e-16
      277.800   5.75190e-16
      277.900   5.68817e-16
      278.000   5.62514e-16
      278.100   5.56274e-16
      278.200   5.50099e-16
      278.300   5.43989e-16
      278.400   5.37946e-16
      278.500   5.31961e-16
      278.600   5.26040e-16
      278.700   5.20185e-16
      278.800   5.14391e-16
      278.900   5.08637e-16
      279.000   5.02941e-16
      279.100   4.97305e-16
      279.200   4.91726e-16
      279.300   4.86211e-16
      279.400   4.80749e-16
      279.500   4.75347e-16
      279.600   4.70003e-16
      279.700   4.64717e-16
      279.800   4.59487e-16
      279.900   4.54310e-16
      280.000   4.49190e-16
      280.100   4.44122e-16
      280.200   4.39111e-16
      280.300   4.34151e-16
      280.400   4.29245e-16
      280.500   4.24395e-16
      280.600   4.19594e-16
      280.700   4.14844e-16
      280.800   4.10146e-16
      280.900   4.05497e-16
      281.000   4.00898e-16
      281.100   3.96348e-16
      281.200   3.91848e-16
      281.300   3.87396e-16
      281.400   3.82995e-16
      281.500   3.78637e-16
      281.600   3.74326e-16
      281.700   3.70063e-16
      281.800   3.65848e-16
      281.900   3.61677e-16
      282.000   3.57551e-16
      282.100   3.53470e-16
      282.200   3.49436e-16
      282.300   3.45443e-16
      282.400   3.41495e-16
      282.500   3.37588e-16
      282.600   3.33725e-16
      282.700   3.29903e-16
      282.800   3.26123e-16
      282.900   3.22388e-16
      283.000   3.18692e-16
      283.100   3.15037e-16
      283.200   3.11423e-16
      283.300   3.07848e-16
      283.400   3.04313e-16
      283.500   3.00819e-16
      283.600   2.97362e-16
      283.700   2.93942e-16
      283.800   2.90561e-16
      283.900   2.87220e-16
      284.000   2.83913e-16
      284.100   2.80643e-16
      284.200   2.77410e-16
      284.300   2.74214e-16
      284.400   2.71054e-16
      284.500   2.67929e-16
      284.600   2.64839e-16
      284.700   2.61785e-16
      284.800   2.58765e-16
      284.900   2.55779e-16
      285.000   2.52824e-16
      285.100   2.49905e-16
      285.200   2.47019e-16
      285.300   2.44165e-16
      285.400   2.41344e-16
      285.500   2.38554e-16
      285.600   2.35798e-16
      285.700   2.33072e-16
      285.800   2.30378e-16
      285.900   2.27714e-16
      286.000   2.25081e-16
      286.100   2.22480e-16
      286.200   2.19907e-16
      286.300   2.17366e-16
      286.400   2.14853e-16
      286.500   2.12369e-16
      286.600   2.09912e-16
      286.700   2.07485e-16
      286.800   2.05086e-16
      286.900   2.02715e-16
      287.000   2.00371e-16
      287.100   1.98054e-16
      287.200   1.95765e-16
      287.300   1.93502e-16
      287.400   1.91265e-16
      287.500   1.89054e-16
      287.600   1.86870e-16
      287.700   1.84711e-16
      287.800   1.82577e-16
      287.900   1.80468e-16
      288.000   1.78385e-16
      288.100   1.76325e-16
      288.200   1.74290e-16
      288.300   1.72280e-16
      288.400   1.70293e-16
      288.500   1.68330e-16
      288.600   1.66389e-16
      288.700   1.64472e-16
      288.800   1.62576e-16
      288.900   1.60705e-16
      289.000   1.58854e-16
      289.100   1.57025e-16
      289.200   1.55218e-16
      289.300   1.53433e-16
      289.400   1.51669e-16
      289.500   1.49925e-16
      289.600   1.48202e-16
      289.700   1.46500e-16
      289.800   1.44818e-16
      289.900   1.43154e-16
      290.000   1.41512e-16
      290.100   1.39888e-16
      290.200   1.38285e-16
      290.300   1.36701e-16
      290.400   1.35135e-16
      290.500   1.33589e-16
      290.600   1.32060e-16
      290.700   1.30549e-16
      290.800   1.29058e-16
      290.900   1.27583e-16
      291.000   1.26125e-16
      291.100   1.24684e-16
      291.200   1.23261e-16
      291.300   1.21855e-16
      291.400   1.20465e-16
      291.500   1.19092e-16
      291.600   1.17735e-16
      291.700   1.16394e-16
      291.800   1.15068e-16
      291.900   1.13760e-16
      292.000   1.12467e-16
      292.100   1.11189e-16
      292.200   1.09926e-16
      292.300   1.08678e-16
      292.400   1.07444e-16
      292.500   1.06225e-16
      292.600   1.05020e-16
      292.700   1.03830e-16
      292.800   1.02653e-16
      292.900   1.01490e-16
      293.000   1.00341e-16
      293.100   9.92054e-17
      293.200   9.80828e-17
      293.300   9.69730e-17
      293.400   9.58774e-17
      293.500   9.47941e-17
      293.600   9.37238e-17
      293.700   9.26655e-17
      293.800   9.16200e-17
      293.900   9.05867e-17
      294.000   8.95650e-17
      294.100   8.85554e-17
      294.200   8.75579e-17
      294.300   8.65721e-17
      294.400   8.55969e-17
      294.500   8.46333e-17
      294.600   8.36804e-17
      294.700   8.27391e-17
      294.800   8.18085e-17
      294.900   8.08883e-17
      295.000   7.99795e-17
      295.100   7.90815e-17
      295.200   7.81935e-17
      295.300   7.73151e-17
      295.400   7.64473e-17
      295.500   7.55897e-17
      295.600   7.47414e-17
      295.700   7.39030e-17
      295.800   7.30741e-17
      295.900   7.22542e-17
      296.000   7.14441e-17
      296.100   7.06427e-17
      296.200   6.98510e-17
      296.300   6.90682e-17
      296.400   6.82952e-17
      296.500   6.75298e-17
      296.600   6.67737e-17
      296.700   6.60260e-17
      296.800   6.52868e-17
      296.900   6.45558e-17
      297.000   6.38329e-17
      297.100   6.31181e-17
      297.200   6.24114e-17
      297.300   6.17127e-17
      297.400   6.10219e-17
      297.500   6.03383e-17
      297.600   5.96632e-17
      297.700   5.89953e-17
      297.800   5.83350e-17
      297.900   5.76823e-17
      298.000   5.70369e-17
      298.100   5.63984e-17
      298.200   5.57670e-17
      298.300   5.51429e-17
      298.400   5.45254e-17
      298.500   5.39146e-17
      298.600   5.33107e-17
      298.700   5.27134e-17
      298.800   5.21225e-17
      298.900   5.15387e-17
      299.000   5.09616e-17
      299.100   5.03908e-17
      299.200   4.98258e-17
      299.300   4.92673e-17
      299.400   4.87148e-17
      299.500   4.81685e-17
      299.600   4.76281e-17
      299.700   4.70935e-17
      299.800   4.65647e-17
      299.900   4.60420e-17
      300.000   4.55249e-17
      300.100   4.50134e-17
      300.192   4.45480e-17
      300.285   4.40818e-17
      300.377   4.36257e-17
      300.470   4.31696e-17
      300.562   4.27226e-17
      300.654   4.22800e-17
      300.747   4.18372e-17
      300.839   4.14038e-17
      300.932   4.09696e-17
      301.025   4.05401e-17
      301.117   4.01197e-17
      301.210   3.96984e-17
      301.303   3.92820e-17
      301.395   3.88743e-17
      301.488   3.84657e-17
      301.581   3.80616e-17
      301.674   3.76615e-17
      301.766   3.72695e-17
      301.859   3.68773e-17
      301.952   3.64893e-17
      302.045   3.61051e-17
      302.138   3.57495e-17
      302.231   3.54532e-17
      302.324   3.51616e-17
      302.417   3.48725e-17
      302.510   3.45851e-17
      302.603   3.43005e-17
      302.696   3.40177e-17
      302.789   3.37369e-17
      302.882   3.34584e-17
      302.976   3.31794e-17
      303.069   3.29052e-17
      303.162   3.26331e-17
      303.255   3.23629e-17
      303.349   3.20920e-17
      303.442   3.18260e-17
      303.535   3.15621e-17
      303.629   3.12974e-17
      303.722   3.10376e-17
      303.816   3.07770e-17
      303.909   3.05210e-17
      304.003   3.02643e-17
      304.096   3.00123e-17
      304.190   2.97595e-17
      304.283   2.95113e-17
      304.377   2.92625e-17
      304.471   2.90153e-17
      304.564   2.87728e-17
      304.658   2.85298e-17
      304.752   2.82883e-17
      304.846   2.80489e-17
      304.939   2.78138e-17
      305.033   2.75779e-17
      305.127   2.73439e-17
      305.221   2.71117e-17
      305.315   2.68815e-17
      305.409   2.66528e-17
      305.503   2.64260e-17
      305.597   2.62011e-17
      305.691   2.59778e-17
      305.785   2.57563e-17
      305.879   2.55364e-17
      305.973   2.53183e-17
      306.067   2.51019e-17
      306.161   2.48872e-17
      306.255   2.46742e-17
      306.350   2.44606e-17
      306.444   2.42509e-17
      306.538   2.40429e-17
      306.633   2.38345e-17
      306.727   2.36298e-17
      306.821   2.34267e-17
      306.916   2.32231e-17
      307.010   2.30259e-17
      307.105   2.28368e-17
      307.199   2.26525e-17
      307.294   2.24675e-17
      307.388   2.22859e-17
      307.483   2.21038e-17
      307.577   2.19249e-17
      307.672   2.17454e-17
      307.767   2.15674e-17
      307.861   2.13925e-17
      307.956   2.12169e-17
      308.051   2.10427e-17
      308.146   2.08701e-17
      308.240   2.07003e-17
      308.335   2.05301e-17
      308.430   2.03610e-17
      308.525   2.01934e-17
      308.620   2.00271e-17
      308.715   1.98620e-17
      308.810   1.96983e-17
      308.905   1.95357e-17
      309.000   1.93743e-17
      309.095   1.92143e-17
      309.190   1.90555e-17
      309.285   1.88980e-17
      309.380   1.87416e-17
      309.476   1.85850e-17
      309.571   1.84310e-17
      309.666   1.82783e-17
      309.761   1.81268e-17
      309.857   1.79749e-17
      309.952   1.78257e-17
      310.047   1.76778e-17
      310.143   1.75295e-17
      310.238   1.73839e-17
      310.334   1.72380e-17
      310.429   1.70946e-17
      310.525   1.69510e-17
      310.620   1.68100e-17
      310.716   1.66687e-17
      310.811   1.65300e-17
      310.907   1.63910e-17
      311.003   1.62530e-17
      311.098   1.61176e-17
      311.194   1.59819e-17
      311.290   1.58474e-17
      311.386   1.57140e-17
      311.481   1.55830e-17
      311.577   1.54517e-17
      311.673   1.53215e-17
      311.769   1.51923e-17
      311.865   1.50642e-17
      311.961   1.49377e-17
      312.057   1.48141e-17
      312.153   1.46924e-17
      312.249   1.45715e-17
      312.345   1.44517e-17
      312.441   1.43328e-17
      312.537   1.42149e-17
      312.633   1.40980e-17
      312.730   1.39807e-17
      312.826   1.38657e-17
      312.922   1.37516e-17
      313.018   1.36385e-17
      313.115   1.35252e-17
      313.211   1.34139e-17
      313.307   1.33035e-17
      313.404   1.31930e-17
      313.500   1.30845e-17
      313.597   1.29759e-17
      313.693   1.28692e-17
      313.790   1.27624e-17
      313.886   1.26575e-17
      313.983   1.25523e-17
      314.079   1.24492e-17
      314.176   1.23459e-17
      314.273   1.22434e-17
      314.369   1.21430e-17
      314.466   1.20423e-17
      314.563   1.19425e-17
      314.660   1.18435e-17
      314.756   1.17464e-17
      314.853   1.16490e-17
      314.950   1.15525e-17
      315.047   1.14569e-17
      315.144   1.13621e-17
      315.241   1.12681e-17
      315.338   1.11749e-17
      315.435   1.10825e-17
      315.532   1.09909e-17
      315.629   1.09001e-17
      315.726   1.08101e-17
      315.823   1.07208e-17
      315.921   1.06314e-17
      316.018   1.05437e-17
      316.115   1.04568e-17
      316.212   1.03706e-17
      316.310   1.02842e-17
      316.407   1.01995e-17
      316.504   1.01155e-17
      316.602   1.00315e-17
      316.699   9.94899e-18
      316.796   9.86716e-18
      316.894   9.78526e-18
      316.991   9.70509e-18
      317.089   9.62612e-18
      317.187   9.54857e-18
      317.284   9.47243e-18
      317.382   9.39615e-18
      317.479   9.32125e-18
      317.577   9.24625e-18
      317.675   9.17191e-18
      317.773   9.09819e-18
      317.870   9.02588e-18
      317.968   8.95340e-18
      318.066   8.88154e-18
      318.164   8.81030e-18
      318.262   8.73967e-18
      318.360   8.66966e-18
      318.458   8.60027e-18
      318.556   8.53152e-18
      318.654   8.46331e-18
      318.752   8.39564e-18
      318.850   8.32859e-18
      318.948   8.26210e-18
      319.046   8.19619e-18
      319.144   8.13081e-18
      319.242   8.06602e-18
      319.341   8.00113e-18
      319.439   7.93743e-18
      319.537   7.87432e-18
      319.635   7.81172e-18
      319.734   7.74901e-18
      319.832   7.68749e-18
      319.930   7.62645e-18
      320.029   7.56533e-18
      320.127   7.50536e-18
      320.226   7.44530e-18
      320.324   7.38631e-18
      320.423   7.32721e-18
      320.522   7.26871e-18
      320.620   7.21126e-18
      320.719   7.15367e-18
      320.818   7.09661e-18
      320.916   7.04059e-18
      321.015   6.98448e-18
      321.114   6.92882e-18
      321.213   6.87366e-18
      321.311   6.81953e-18
      321.410   6.76532e-18
      321.509   6.71150e-18
      321.608   6.65819e-18
      321.707   6.60531e-18
      321.806   6.55288e-18
      321.905   6.50090e-18
      322.004   6.44934e-18
      322.103   6.39823e-18
      322.202   6.34750e-18
      322.301   6.29725e-18
      322.401   6.24693e-18
      322.500   6.19751e-18
      322.599   6.14850e-18
      322.698   6.09987e-18
      322.798   6.05118e-18
      322.897   6.00338e-18
      322.996   5.95599e-18
      323.096   5.90848e-18
      323.195   5.86186e-18
      323.294   5.81559e-18
      323.394   5.76927e-18
      323.493   5.72378e-18
      323.593   5.67825e-18
      323.692   5.63351e-18
      323.792   5.58869e-18
      323.892   5.54423e-18
      323.991   5.50056e-18
      324.091   5.45686e-18
      324.191   5.41350e-18
      324.291   5.37047e-18
      324.390   5.32825e-18
      324.490   5.28593e-18
      324.590   5.24396e-18
      324.690   5.20232e-18
      324.790   5.16103e-18
      324.890   5.12008e-18
      324.990   5.07946e-18
      325.090   5.03915e-18
      325.190   4.99916e-18
      325.290   4.95952e-18
      325.390   4.92016e-18
      325.490   4.88115e-18
      325.590   4.84246e-18
      325.690   4.80401e-18
      325.790   4.76590e-18
      325.891   4.72773e-18
      325.991   4.69024e-18
      326.091   4.65302e-18
      326.192   4.61575e-18
      326.292   4.57914e-18
      326.392   4.54282e-18
      326.493   4.50643e-18
      326.593   4.47066e-18
      326.694   4.43486e-18
      326.794   4.39965e-18
      326.895   4.36438e-18
      326.995   4.32973e-18
      327.096   4.29501e-18
      327.197   4.26056e-18
      327.297   4.22672e-18
      327.398   4.19281e-18
      327.499   4.15917e-18
      327.599   4.12610e-18
      327.700   4.09297e-18
      327.801   4.06008e-18
      327.902   4.02747e-18
      328.003   3.99510e-18
      328.104   3.96298e-18
      328.205   3.93112e-18
      328.306   3.89950e-18
      328.407   3.86812e-18
      328.508   3.83696e-18
      328.609   3.80605e-18
      328.710   3.77537e-18
      328.811   3.74493e-18
      328.912   3.71474e-18
      329.013   3.68475e-18
      329.115   3.65474e-18
      329.216   3.62523e-18
      329.317   3.59591e-18
      329.419   3.56658e-18
      329.520   3.53773e-18
      329.621   3.50906e-18
      329.723   3.48037e-18
      329.824   3.45218e-18
      329.926   3.42393e-18
      330.027   3.39615e-18
      330.129   3.36831e-18
      330.230   3.34097e-18
      330.332   3.31354e-18
      330.434   3.28633e-18
      330.535   3.25960e-18
      330.637   3.23279e-18
      330.739   3.20619e-18
      330.840   3.18004e-18
      330.942   3.15384e-18
      331.044   3.12784e-18
      331.146   3.10202e-18
      331.248   3.07641e-18
      331.350   3.05100e-18
      331.452   3.02581e-18
      331.554   3.00151e-18
      331.656   2.97849e-18
      331.758   2.95564e-18
      331.860   2.93293e-18
      331.962   2.91039e-18
      332.064   2.88801e-18
      332.166   2.86580e-18
      332.268   2.84371e-18
      332.371   2.82158e-18
      332.473   2.79979e-18
      332.575   2.77815e-18
      332.677   2.75667e-18
      332.780   2.73513e-18
      332.882   2.71395e-18
      332.985   2.69270e-18
      333.087   2.67180e-18
      333.190   2.65085e-18
      333.292   2.62990e-18
      333.395   2.60796e-18
      333.497   2.58606e-18
      333.600   2.56411e-18
      333.702   2.54254e-18
      333.805   2.52093e-18
      333.908   2.49947e-18
      334.011   2.47819e-18
      334.113   2.45727e-18
      334.216   2.43630e-18
      334.319   2.41551e-18
      334.422   2.39485e-18
      334.525   2.37436e-18
      334.628   2.35403e-18
      334.731   2.33387e-18
      334.834   2.31386e-18
      334.937   2.29400e-18
      335.040   2.27428e-18
      335.143   2.25473e-18
      335.246   2.23532e-18
      335.349   2.21607e-18
      335.452   2.19696e-18
      335.555   2.17801e-18
      335.659   2.15902e-18
      335.762   2.14036e-18
      335.865   2.12187e-18
      335.969   2.10332e-18
      336.072   2.08508e-18
      336.175   2.06700e-18
      336.279   2.04889e-18
      336.382   2.03111e-18
      336.486   2.01327e-18
      336.589   1.99575e-18
      336.693   1.97822e-18
      336.796   1.96099e-18
      336.900   1.94373e-18
      337.004   1.92659e-18
      337.107   1.90977e-18
      337.211   1.89292e-18
      337.315   1.87623e-18
      337.419   1.85964e-18
      337.523   1.84318e-18
      337.626   1.82703e-18
      337.730   1.81086e-18
      337.834   1.79481e-18
      337.938   1.77890e-18
      338.042   1.76317e-18
      338.146   1.74779e-18
      338.250   1.73255e-18
      338.354   1.71744e-18
      338.458   1.70244e-18
      338.562   1.68756e-18
      338.667   1.67267e-18
      338.771   1.65803e-18
      338.875   1.64352e-18
      338.979   1.62912e-18
      339.084   1.61471e-18
      339.188   1.60055e-18
      339.292   1.58652e-18
      339.397   1.57245e-18
      339.501   1.55865e-18
      339.606   1.54482e-18
      339.710   1.53123e-18
      339.815   1.51764e-18
      339.919   1.50429e-18
      340.024   1.49092e-18
      340.128   1.47779e-18
      340.233   1.46464e-18
      340.338   1.45162e-18
      340.442   1.43881e-18
      340.547   1.42600e-18
      340.652   1.41330e-18
      340.757   1.40070e-18
      340.862   1.38821e-18
      340.966   1.37595e-18
      341.071   1.36366e-18
      341.176   1.35149e-18
      341.281   1.33943e-18
      341.386   1.32747e-18
      341.491   1.31561e-18
      341.596   1.30387e-18
      341.702   1.29211e-18
      341.807   1.28055e-18
      341.912   1.26910e-18
      342.017   1.25776e-18
      342.122   1.24651e-18
      342.228   1.23525e-18
      342.333   1.22420e-18
      342.438   1.21324e-18
      342.544   1.20229e-18
      342.649   1.19152e-18
      342.754   1.18087e-18
      342.860   1.17019e-18
      342.965   1.15971e-18
      343.071   1.14924e-18
      343.176   1.13895e-18
      343.282   1.12865e-18
      343.388   1.11846e-18
      343.493   1.10851e-18
      343.599   1.09917e-18
      343.705   1.08997e-18
      343.810   1.08092e-18
      343.916   1.07186e-18
      344.022   1.06290e-18
      344.128   1.05399e-18
      344.234   1.04516e-18
      344.340   1.03642e-18
      344.446   1.02774e-18
      344.552   1.01913e-18
      344.658   1.01062e-18
      344.764   1.00216e-18
      344.870   9.93780e-19
      344.976   9.85469e-19
      345.082   9.77230e-19
      345.188   9.69068e-19
      345.294   9.60968e-19
      345.401   9.52864e-19
      345.507   9.44907e-19
      345.613   9.37019e-19
      345.719   9.29200e-19
      345.826   9.21376e-19
      345.932   9.13689e-19
      346.039   9.06002e-19
      346.145   8.98446e-19
      346.252   8.90894e-19
      346.358   8.83475e-19
      346.465   8.76050e-19
      346.571   8.68760e-19
      346.678   8.61464e-19
      346.785   8.54231e-19
      346.891   8.47131e-19
      346.998   8.40029e-19
      347.105   8.32994e-19
      347.212   8.26012e-19
      347.319   8.19097e-19
      347.425   8.12298e-19
      347.532   8.05502e-19
      347.639   7.98770e-19
      347.746   7.92091e-19
      347.853   7.85478e-19
      347.960   7.78915e-19
      348.067   7.72422e-19
      348.174   7.65986e-19
      348.281   7.59594e-19
      348.389   7.53213e-19
      348.496   7.46933e-19
      348.603   7.40725e-19
      348.710   7.34560e-19
      348.818   7.28404e-19
      348.925   7.22349e-19
      349.032   7.16356e-19
      349.140   7.10343e-19
      349.247   7.04437e-19
      349.355   6.98539e-19
      349.462   6.92740e-19
      349.570   6.86935e-19
      349.677   6.81242e-19
      349.785   6.75541e-19
      349.892   6.69950e-19
      350.000   6.64357e-19
      350.100   6.59221e-19
      350.193   6.54486e-19
      350.287   6.49733e-19
      350.380   6.45066e-19
      350.473   6.40439e-19
      350.567   6.35794e-19
      350.660   6.31237e-19
      350.754   6.26665e-19
      350.847   6.22183e-19
      350.941   6.17682e-19
      351.034   6.13263e-19
      351.128   6.08835e-19
      351.221   6.04486e-19
      351.315   6.00128e-19
      351.409   5.95796e-19
      351.502   5.91549e-19
      351.596   5.87285e-19
      351.690   5.83056e-19
      351.783   5.78907e-19
      351.877   5.74749e-19
      351.971   5.70614e-19
      352.065   5.66516e-19
      352.159   5.62452e-19
      352.252   5.58458e-19
      352.346   5.54451e-19
      352.440   5.50477e-19
      352.534   5.46538e-19
      352.628   5.42628e-19
      352.722   5.38743e-19
      352.816   5.34890e-19
      352.910   5.31069e-19
      353.004   5.27277e-19
      353.098   5.23511e-19
      353.192   5.19775e-19
      353.287   5.16030e-19
      353.381   5.12352e-19
      353.475   5.08704e-19
      353.569   5.05079e-19
      353.663   5.01484e-19
      353.758   4.97883e-19
      353.852   4.94346e-19
      353.946   4.90834e-19
      354.041   4.87311e-19
      354.135   4.83852e-19
      354.229   4.80418e-19
      354.324   4.76979e-19
      354.418   4.73595e-19
      354.513   4.70204e-19
      354.607   4.66880e-19
      354.702   4.63528e-19
      354.796   4.60197e-19
      354.891   4.56848e-19
      354.985   4.53565e-19
      355.080   4.50269e-19
      355.175   4.47001e-19
      355.269   4.43788e-19
      355.364   4.40568e-19
      355.459   4.37373e-19
      355.553   4.34235e-19
      355.648   4.31088e-19
      355.743   4.27966e-19
      355.838   4.24864e-19
      355.933   4.21791e-19
      356.027   4.18772e-19
      356.122   4.15741e-19
      356.217   4.12733e-19
      356.312   4.09751e-19
      356.407   4.06789e-19
      356.502   4.03851e-19
      356.597   4.00931e-19
      356.692   3.98039e-19
      356.787   3.95165e-19
      356.882   3.92312e-19
      356.977   3.89482e-19
      357.073   3.86646e-19
      357.168   3.83855e-19
      357.263   3.81087e-19
      357.358   3.78341e-19
      357.453   3.75615e-19
      357.549   3.72881e-19
      357.644   3.70195e-19
      357.739   3.67530e-19
      357.835   3.64857e-19
      357.930   3.62231e-19
      358.025   3.59623e-19
      358.121   3.57007e-19
      358.216   3.54438e-19
      358.312   3.51860e-19
      358.407   3.49330e-19
      358.503   3.46791e-19
      358.598   3.44299e-19
      358.694   3.41797e-19
      358.790   3.39313e-19
      358.885   3.36872e-19
      358.981   3.34426e-19
      359.076   3.32021e-19
      359.172   3.29611e-19
      359.268   3.27214e-19
      359.364   3.24836e-19
      359.459   3.22503e-19
      359.555   3.20161e-19
      359.651   3.17835e-19
      359.747   3.15526e-19
      359.843   3.13234e-19
      359.939   3.10957e-19
      360.035   3.08699e-19
      360.131   3.06456e-19
      360.227   3.04229e-19
      360.323   3.02019e-19
      360.419   2.99825e-19
      360.515   2.97647e-19
      360.611   2.95483e-19
      360.707   2.93333e-19
      360.803   2.91202e-19
      360.899   2.89083e-19
      360.995   2.86983e-19
      361.092   2.84874e-19
      361.188   2.82801e-19
      361.284   2.80744e-19
      361.380   2.78701e-19
      361.477   2.76651e-19
      361.573   2.74637e-19
      361.669   2.72637e-19
      361.766   2.70628e-19
      361.862   2.68657e-19
      361.959   2.66680e-19
      362.055   2.64732e-19
      362.152   2.62783e-19
      362.248   2.60865e-19
      362.345   2.58940e-19
      362.441   2.57051e-19
      362.538   2.55155e-19
      362.635   2.53272e-19
      362.731   2.51419e-19
      362.828   2.49560e-19
      362.925   2.47716e-19
      363.021   2.45904e-19
      363.118   2.44086e-19
      363.215   2.42278e-19
      363.312   2.40484e-19
      363.409   2.38703e-19
      363.505   2.36952e-19
      363.602   2.35195e-19
      363.699   2.33451e-19
      363.796   2.31719e-19
      363.893   2.29997e-19
      363.990   2.28289e-19
      364.087   2.26592e-19
      364.184   2.24907e-19
      364.281   2.23233e-19
      364.378   2.21572e-19
      364.475   2.19922e-19
      364.573   2.18265e-19
      364.670   2.16636e-19
      364.767   2.15021e-19
      364.864   2.13415e-19
      364.961   2.11820e-19
      365.059   2.10221e-19
      365.156   2.08649e-19
      365.253   2.07088e-19
      365.351   2.05520e-19
      365.448   2.03980e-19
      365.545   2.02451e-19
      365.643   2.00916e-19
      365.740   1.99407e-19
      365.838   1.97893e-19
      365.935   1.96406e-19
      366.033   1.94914e-19
      366.130   1.93446e-19
      366.228   1.91973e-19
      366.326   1.90512e-19
      366.423   1.89074e-19
      366.521   1.87632e-19
      366.618   1.86214e-19
      366.716   1.84791e-19
      366.814   1.83379e-19
      366.912   1.81977e-19
      367.010   1.80584e-19
      367.107   1.79215e-19
      367.205   1.77840e-19
      367.303   1.76475e-19
      367.401   1.75120e-19
      367.499   1.73774e-19
      367.597   1.72438e-19
      367.695   1.71110e-19
      367.793   1.69793e-19
      367.891   1.68485e-19
      367.989   1.67185e-19
      368.087   1.65894e-19
      368.185   1.64612e-19
      368.283   1.63339e-19
      368.381   1.62075e-19
      368.480   1.60807e-19
      368.578   1.59560e-19
      368.676   1.58323e-19
      368.774   1.57094e-19
      368.873   1.55862e-19
      368.971   1.54650e-19
      369.069   1.53447e-19
      369.168   1.52239e-19
      369.266   1.51052e-19
      369.364   1.49874e-19
      369.463   1.48693e-19
      369.561   1.47531e-19
      369.660   1.46366e-19
      369.758   1.45220e-19
      369.857   1.44072e-19
      369.955   1.42943e-19
      370.054   1.41810e-19
      370.153   1.40685e-19
      370.251   1.39580e-19
      370.350   1.38472e-19
      370.449   1.37372e-19
      370.547   1.36290e-19
      370.646   1.35204e-19
      370.745   1.34128e-19
      370.844   1.33058e-19
      370.943   1.31997e-19
      371.041   1.30954e-19
      371.140   1.29907e-19
      371.239   1.28867e-19
      371.338   1.27836e-19
      371.437   1.26813e-19
      371.536   1.25796e-19
      371.635   1.24787e-19
      371.734   1.23785e-19
      371.833   1.22791e-19
      371.932   1.21804e-19
      372.032   1.20814e-19
      372.131   1.19841e-19
      372.230   1.18876e-19
      372.329   1.17918e-19
      372.428   1.16967e-19
      372.528   1.16014e-19
      372.627   1.15077e-19
      372.726   1.14147e-19
      372.826   1.13215e-19
      372.925   1.12300e-19
      373.024   1.11390e-19
      373.124   1.10478e-19
      373.223   1.09582e-19
      373.323   1.08685e-19
      373.422   1.07803e-19
      373.522   1.06918e-19
      373.621   1.06049e-19
      373.721   1.05178e-19
      373.820   1.04322e-19
      373.920   1.03463e-19
      374.020   1.02611e-19
      374.119   1.01775e-19
      374.219   1.00936e-19
      374.319   1.00104e-19
      374.419   9.92781e-20
      374.518   9.84664e-20
      374.618   9.76530e-20
      374.718   9.68450e-20
      374.818   9.60443e-20
      374.918   9.52498e-20
      375.018   9.44610e-20
      375.118   9.36788e-20
      375.218   9.29020e-20
      375.318   9.21317e-20
      375.418   9.13669e-20
      375.518   9.06090e-20
      375.618   8.98567e-20
      375.718   8.91095e-20
      375.818   8.83687e-20
      375.918   8.76335e-20
      376.019   8.68975e-20
      376.119   8.61742e-20
      376.219   8.54565e-20
      376.319   8.47443e-20
      376.420   8.40311e-20
      376.520   8.33301e-20
      376.620   8.26353e-20
      376.721   8.19386e-20
      376.821   8.12546e-20
      376.922   8.05691e-20
      377.022   7.98957e-20
      377.122   7.92283e-20
      377.223   7.85595e-20
      377.323   7.79026e-20
      377.424   7.72443e-20
      377.525   7.65917e-20
      377.625   7.59504e-20
      377.726   7.53081e-20
      377.827   7.46714e-20
      377.927   7.40455e-20
      378.028   7.34191e-20
      378.129   7.27976e-20
      378.230   7.22622e-20
      378.330   7.18598e-20
      378.431   7.14762e-20
      378.532   7.10950e-20
      378.633   7.07151e-20
      378.734   7.03374e-20
      378.835   6.99615e-20
      378.936   6.95875e-20
      379.037   6.92153e-20
      379.138   6.88443e-20
      379.239   6.84757e-20
      379.340   6.81094e-20
      379.441   6.77448e-20
      379.542   6.73816e-20
      379.643   6.70205e-20
      379.745   6.66577e-20
      379.846   6.63002e-20
      379.947   6.59440e-20
      380.048   6.55903e-20
      380.150   6.52349e-20
      380.251   6.48846e-20
      380.352   6.45363e-20
      380.454   6.41866e-20
      380.555   6.38417e-20
      380.656   6.34984e-20
      380.758   6.31538e-20
      380.859   6.28143e-20
      380.961   6.24735e-20
      381.062   6.21377e-20
      381.164   6.18004e-20
      381.266   6.14649e-20
      381.367   6.11345e-20
      381.469   6.08027e-20
      381.570   6.04760e-20
      381.672   6.01475e-20
      381.774   5.98209e-20
      381.876   5.94961e-20
      381.977   5.91764e-20
      382.079   5.88551e-20
      382.181   5.85356e-20
      382.283   5.82182e-20
      382.385   5.79022e-20
      382.487   5.75880e-20
      382.589   5.72756e-20
      382.691   5.69648e-20
      382.793   5.66559e-20
      382.895   5.63489e-20
      382.997   5.60434e-20
      383.099   5.57396e-20
      383.201   5.54375e-20
      383.303   5.51374e-20
      383.405   5.48384e-20
      383.507   5.45412e-20
      383.610   5.42431e-20
      383.712   5.39495e-20
      383.814   5.36577e-20
      383.916   5.33677e-20
      384.019   5.30762e-20
      384.121   5.27893e-20
      384.223   5.25038e-20
      384.326   5.22266e-20
      384.428   5.19762e-20
      384.531   5.17314e-20
      384.633   5.14904e-20
      384.736   5.12481e-20
      384.838   5.10091e-20
      384.941   5.07693e-20
      385.043   5.05328e-20
      385.146   5.02958e-20
      385.249   5.00595e-20
      385.351   4.98267e-20
      385.454   4.95930e-20
      385.557   4.93605e-20
      385.660   4.91294e-20
      385.762   4.89016e-20
      385.865   4.86727e-20
      385.968   4.84449e-20
      386.071   4.82184e-20
      386.174   4.79930e-20
      386.277   4.77688e-20
      386.380   4.75458e-20
      386.483   4.73238e-20
      386.586   4.71036e-20
      386.689   4.68842e-20
      386.792   4.66658e-20
      386.895   4.64486e-20
      386.998   4.62327e-20
      387.101   4.60177e-20
      387.204   4.58036e-20
      387.308   4.55891e-20
      387.411   4.53777e-20
      387.514   4.51673e-20
      387.617   4.49579e-20
      387.721   4.47478e-20
      387.824   4.45409e-20
      387.927   4.43348e-20
      388.031   4.41280e-20
      388.134   4.39242e-20
      388.238   4.37198e-20
      388.341   4.35181e-20
      388.445   4.33158e-20
      388.548   4.31161e-20
      388.652   4.29161e-20
      388.755   4.27189e-20
      388.859   4.25206e-20
      388.962   4.23254e-20
      389.066   4.21292e-20
      389.170   4.19343e-20
      389.274   4.17405e-20
      389.377   4.15497e-20
      389.481   4.13576e-20
      389.585   4.11668e-20
      389.689   4.09768e-20
      389.793   4.07881e-20
      389.897   4.06003e-20
      390.000   4.04154e-20
      390.104   4.02297e-20
      390.208   4.00447e-20
      390.312   3.98609e-20
      390.416   3.96777e-20
      390.520   3.94951e-20
      390.625   3.93118e-20
      390.729   3.91312e-20
      390.833   3.89515e-20
      390.937   3.87728e-20
      391.041   3.85952e-20
      391.145   3.84182e-20
      391.250   3.82407e-20
      391.354   3.80657e-20
      391.458   3.78916e-20
      391.563   3.77168e-20
      391.667   3.75447e-20
      391.771   3.73735e-20
      391.876   3.72015e-20
      391.980   3.70320e-20
      392.085   3.68618e-20
      392.189   3.66942e-20
      392.294   3.65258e-20
      392.398   3.63599e-20
      392.503   3.61933e-20
      392.607   3.60289e-20
      392.712   3.58643e-20
      392.817   3.57000e-20
      392.921   3.55386e-20
      393.026   3.53762e-20
      393.131   3.52148e-20
      393.236   3.50540e-20
      393.340   3.48959e-20
      393.445   3.47371e-20
      393.550   3.45788e-20
      393.655   3.44215e-20
      393.760   3.42650e-20
      393.865   3.41095e-20
      393.970   3.39545e-20
      394.075   3.38003e-20
      394.180   3.36473e-20
      394.285   3.34948e-20
      394.390   3.33430e-20
      394.495   3.31919e-20
      394.600   3.30418e-20
      394.706   3.28909e-20
      394.811   3.27424e-20
      394.916   3.25942e-20
      395.021   3.24470e-20
      395.126   3.23006e-20
      395.232   3.21534e-20
      395.337   3.20083e-20
      395.443   3.18627e-20
      395.548   3.17191e-20
      395.653   3.15761e-20
      395.759   3.14327e-20
      395.864   3.12913e-20
      395.970   3.11493e-20
      396.075   3.10092e-20
      396.181   3.08684e-20
      396.286   3.07294e-20
      396.392   3.05903e-20
      396.498   3.04517e-20
      396.603   3.03147e-20
      396.709   3.01773e-20
      396.815   3.00402e-20
      396.921   2.99040e-20
      397.026   2.97698e-20
      397.132   2.96351e-20
      397.238   2.95009e-20
      397.344   2.93673e-20
      397.450   2.92345e-20
      397.556   2.91021e-20
      397.662   2.89703e-20
      397.768   2.88392e-20
      397.874   2.87090e-20
      397.980   2.85788e-20
      398.086   2.84497e-20
      398.192   2.83208e-20
      398.298   2.81926e-20
      398.404   2.80653e-20
      398.510   2.79383e-20
      398.617   2.78107e-20
      398.723   2.76849e-20
      398.829   2.75596e-20
      398.935   2.74347e-20
      399.042   2.73097e-20
      399.148   2.71859e-20
      399.255   2.70616e-20
      399.361   2.69391e-20
      399.467   2.68170e-20
      399.574   2.66946e-20
      399.680   2.65735e-20
      399.787   2.64517e-20
      399.893       0.00000
      400.000       0.00000
