Filter Al-med
observation_date 22-Sept-2015 22:40:45
wavelength effective area 
      1.00000   2.66385e-10
      1.10000   7.49525e-10
      1.20000   1.91513e-09
      1.30000   4.48763e-09
      1.40000   9.94640e-09
      1.50000   2.06563e-08
      1.60000   4.05600e-08
      1.70000   7.60801e-08
      1.80000   1.36314e-07
      1.90000   2.34794e-07
      2.00000   3.89509e-07
      2.10000   6.24956e-07
      2.20000   9.74196e-07
      2.30000   1.47333e-06
      2.40000   2.16536e-06
      2.50000   3.08216e-06
      2.60000   4.35732e-06
      2.70000   5.98549e-06
      2.80000   8.02271e-06
      2.90000   1.05765e-05
      3.00000   1.36503e-05
      3.10000   1.72895e-05
      3.20000   2.15287e-05
      3.30000   2.63714e-05
      3.40000   3.17735e-05
      3.50000   3.76844e-05
      3.60000   4.41724e-05
      3.70000   5.09424e-05
      3.80000   5.80890e-05
      3.90000   6.54407e-05
      4.00000   7.28013e-05
      4.10000   8.00788e-05
      4.20000   8.71772e-05
      4.30000   9.39795e-05
      4.40000   0.000100355
      4.50000   0.000106154
      4.60000   0.000111196
      4.70000   0.000115645
      4.80000   0.000119247
      4.90000   0.000120718
      5.00000   0.000124331
      5.10000   0.000125632
      5.20000   0.000126210
      5.30000   0.000125089
      5.40000   0.000122772
      5.50000   0.000119944
      5.60000   0.000112897
      5.70000   0.000111232
      5.80000   9.78282e-05
      5.90000   0.000111628
      6.00000   0.000111502
      6.10000   0.000105245
      6.20000   9.56335e-05
      6.30000   8.26249e-05
      6.40000   6.79006e-05
      6.50000   5.31904e-05
      6.60000   3.94877e-05
      6.70000   2.87681e-05
      6.80000   2.03590e-05
      6.90000   1.87114e-05
      7.00000   1.41974e-05
      7.10000   1.04102e-05
      7.20000   7.49009e-06
      7.30000   5.34107e-06
      7.40000   3.78169e-06
      7.50000   2.63427e-06
      7.60000   1.80271e-06
      7.70000   1.22933e-06
      7.80000   8.20068e-07
      7.90000   5.41843e-07
      8.00000      0.299072
      8.10000      0.315397
      8.20000      0.308372
      8.30000      0.299873
      8.40000      0.290818
      8.50000      0.281484
      8.60000      0.271831
      8.70000      0.262014
      8.80000      0.252006
      8.90000      0.241911
      9.00000      0.231786
      9.10000      0.221674
      9.20000      0.211618
      9.30000      0.201698
      9.40000      0.191910
      9.50000      0.182279
      9.60000      0.172889
      9.70000      0.163709
      9.80000      0.154727
      9.90000      0.146000
      10.0000      0.137528
      10.1000      0.129313
      10.2000      0.121369
      10.3000      0.113750
      10.4000      0.106465
      10.5000     0.0994857
      10.6000     0.0928167
      10.7000     0.0864574
      10.8000     0.0804199
      10.9000     0.0747151
      11.0000     0.0693070
      11.1000     0.0641917
      11.2000     0.0593617
      11.3000     0.0548118
      11.4000     0.0505326
      11.5000     0.0465145
      11.6000     0.0427492
      11.7000     0.0392410
      11.8000     0.0359698
      11.9000     0.0329486
      12.0000     0.0301206
      12.1000     0.0276096
      12.2000     0.0257364
      12.3000     0.0236812
      12.4000     0.0215845
      12.5000     0.0196299
      12.6000     0.0178198
      12.7000     0.0161490
      12.8000     0.0146116
      12.9000     0.0132007
      13.0000     0.0119083
      13.1000     0.0107262
      13.2000    0.00964692
      13.3000    0.00866299
      13.4000    0.00776768
      13.5000    0.00695645
      13.6000    0.00622772
      13.7000    0.00556735
      13.8000    0.00496963
      13.9000    0.00442950
      14.0000    0.00394201
      14.1000    0.00350247
      14.2000    0.00310668
      14.3000    0.00275084
      14.4000    0.00243143
      14.5000    0.00214711
      14.6000    0.00189562
      14.7000    0.00167059
      14.8000    0.00146945
      14.9000    0.00128990
      15.0000    0.00112989
      15.1000   0.000987516
      15.2000   0.000864020
      15.3000   0.000754832
      15.4000   0.000657917
      15.5000   0.000572045
      15.6000   0.000496121
      15.7000   0.000430208
      15.8000   0.000373352
      15.9000   0.000323203
      16.0000   0.000279058
      16.1000   0.000240293
      16.2000   0.000207474
      16.3000   0.000178940
      16.4000   0.000153825
      16.5000   0.000131778
      16.6000   0.000112931
      16.7000   9.69015e-05
      16.8000   8.28108e-05
      16.9000   7.04704e-05
      17.0000   6.00307e-05
      17.1000   5.11961e-05
      17.2000   4.34481e-05
      17.3000   3.66921e-05
      17.4000   3.12040e-05
      17.5000   2.65232e-05
      17.6000   2.24637e-05
      17.7000   1.90361e-05
      17.8000   1.62739e-05
      17.9000   1.38365e-05
      18.0000   1.16887e-05
      18.1000   9.94091e-06
      18.2000   8.39650e-06
      18.3000   7.02588e-06
      18.4000   5.88359e-06
      18.5000   4.90350e-06
      18.6000   4.03749e-06
      18.7000   3.31919e-06
      18.8000   2.72811e-06
      18.9000   2.21698e-06
      19.0000   1.81183e-06
      19.1000   1.48130e-06
      19.2000   1.19679e-06
      19.3000   9.77795e-07
      19.4000   7.96842e-07
      19.5000   6.41352e-07
      19.6000   5.25975e-07
      19.7000   4.27362e-07
      19.8000   3.43604e-07
      19.9000   2.82070e-07
      20.0000   2.27815e-07
      20.1000   1.84053e-07
      20.2000   1.49670e-07
      20.3000   1.19582e-07
      20.4000   9.70391e-08
      20.5000   7.79696e-08
      20.6000   6.19945e-08
      20.7000   5.01974e-08
      20.8000   3.97537e-08
      20.9000   3.18823e-08
      21.0000   2.54006e-08
      21.1000   1.99625e-08
      21.2000   1.60356e-08
      21.3000   1.25406e-08
      21.4000   9.99495e-09
      21.5000   7.86139e-09
      21.6000   6.14499e-09
      21.7000   4.86973e-09
      21.8000   3.74186e-09
      21.9000   2.98239e-09
      22.0000   2.30156e-09
      22.1000   1.80236e-09
      22.2000   1.39540e-09
      22.3000   1.06858e-09
      22.4000   8.20396e-10
      22.5000   5.97897e-10
      22.6000   4.29129e-10
      22.7000   2.89316e-10
      22.8000   2.77103e-10
      22.9000   2.73576e-10
      23.0000   2.77536e-10
      23.1000   2.57986e-10
      23.2000   2.16824e-10
      23.3000   1.76609e-10
      23.4000   1.36956e-10
      23.5000   1.08572e-10
      23.6000   8.30003e-11
      23.7000   6.58994e-11
      23.8000   4.97422e-11
      23.9000   3.94917e-11
      24.0000   2.97787e-11
      24.1000   2.34467e-11
      24.2000   1.76441e-11
      24.3000   1.38009e-11
      24.4000   1.03785e-11
      24.5000   8.07504e-12
      24.6000   6.06934e-12
      24.7000   4.70049e-12
      24.8000   3.52976e-12
      24.9000   2.72916e-12
      25.0000   2.04889e-12
      25.1000   1.57957e-12
      25.2000   1.18199e-12
      25.3000   9.10714e-13
      25.4000   6.79119e-13
      25.5000   5.22731e-13
      25.6000   3.87393e-13
      25.7000   2.98300e-13
      25.8000   2.19460e-13
      25.9000   1.69194e-13
      26.0000   1.23358e-13
      26.1000   9.53259e-14
      26.2000   6.87806e-14
      26.3000   5.33297e-14
      26.4000   3.80249e-14
      26.5000   2.96091e-14
      26.6000   2.12348e-14
      26.7000   1.63058e-14
      26.8000   1.18040e-14
      26.9000   8.90432e-15
      27.0000   6.51364e-15
      27.1000   4.81735e-15
      27.2000   3.56308e-15
      27.3000   2.58266e-15
      27.4000   1.94188e-15
      27.5000   1.38252e-15
      27.6000   1.04949e-15
      27.7000   7.27245e-16
      27.8000   5.58665e-16
      27.9000   3.90910e-16
      28.0000   2.93706e-16
      28.1000   2.10552e-16
      28.2000   1.53142e-16
      28.3000   1.12932e-16
      28.4000   7.98586e-17
      28.5000   6.01790e-17
      28.6000   4.13140e-17
      28.7000   3.20678e-17
      28.8000   2.28678e-17
      28.9000   1.72405e-17
      29.0000   1.26459e-17
      29.1000   9.14585e-18
      29.2000   6.88065e-18
      29.3000   4.78546e-18
      29.4000   3.68291e-18
      29.5000   2.58598e-18
      29.6000   1.93894e-18
      29.7000   1.41212e-18
      29.8000   1.00393e-18
      29.9000   7.54311e-19
      30.0000   5.11158e-19
      30.1000   3.94494e-19
      30.2000   2.78425e-19
      30.3000   2.03981e-19
      30.4000   1.53408e-19
      30.5000   1.08228e-19
      30.6000   8.23524e-20
      30.7000   5.66092e-20
      30.8000   4.17602e-20
      30.9000   3.02203e-20
      31.0000   2.06810e-20
      31.1000   1.55837e-20
      31.2000   1.05127e-20
      31.3000   7.79478e-21
      31.4000   5.58847e-21
      31.5000   3.79258e-21
      31.6000   2.84720e-21
      31.7000   1.90676e-21
      31.8000   1.39969e-21
      31.9000   1.00291e-21
      32.0000   6.66766e-22
      32.1000   5.01973e-22
      32.2000   3.38040e-22
      32.3000   2.41297e-22
      32.4000   1.74328e-22
      32.5000   1.12047e-22
      32.6000   8.51466e-23
      32.7000   5.83848e-23
      32.8000   3.98330e-23
      32.9000   2.92499e-23
      33.0000   1.87225e-23
      33.1000   1.38484e-23
      33.2000   9.75727e-24
      33.3000   6.27135e-24
      33.4000   4.70706e-24
      33.5000   3.15075e-24
      33.6000   2.14654e-24
      33.7000   1.56186e-24
      33.8000   9.80102e-25
      33.9000   7.20020e-25
      34.0000   5.05304e-25
      34.1000   3.14243e-25
      34.2000   2.35366e-25
      34.3000   1.56859e-25
      34.4000   1.00852e-25
      34.5000   7.36659e-26
      34.6000   4.66095e-26
      34.7000   3.14805e-26
      34.8000   2.19107e-26
      34.9000   1.23857e-26
      35.0000   8.85792e-27
      35.1000   5.96207e-27
      35.2000   3.29723e-27
      35.3000   2.43794e-27
      35.4000   1.58270e-27
      35.5000   9.04294e-28
      35.6000   6.56702e-28
      35.7000   4.10278e-28
      35.8000   2.42788e-28
      35.9000   1.73229e-28
      36.0000   1.03999e-28
      36.1000   6.38305e-29
      36.2000   4.47844e-29
      36.3000   2.58284e-29
      36.4000   1.64358e-29
      36.5000   1.13551e-29
      36.6000   6.29893e-30
      36.7000   4.14447e-30
      36.8000   2.82565e-30
      36.9000   1.51319e-30
      37.0000   1.02387e-30
      37.1000   6.90783e-31
      37.2000   3.59280e-31
      37.3000   2.47812e-31
      37.4000   1.65993e-31
      37.5000   8.45695e-32
      37.6000   5.87519e-32
      37.7000   3.92208e-32
      37.8000   1.97843e-32
      37.9000   1.36413e-32
      38.0000   9.11166e-33
      38.1000   4.60378e-33
      38.2000   3.09974e-33
      38.3000   2.07979e-33
      38.4000   1.06474e-33
      38.5000   6.88669e-34
      38.6000   4.65907e-34
      38.7000   2.44218e-34
      38.8000   1.49479e-34
      38.9000   1.02305e-34
      39.0000   5.53575e-35
      39.1000   3.16630e-35
      39.2000   2.19827e-35
      39.3000   1.23487e-35
      39.4000   6.53686e-36
      39.5000   4.61309e-36
      39.6000   2.69870e-36
      39.7000   1.31353e-36
      39.8000   9.43585e-37
      39.9000   5.75417e-37
      40.0000   2.56555e-37
      40.1000   1.87747e-37
      40.2000   1.19271e-37
      40.3000   5.11334e-38
      40.4000   3.62678e-38
      40.5000   2.39587e-38
      40.6000   1.17086e-38
      40.7000   6.78897e-39
      40.8000   4.65158e-39
      40.9000   2.52469e-39
      41.0000   1.22898e-39
      41.1000   8.70927e-40
      41.2000   5.14641e-40
      41.3000   2.14871e-40
      41.4000   1.57039e-40
      41.5000   9.94782e-41
      41.6000   4.21987e-41
      41.7000   2.72370e-41
      41.8000   1.82715e-41
      41.9000   9.35227e-42
      42.0000   4.54021e-42
      42.1000   3.19496e-42
      42.2000   1.85672e-42
      42.3000   7.21669e-43
      42.4000   5.29691e-43
      42.5000   3.39114e-43
      42.6000   1.47136e-43
      42.7000   8.26766e-44
      42.8000   5.46506e-44
      42.9000   2.94273e-44
      43.0000   1.26117e-44
      43.1000   9.80909e-45
      43.2000   7.00649e-45
      43.3000       0.00000
      43.4000   2.80260e-45
      43.5000   2.80260e-45
      43.6000   2.80260e-45
      43.7000       0.00000
      43.8000       0.00000
      43.9000       0.00000
      44.0000       0.00000
      44.1000       0.00000
      44.2000       0.00000
      44.3000       0.00000
      44.4000       0.00000
      44.5000       0.00000
      44.6000       0.00000
      44.7000       0.00000
      44.8000       0.00000
      44.9000       0.00000
      45.0000       0.00000
      45.1000       0.00000
      45.2000       0.00000
      45.3000       0.00000
      45.4000       0.00000
      45.5000       0.00000
      45.6000       0.00000
      45.7000       0.00000
      45.8000       0.00000
      45.9000       0.00000
      46.0000       0.00000
      46.1000       0.00000
      46.2000       0.00000
      46.3000       0.00000
      46.4000       0.00000
      46.5000       0.00000
      46.6000       0.00000
      46.7000       0.00000
      46.8000       0.00000
      46.9000       0.00000
      47.0000       0.00000
      47.1000       0.00000
      47.2000       0.00000
      47.3000       0.00000
      47.4000       0.00000
      47.5000       0.00000
      47.6000       0.00000
      47.7000       0.00000
      47.8000       0.00000
      47.9000       0.00000
      48.0000       0.00000
      48.1000       0.00000
      48.2000       0.00000
      48.3000       0.00000
      48.4000       0.00000
      48.5000       0.00000
      48.6000       0.00000
      48.7000       0.00000
      48.8000       0.00000
      48.9000       0.00000
      49.0000       0.00000
      49.1000       0.00000
      49.2000       0.00000
      49.3000       0.00000
      49.4000       0.00000
      49.5000       0.00000
      49.6000       0.00000
      49.7000       0.00000
      49.8000       0.00000
      49.9000       0.00000
      50.0000       0.00000
      50.1000       0.00000
      50.2000       0.00000
      50.3000       0.00000
      50.4000       0.00000
      50.5000       0.00000
      50.6000       0.00000
      50.7000       0.00000
      50.8000       0.00000
      50.9000       0.00000
      51.0000       0.00000
      51.1000       0.00000
      51.2000       0.00000
      51.3000       0.00000
      51.4000       0.00000
      51.5000       0.00000
      51.6000       0.00000
      51.7000       0.00000
      51.8000       0.00000
      51.9000       0.00000
      52.0000       0.00000
      52.1000       0.00000
      52.2000       0.00000
      52.3000       0.00000
      52.4000       0.00000
      52.5000       0.00000
      52.6000       0.00000
      52.7000       0.00000
      52.8000       0.00000
      52.9000       0.00000
      53.0000       0.00000
      53.1000       0.00000
      53.2000       0.00000
      53.3000       0.00000
      53.4000       0.00000
      53.5000       0.00000
      53.6000       0.00000
      53.7000       0.00000
      53.8000       0.00000
      53.9000       0.00000
      54.0000       0.00000
      54.1000       0.00000
      54.2000       0.00000
      54.3000       0.00000
      54.4000       0.00000
      54.5000       0.00000
      54.6000       0.00000
      54.7000       0.00000
      54.8000       0.00000
      54.9000       0.00000
      55.0000       0.00000
      55.1000       0.00000
      55.2000       0.00000
      55.3000       0.00000
      55.4000       0.00000
      55.5000       0.00000
      55.6000       0.00000
      55.7000       0.00000
      55.8000       0.00000
      55.9000       0.00000
      56.0000       0.00000
      56.1000       0.00000
      56.2000       0.00000
      56.3000       0.00000
      56.4000       0.00000
      56.5000       0.00000
      56.6000       0.00000
      56.7000       0.00000
      56.8000       0.00000
      56.9000       0.00000
      57.0000       0.00000
      57.1000       0.00000
      57.2000       0.00000
      57.3000       0.00000
      57.4000       0.00000
      57.5000       0.00000
      57.6000       0.00000
      57.7000       0.00000
      57.8000       0.00000
      57.9000       0.00000
      58.0000       0.00000
      58.1000       0.00000
      58.2000       0.00000
      58.3000       0.00000
      58.4000       0.00000
      58.5000       0.00000
      58.6000       0.00000
      58.7000       0.00000
      58.8000       0.00000
      58.9000       0.00000
      59.0000       0.00000
      59.1000       0.00000
      59.2000       0.00000
      59.3000       0.00000
      59.4000       0.00000
      59.5000       0.00000
      59.6000       0.00000
      59.7000       0.00000
      59.8000       0.00000
      59.9000       0.00000
      60.0000       0.00000
      60.1000       0.00000
      60.2000       0.00000
      60.3000       0.00000
      60.4000       0.00000
      60.5000       0.00000
      60.6000       0.00000
      60.7000       0.00000
      60.8000       0.00000
      60.9000       0.00000
      61.0000       0.00000
      61.1000       0.00000
      61.2000       0.00000
      61.3000       0.00000
      61.4000       0.00000
      61.5000       0.00000
      61.6000       0.00000
      61.7000       0.00000
      61.8000       0.00000
      61.9000       0.00000
      62.0000       0.00000
      62.1000       0.00000
      62.2000       0.00000
      62.3000       0.00000
      62.4000       0.00000
      62.5000       0.00000
      62.6000       0.00000
      62.7000       0.00000
      62.8000       0.00000
      62.9000       0.00000
      63.0000       0.00000
      63.1000       0.00000
      63.2000       0.00000
      63.3000       0.00000
      63.4000       0.00000
      63.5000       0.00000
      63.6000       0.00000
      63.7000       0.00000
      63.8000       0.00000
      63.9000       0.00000
      64.0000       0.00000
      64.1000       0.00000
      64.2000       0.00000
      64.3000       0.00000
      64.4000       0.00000
      64.5000       0.00000
      64.6000       0.00000
      64.7000       0.00000
      64.8000       0.00000
      64.9000       0.00000
      65.0000       0.00000
      65.1000       0.00000
      65.2000       0.00000
      65.3000       0.00000
      65.4000       0.00000
      65.5000       0.00000
      65.6000       0.00000
      65.7000       0.00000
      65.8000       0.00000
      65.9000       0.00000
      66.0000       0.00000
      66.1000       0.00000
      66.2000       0.00000
      66.3000       0.00000
      66.4000       0.00000
      66.5000       0.00000
      66.6000       0.00000
      66.7000       0.00000
      66.8000       0.00000
      66.9000       0.00000
      67.0000       0.00000
      67.1000       0.00000
      67.2000       0.00000
      67.3000       0.00000
      67.4000       0.00000
      67.5000       0.00000
      67.6000       0.00000
      67.7000       0.00000
      67.8000       0.00000
      67.9000       0.00000
      68.0000       0.00000
      68.1000       0.00000
      68.2000       0.00000
      68.3000       0.00000
      68.4000       0.00000
      68.5000       0.00000
      68.6000       0.00000
      68.7000       0.00000
      68.8000       0.00000
      68.9000       0.00000
      69.0000       0.00000
      69.1000       0.00000
      69.2000       0.00000
      69.3000       0.00000
      69.4000       0.00000
      69.5000       0.00000
      69.6000       0.00000
      69.7000       0.00000
      69.8000       0.00000
      69.9000       0.00000
      70.0000       0.00000
      70.1000       0.00000
      70.2000       0.00000
      70.3000       0.00000
      70.4000       0.00000
      70.5000       0.00000
      70.6000       0.00000
      70.7000       0.00000
      70.8000       0.00000
      70.9000       0.00000
      71.0000       0.00000
      71.1000       0.00000
      71.2000       0.00000
      71.3000       0.00000
      71.4000       0.00000
      71.5000       0.00000
      71.6000       0.00000
      71.7000       0.00000
      71.8000       0.00000
      71.9000       0.00000
      72.0000       0.00000
      72.1000       0.00000
      72.2000       0.00000
      72.3000       0.00000
      72.4000       0.00000
      72.5000       0.00000
      72.6000       0.00000
      72.7000       0.00000
      72.8000       0.00000
      72.9000       0.00000
      73.0000       0.00000
      73.1000       0.00000
      73.2000       0.00000
      73.3000       0.00000
      73.4000       0.00000
      73.5000       0.00000
      73.6000       0.00000
      73.7000       0.00000
      73.8000       0.00000
      73.9000       0.00000
      74.0000       0.00000
      74.1000       0.00000
      74.2000       0.00000
      74.3000       0.00000
      74.4000       0.00000
      74.5000       0.00000
      74.6000       0.00000
      74.7000       0.00000
      74.8000       0.00000
      74.9000       0.00000
      75.0000       0.00000
      75.1000       0.00000
      75.2000       0.00000
      75.3000       0.00000
      75.4000       0.00000
      75.5000       0.00000
      75.6000       0.00000
      75.7000       0.00000
      75.8000       0.00000
      75.9000       0.00000
      76.0000       0.00000
      76.1000       0.00000
      76.2000       0.00000
      76.3000       0.00000
      76.4000       0.00000
      76.5000       0.00000
      76.6000       0.00000
      76.7000       0.00000
      76.8000       0.00000
      76.9000       0.00000
      77.0000       0.00000
      77.1000       0.00000
      77.2000       0.00000
      77.3000       0.00000
      77.4000       0.00000
      77.5000       0.00000
      77.6000       0.00000
      77.7000       0.00000
      77.8000       0.00000
      77.9000       0.00000
      78.0000       0.00000
      78.1000       0.00000
      78.2000       0.00000
      78.3000       0.00000
      78.4000       0.00000
      78.5000       0.00000
      78.6000       0.00000
      78.7000       0.00000
      78.8000       0.00000
      78.9000       0.00000
      79.0000       0.00000
      79.1000       0.00000
      79.2000       0.00000
      79.3000       0.00000
      79.4000       0.00000
      79.5000       0.00000
      79.6000       0.00000
      79.7000       0.00000
      79.8000       0.00000
      79.9000       0.00000
      80.0000       0.00000
      80.1000       0.00000
      80.2000       0.00000
      80.3000       0.00000
      80.4000       0.00000
      80.5000       0.00000
      80.6000       0.00000
      80.7000       0.00000
      80.8000       0.00000
      80.9000       0.00000
      81.0000       0.00000
      81.1000       0.00000
      81.2000       0.00000
      81.3000       0.00000
      81.4000       0.00000
      81.5000       0.00000
      81.6000       0.00000
      81.7000       0.00000
      81.8000       0.00000
      81.9000       0.00000
      82.0000       0.00000
      82.1000       0.00000
      82.2000       0.00000
      82.3000       0.00000
      82.4000       0.00000
      82.5000       0.00000
      82.6000       0.00000
      82.7000       0.00000
      82.8000       0.00000
      82.9000       0.00000
      83.0000       0.00000
      83.1000       0.00000
      83.2000       0.00000
      83.3000       0.00000
      83.4000       0.00000
      83.5000       0.00000
      83.6000       0.00000
      83.7000       0.00000
      83.8000       0.00000
      83.9000       0.00000
      84.0000       0.00000
      84.1000       0.00000
      84.2000       0.00000
      84.3000       0.00000
      84.4000       0.00000
      84.5000       0.00000
      84.6000       0.00000
      84.7000       0.00000
      84.8000       0.00000
      84.9000       0.00000
      85.0000       0.00000
      85.1000       0.00000
      85.2000       0.00000
      85.3000       0.00000
      85.4000       0.00000
      85.5000       0.00000
      85.6000       0.00000
      85.7000       0.00000
      85.8000       0.00000
      85.9000       0.00000
      86.0000       0.00000
      86.1000       0.00000
      86.2000       0.00000
      86.3000       0.00000
      86.4000       0.00000
      86.5000       0.00000
      86.6000       0.00000
      86.7000       0.00000
      86.8000       0.00000
      86.9000       0.00000
      87.0000       0.00000
      87.1000       0.00000
      87.2000       0.00000
      87.3000       0.00000
      87.4000       0.00000
      87.5000       0.00000
      87.6000       0.00000
      87.7000       0.00000
      87.8000       0.00000
      87.9000       0.00000
      88.0000       0.00000
      88.1000       0.00000
      88.2000       0.00000
      88.3000       0.00000
      88.4000       0.00000
      88.5000       0.00000
      88.6000       0.00000
      88.7000       0.00000
      88.8000       0.00000
      88.9000       0.00000
      89.0000       0.00000
      89.1000       0.00000
      89.2000       0.00000
      89.3000       0.00000
      89.4000       0.00000
      89.5000       0.00000
      89.6000       0.00000
      89.7000       0.00000
      89.8000       0.00000
      89.9000       0.00000
      90.0000       0.00000
      90.1000       0.00000
      90.2000       0.00000
      90.3000       0.00000
      90.4000       0.00000
      90.5000       0.00000
      90.6000       0.00000
      90.7000       0.00000
      90.8000       0.00000
      90.9000       0.00000
      91.0000       0.00000
      91.1000       0.00000
      91.2000       0.00000
      91.3000       0.00000
      91.4000       0.00000
      91.5000       0.00000
      91.6000       0.00000
      91.7000       0.00000
      91.8000       0.00000
      91.9000       0.00000
      92.0000       0.00000
      92.1000       0.00000
      92.2000       0.00000
      92.3000       0.00000
      92.4000       0.00000
      92.5000       0.00000
      92.6000       0.00000
      92.7000       0.00000
      92.8000       0.00000
      92.9000       0.00000
      93.0000       0.00000
      93.1000       0.00000
      93.2000       0.00000
      93.3000       0.00000
      93.4000       0.00000
      93.5000       0.00000
      93.6000       0.00000
      93.7000       0.00000
      93.8000       0.00000
      93.9000       0.00000
      94.0000       0.00000
      94.1000       0.00000
      94.2000       0.00000
      94.3000       0.00000
      94.4000       0.00000
      94.5000       0.00000
      94.6000       0.00000
      94.7000       0.00000
      94.8000       0.00000
      94.9000       0.00000
      95.0000       0.00000
      95.1000       0.00000
      95.2000       0.00000
      95.3000       0.00000
      95.4000       0.00000
      95.5000       0.00000
      95.6000       0.00000
      95.7000       0.00000
      95.8000       0.00000
      95.9000       0.00000
      96.0000       0.00000
      96.1000       0.00000
      96.2000       0.00000
      96.3000       0.00000
      96.4000       0.00000
      96.5000       0.00000
      96.6000       0.00000
      96.7000       0.00000
      96.8000       0.00000
      96.9000       0.00000
      97.0000       0.00000
      97.1000       0.00000
      97.2000       0.00000
      97.3000       0.00000
      97.4000       0.00000
      97.5000       0.00000
      97.6000       0.00000
      97.7000       0.00000
      97.8000       0.00000
      97.9000       0.00000
      98.0000       0.00000
      98.1000       0.00000
      98.2000       0.00000
      98.3000       0.00000
      98.4000       0.00000
      98.5000       0.00000
      98.6000       0.00000
      98.7000       0.00000
      98.8000       0.00000
      98.9000       0.00000
      99.0000       0.00000
      99.1000       0.00000
      99.2000       0.00000
      99.3000       0.00000
      99.4000       0.00000
      99.5000       0.00000
      99.6000       0.00000
      99.7000       0.00000
      99.8000       0.00000
      99.9000       0.00000
      100.000       0.00000
      100.100       0.00000
      100.200       0.00000
      100.300       0.00000
      100.400       0.00000
      100.500       0.00000
      100.600       0.00000
      100.700       0.00000
      100.800       0.00000
      100.900       0.00000
      101.000       0.00000
      101.100       0.00000
      101.200       0.00000
      101.300       0.00000
      101.400       0.00000
      101.500       0.00000
      101.600       0.00000
      101.700       0.00000
      101.800       0.00000
      101.900       0.00000
      102.000       0.00000
      102.100       0.00000
      102.200       0.00000
      102.300       0.00000
      102.400       0.00000
      102.500       0.00000
      102.600       0.00000
      102.700       0.00000
      102.800       0.00000
      102.900       0.00000
      103.000       0.00000
      103.100       0.00000
      103.200       0.00000
      103.300       0.00000
      103.400       0.00000
      103.500       0.00000
      103.600       0.00000
      103.700       0.00000
      103.800       0.00000
      103.900       0.00000
      104.000       0.00000
      104.100       0.00000
      104.200       0.00000
      104.300       0.00000
      104.400       0.00000
      104.500       0.00000
      104.600       0.00000
      104.700       0.00000
      104.800       0.00000
      104.900       0.00000
      105.000       0.00000
      105.100       0.00000
      105.200       0.00000
      105.300       0.00000
      105.400       0.00000
      105.500       0.00000
      105.600       0.00000
      105.700       0.00000
      105.800       0.00000
      105.900       0.00000
      106.000       0.00000
      106.100       0.00000
      106.200       0.00000
      106.300       0.00000
      106.400       0.00000
      106.500       0.00000
      106.600       0.00000
      106.700       0.00000
      106.800       0.00000
      106.900       0.00000
      107.000       0.00000
      107.100       0.00000
      107.200       0.00000
      107.300       0.00000
      107.400       0.00000
      107.500       0.00000
      107.600       0.00000
      107.700       0.00000
      107.800       0.00000
      107.900       0.00000
      108.000       0.00000
      108.100       0.00000
      108.200       0.00000
      108.300       0.00000
      108.400       0.00000
      108.500       0.00000
      108.600       0.00000
      108.700       0.00000
      108.800       0.00000
      108.900       0.00000
      109.000       0.00000
      109.100       0.00000
      109.200       0.00000
      109.300       0.00000
      109.400       0.00000
      109.500       0.00000
      109.600       0.00000
      109.700       0.00000
      109.800       0.00000
      109.900       0.00000
      110.000       0.00000
      110.100       0.00000
      110.200       0.00000
      110.300       0.00000
      110.400       0.00000
      110.500       0.00000
      110.600       0.00000
      110.700       0.00000
      110.800       0.00000
      110.900       0.00000
      111.000       0.00000
      111.100       0.00000
      111.200       0.00000
      111.300       0.00000
      111.400       0.00000
      111.500       0.00000
      111.600       0.00000
      111.700       0.00000
      111.800       0.00000
      111.900       0.00000
      112.000       0.00000
      112.100       0.00000
      112.200       0.00000
      112.300       0.00000
      112.400       0.00000
      112.500       0.00000
      112.600       0.00000
      112.700       0.00000
      112.800       0.00000
      112.900       0.00000
      113.000       0.00000
      113.100       0.00000
      113.200       0.00000
      113.300       0.00000
      113.400       0.00000
      113.500       0.00000
      113.600       0.00000
      113.700       0.00000
      113.800       0.00000
      113.900       0.00000
      114.000       0.00000
      114.100       0.00000
      114.200       0.00000
      114.300       0.00000
      114.400       0.00000
      114.500       0.00000
      114.600       0.00000
      114.700       0.00000
      114.800       0.00000
      114.900       0.00000
      115.000       0.00000
      115.100       0.00000
      115.200       0.00000
      115.300       0.00000
      115.400       0.00000
      115.500       0.00000
      115.600       0.00000
      115.700       0.00000
      115.800       0.00000
      115.900       0.00000
      116.000       0.00000
      116.100       0.00000
      116.200       0.00000
      116.300       0.00000
      116.400       0.00000
      116.500       0.00000
      116.600       0.00000
      116.700       0.00000
      116.800       0.00000
      116.900       0.00000
      117.000       0.00000
      117.100       0.00000
      117.200       0.00000
      117.300       0.00000
      117.400       0.00000
      117.500       0.00000
      117.600       0.00000
      117.700       0.00000
      117.800       0.00000
      117.900       0.00000
      118.000       0.00000
      118.100       0.00000
      118.200       0.00000
      118.300       0.00000
      118.400       0.00000
      118.500       0.00000
      118.600       0.00000
      118.700       0.00000
      118.800       0.00000
      118.900       0.00000
      119.000       0.00000
      119.100       0.00000
      119.200       0.00000
      119.300       0.00000
      119.400       0.00000
      119.500       0.00000
      119.600       0.00000
      119.700       0.00000
      119.800       0.00000
      119.900       0.00000
      120.000       0.00000
      120.100       0.00000
      120.200       0.00000
      120.300       0.00000
      120.400       0.00000
      120.500       0.00000
      120.600       0.00000
      120.700       0.00000
      120.800       0.00000
      120.900       0.00000
      121.000       0.00000
      121.100       0.00000
      121.200       0.00000
      121.300       0.00000
      121.400       0.00000
      121.500       0.00000
      121.600       0.00000
      121.700       0.00000
      121.800       0.00000
      121.900       0.00000
      122.000       0.00000
      122.100       0.00000
      122.200       0.00000
      122.300       0.00000
      122.400       0.00000
      122.500       0.00000
      122.600       0.00000
      122.700       0.00000
      122.800       0.00000
      122.900       0.00000
      123.000       0.00000
      123.100       0.00000
      123.200       0.00000
      123.300       0.00000
      123.400       0.00000
      123.500       0.00000
      123.600       0.00000
      123.700       0.00000
      123.800       0.00000
      123.900       0.00000
      124.000       0.00000
      124.100       0.00000
      124.200       0.00000
      124.300       0.00000
      124.400       0.00000
      124.500       0.00000
      124.600       0.00000
      124.700       0.00000
      124.800       0.00000
      124.900       0.00000
      125.000       0.00000
      125.100       0.00000
      125.200       0.00000
      125.300       0.00000
      125.400       0.00000
      125.500       0.00000
      125.600       0.00000
      125.700       0.00000
      125.800       0.00000
      125.900       0.00000
      126.000       0.00000
      126.100       0.00000
      126.200       0.00000
      126.300       0.00000
      126.400       0.00000
      126.500       0.00000
      126.600       0.00000
      126.700       0.00000
      126.800       0.00000
      126.900       0.00000
      127.000       0.00000
      127.100       0.00000
      127.200       0.00000
      127.300       0.00000
      127.400       0.00000
      127.500       0.00000
      127.600       0.00000
      127.700       0.00000
      127.800       0.00000
      127.900       0.00000
      128.000       0.00000
      128.100       0.00000
      128.200       0.00000
      128.300       0.00000
      128.400       0.00000
      128.500       0.00000
      128.600       0.00000
      128.700       0.00000
      128.800       0.00000
      128.900       0.00000
      129.000       0.00000
      129.100       0.00000
      129.200       0.00000
      129.300       0.00000
      129.400       0.00000
      129.500       0.00000
      129.600       0.00000
      129.700       0.00000
      129.800       0.00000
      129.900       0.00000
      130.000       0.00000
      130.100       0.00000
      130.200       0.00000
      130.300       0.00000
      130.400       0.00000
      130.500       0.00000
      130.600       0.00000
      130.700       0.00000
      130.800       0.00000
      130.900       0.00000
      131.000       0.00000
      131.100       0.00000
      131.200       0.00000
      131.300       0.00000
      131.400       0.00000
      131.500       0.00000
      131.600       0.00000
      131.700       0.00000
      131.800       0.00000
      131.900       0.00000
      132.000       0.00000
      132.100       0.00000
      132.200       0.00000
      132.300       0.00000
      132.400       0.00000
      132.500       0.00000
      132.600       0.00000
      132.700       0.00000
      132.800       0.00000
      132.900       0.00000
      133.000       0.00000
      133.100       0.00000
      133.200       0.00000
      133.300       0.00000
      133.400       0.00000
      133.500       0.00000
      133.600       0.00000
      133.700       0.00000
      133.800       0.00000
      133.900       0.00000
      134.000       0.00000
      134.100       0.00000
      134.200       0.00000
      134.300       0.00000
      134.400       0.00000
      134.500       0.00000
      134.600       0.00000
      134.700       0.00000
      134.800       0.00000
      134.900       0.00000
      135.000       0.00000
      135.100       0.00000
      135.200       0.00000
      135.300       0.00000
      135.400       0.00000
      135.500       0.00000
      135.600       0.00000
      135.700       0.00000
      135.800       0.00000
      135.900       0.00000
      136.000       0.00000
      136.100       0.00000
      136.200       0.00000
      136.300       0.00000
      136.400       0.00000
      136.500       0.00000
      136.600       0.00000
      136.700       0.00000
      136.800       0.00000
      136.900       0.00000
      137.000       0.00000
      137.100       0.00000
      137.200       0.00000
      137.300       0.00000
      137.400       0.00000
      137.500       0.00000
      137.600       0.00000
      137.700       0.00000
      137.800       0.00000
      137.900       0.00000
      138.000       0.00000
      138.100       0.00000
      138.200       0.00000
      138.300       0.00000
      138.400       0.00000
      138.500       0.00000
      138.600       0.00000
      138.700       0.00000
      138.800       0.00000
      138.900       0.00000
      139.000       0.00000
      139.100       0.00000
      139.200       0.00000
      139.300       0.00000
      139.400       0.00000
      139.500       0.00000
      139.600       0.00000
      139.700       0.00000
      139.800       0.00000
      139.900       0.00000
      140.000       0.00000
      140.100       0.00000
      140.200       0.00000
      140.300       0.00000
      140.400       0.00000
      140.500       0.00000
      140.600       0.00000
      140.700       0.00000
      140.800       0.00000
      140.900       0.00000
      141.000       0.00000
      141.100       0.00000
      141.200       0.00000
      141.300       0.00000
      141.400       0.00000
      141.500       0.00000
      141.600       0.00000
      141.700       0.00000
      141.800       0.00000
      141.900       0.00000
      142.000       0.00000
      142.100       0.00000
      142.200       0.00000
      142.300       0.00000
      142.400       0.00000
      142.500       0.00000
      142.600       0.00000
      142.700       0.00000
      142.800       0.00000
      142.900       0.00000
      143.000       0.00000
      143.100       0.00000
      143.200       0.00000
      143.300       0.00000
      143.400       0.00000
      143.500       0.00000
      143.600       0.00000
      143.700       0.00000
      143.800       0.00000
      143.900       0.00000
      144.000       0.00000
      144.100       0.00000
      144.200       0.00000
      144.300       0.00000
      144.400       0.00000
      144.500       0.00000
      144.600       0.00000
      144.700       0.00000
      144.800       0.00000
      144.900       0.00000
      145.000       0.00000
      145.100       0.00000
      145.200       0.00000
      145.300       0.00000
      145.400       0.00000
      145.500       0.00000
      145.600       0.00000
      145.700       0.00000
      145.800       0.00000
      145.900       0.00000
      146.000       0.00000
      146.100       0.00000
      146.200       0.00000
      146.300       0.00000
      146.400       0.00000
      146.500       0.00000
      146.600       0.00000
      146.700       0.00000
      146.800       0.00000
      146.900       0.00000
      147.000       0.00000
      147.100       0.00000
      147.200       0.00000
      147.300       0.00000
      147.400       0.00000
      147.500       0.00000
      147.600       0.00000
      147.700       0.00000
      147.800       0.00000
      147.900       0.00000
      148.000       0.00000
      148.100       0.00000
      148.200       0.00000
      148.300       0.00000
      148.400       0.00000
      148.500       0.00000
      148.600       0.00000
      148.700       0.00000
      148.800       0.00000
      148.900       0.00000
      149.000       0.00000
      149.100       0.00000
      149.200       0.00000
      149.300       0.00000
      149.400       0.00000
      149.500       0.00000
      149.600       0.00000
      149.700       0.00000
      149.800       0.00000
      149.900       0.00000
      150.000       0.00000
      150.100       0.00000
      150.200       0.00000
      150.300       0.00000
      150.400       0.00000
      150.500       0.00000
      150.600       0.00000
      150.700       0.00000
      150.800       0.00000
      150.900       0.00000
      151.000       0.00000
      151.100       0.00000
      151.200       0.00000
      151.300       0.00000
      151.400       0.00000
      151.500       0.00000
      151.600       0.00000
      151.700       0.00000
      151.800       0.00000
      151.900       0.00000
      152.000       0.00000
      152.100       0.00000
      152.200       0.00000
      152.300       0.00000
      152.400       0.00000
      152.500       0.00000
      152.600       0.00000
      152.700       0.00000
      152.800       0.00000
      152.900       0.00000
      153.000       0.00000
      153.100       0.00000
      153.200       0.00000
      153.300       0.00000
      153.400       0.00000
      153.500       0.00000
      153.600       0.00000
      153.700       0.00000
      153.800       0.00000
      153.900       0.00000
      154.000       0.00000
      154.100       0.00000
      154.200       0.00000
      154.300       0.00000
      154.400       0.00000
      154.500       0.00000
      154.600       0.00000
      154.700       0.00000
      154.800       0.00000
      154.900       0.00000
      155.000       0.00000
      155.100       0.00000
      155.200       0.00000
      155.300       0.00000
      155.400       0.00000
      155.500       0.00000
      155.600       0.00000
      155.700       0.00000
      155.800       0.00000
      155.900       0.00000
      156.000       0.00000
      156.100       0.00000
      156.200       0.00000
      156.300       0.00000
      156.400       0.00000
      156.500       0.00000
      156.600       0.00000
      156.700       0.00000
      156.800       0.00000
      156.900       0.00000
      157.000       0.00000
      157.100       0.00000
      157.200       0.00000
      157.300       0.00000
      157.400       0.00000
      157.500       0.00000
      157.600       0.00000
      157.700       0.00000
      157.800       0.00000
      157.900       0.00000
      158.000       0.00000
      158.100       0.00000
      158.200       0.00000
      158.300       0.00000
      158.400       0.00000
      158.500       0.00000
      158.600       0.00000
      158.700       0.00000
      158.800       0.00000
      158.900       0.00000
      159.000       0.00000
      159.100       0.00000
      159.200       0.00000
      159.300       0.00000
      159.400       0.00000
      159.500       0.00000
      159.600       0.00000
      159.700       0.00000
      159.800       0.00000
      159.900       0.00000
      160.000       0.00000
      160.100       0.00000
      160.200       0.00000
      160.300       0.00000
      160.400       0.00000
      160.500       0.00000
      160.600       0.00000
      160.700       0.00000
      160.800       0.00000
      160.900       0.00000
      161.000       0.00000
      161.100       0.00000
      161.200       0.00000
      161.300       0.00000
      161.400       0.00000
      161.500       0.00000
      161.600       0.00000
      161.700       0.00000
      161.800       0.00000
      161.900       0.00000
      162.000       0.00000
      162.100       0.00000
      162.200       0.00000
      162.300       0.00000
      162.400       0.00000
      162.500       0.00000
      162.600       0.00000
      162.700       0.00000
      162.800       0.00000
      162.900       0.00000
      163.000       0.00000
      163.100       0.00000
      163.200       0.00000
      163.300       0.00000
      163.400       0.00000
      163.500       0.00000
      163.600       0.00000
      163.700       0.00000
      163.800       0.00000
      163.900       0.00000
      164.000       0.00000
      164.100       0.00000
      164.200       0.00000
      164.300       0.00000
      164.400       0.00000
      164.500       0.00000
      164.600       0.00000
      164.700       0.00000
      164.800       0.00000
      164.900       0.00000
      165.000       0.00000
      165.100       0.00000
      165.200       0.00000
      165.300       0.00000
      165.400       0.00000
      165.500       0.00000
      165.600       0.00000
      165.700       0.00000
      165.800       0.00000
      165.900       0.00000
      166.000       0.00000
      166.100       0.00000
      166.200       0.00000
      166.300       0.00000
      166.400       0.00000
      166.500       0.00000
      166.600       0.00000
      166.700       0.00000
      166.800       0.00000
      166.900       0.00000
      167.000       0.00000
      167.100       0.00000
      167.200       0.00000
      167.300       0.00000
      167.400       0.00000
      167.500       0.00000
      167.600       0.00000
      167.700       0.00000
      167.800       0.00000
      167.900       0.00000
      168.000       0.00000
      168.100       0.00000
      168.200       0.00000
      168.300       0.00000
      168.400       0.00000
      168.500       0.00000
      168.600       0.00000
      168.700       0.00000
      168.800       0.00000
      168.900       0.00000
      169.000       0.00000
      169.100       0.00000
      169.200       0.00000
      169.300       0.00000
      169.400       0.00000
      169.500       0.00000
      169.600       0.00000
      169.700       0.00000
      169.800       0.00000
      169.900       0.00000
      170.000       0.00000
      170.100       0.00000
      170.200       0.00000
      170.300       0.00000
      170.400       0.00000
      170.500   2.78002e-31
      170.600   1.28387e-19
      170.700   1.35736e-12
      170.800   1.15091e-10
      170.900   1.88190e-10
      171.000   1.89859e-10
      171.100   1.91529e-10
      171.200   1.93198e-10
      171.300   1.94868e-10
      171.400   1.96536e-10
      171.500   1.98202e-10
      171.600   1.99869e-10
      171.700   2.01538e-10
      171.800   2.03209e-10
      171.900   2.04883e-10
      172.000   2.06563e-10
      172.100   2.08253e-10
      172.200   2.09951e-10
      172.300   2.11652e-10
      172.400   2.13325e-10
      172.500   2.15002e-10
      172.600   2.16692e-10
      172.700   2.18395e-10
      172.800   2.20109e-10
      172.900   2.21840e-10
      173.000   2.23582e-10
      173.100   2.25338e-10
      173.200   2.27109e-10
      173.300   2.28894e-10
      173.400   2.30697e-10
      173.500   2.32513e-10
      173.600   2.34344e-10
      173.700   2.36190e-10
      173.800   2.38054e-10
      173.900   2.39929e-10
      174.000   2.41819e-10
      174.100   2.43727e-10
      174.200   2.45647e-10
      174.300   2.47578e-10
      174.400   2.49525e-10
      174.500   2.51484e-10
      174.600   2.53458e-10
      174.700   2.55444e-10
      174.800   2.57440e-10
      174.900   2.59449e-10
      175.000   2.61470e-10
      175.100   2.63499e-10
      175.200   2.65552e-10
      175.300   2.67611e-10
      175.400   2.69685e-10
      175.500   2.71768e-10
      175.600   2.73860e-10
      175.700   2.75964e-10
      175.800   2.78082e-10
      175.900   2.80209e-10
      176.000   2.82344e-10
      176.100   2.84492e-10
      176.200   2.86651e-10
      176.300   2.88823e-10
      176.400   2.91004e-10
      176.500   2.93196e-10
      176.600   2.95401e-10
      176.700   2.97616e-10
      176.800   2.99841e-10
      176.900   3.02076e-10
      177.000   3.04325e-10
      177.100   3.06584e-10
      177.200   3.08852e-10
      177.300   3.11130e-10
      177.400   3.13421e-10
      177.500   3.15721e-10
      177.600   3.18029e-10
      177.700   3.20347e-10
      177.800   3.22674e-10
      177.900   3.25011e-10
      178.000   3.27380e-10
      178.100   3.29757e-10
      178.200   3.32145e-10
      178.300   3.34545e-10
      178.400   3.36951e-10
      178.500   3.39366e-10
      178.600   3.41792e-10
      178.700   3.44231e-10
      178.800   3.46676e-10
      178.900   3.49128e-10
      179.000   3.51590e-10
      179.100   3.54063e-10
      179.200   3.56550e-10
      179.300   3.59043e-10
      179.400   3.61547e-10
      179.500   3.64064e-10
      179.600   3.66598e-10
      179.700   3.69138e-10
      179.800   3.71690e-10
      179.900   3.74256e-10
      180.000   3.76841e-10
      180.100   3.79434e-10
      180.200   3.82044e-10
      180.300   3.84667e-10
      180.400   3.87311e-10
      180.500   3.89969e-10
      180.600   3.92641e-10
      180.700   3.95329e-10
      180.800   3.98068e-10
      180.900   4.00883e-10
      181.000   4.03743e-10
      181.100   4.06617e-10
      181.200   4.09514e-10
      181.300   4.12435e-10
      181.400   4.15370e-10
      181.500   4.18323e-10
      181.600   4.21299e-10
      181.700   4.24296e-10
      181.800   4.27309e-10
      181.900   4.30342e-10
      182.000   4.33397e-10
      182.100   4.36466e-10
      182.200   4.39563e-10
      182.300   4.42673e-10
      182.400   4.45801e-10
      182.500   4.48948e-10
      182.600   4.52119e-10
      182.700   4.55303e-10
      182.800   4.58501e-10
      182.900   4.61721e-10
      183.000   4.64958e-10
      183.100   4.68211e-10
      183.200   4.71480e-10
      183.300   4.74768e-10
      183.400   4.78074e-10
      183.500   4.81395e-10
      183.600   4.84732e-10
      183.700   4.88223e-10
      183.800   4.92320e-10
      183.900   4.96804e-10
      184.000   5.01313e-10
      184.100   5.05863e-10
      184.200   5.10441e-10
      184.300   5.15059e-10
      184.400   5.19709e-10
      184.500   5.24389e-10
      184.600   5.29102e-10
      184.700   5.33854e-10
      184.800   5.38639e-10
      184.900   5.43456e-10
      185.000   5.48305e-10
      185.100   5.53193e-10
      185.200   5.58117e-10
      185.300   5.63070e-10
      185.400   5.68057e-10
      185.500   5.73075e-10
      185.600   5.78131e-10
      185.700   5.83227e-10
      185.800   5.88355e-10
      185.900   5.93510e-10
      186.000   5.98711e-10
      186.100   6.03936e-10
      186.200   6.09191e-10
      186.300   6.14478e-10
      186.400   6.19800e-10
      186.500   6.25156e-10
      186.600   6.30537e-10
      186.700   6.35943e-10
      186.800   6.41378e-10
      186.900   6.46848e-10
      187.000   6.52347e-10
      187.100   6.57866e-10
      187.200   6.63421e-10
      187.300   6.69010e-10
      187.400   6.74625e-10
      187.500   6.80266e-10
      187.600   6.85934e-10
      187.700   6.91631e-10
      187.800   6.97364e-10
      187.900   7.03127e-10
      188.000   7.08911e-10
      188.100   7.14725e-10
      188.200   7.20572e-10
      188.300   7.26453e-10
      188.400   7.32368e-10
      188.500   7.38311e-10
      188.600   7.44288e-10
      188.700   7.50308e-10
      188.800   7.56356e-10
      188.900   7.62436e-10
      189.000   7.68552e-10
      189.100   7.74713e-10
      189.200   7.80909e-10
      189.300   7.87138e-10
      189.400   7.93404e-10
      189.500   7.99713e-10
      189.600   8.06071e-10
      189.700   8.12459e-10
      189.800   8.18960e-10
      189.900   8.25513e-10
      190.000   8.32121e-10
      190.100   8.38766e-10
      190.200   8.45456e-10
      190.300   8.52189e-10
      190.400   8.58973e-10
      190.500   8.65802e-10
      190.600   8.72673e-10
      190.700   8.79590e-10
      190.800   8.86551e-10
      190.900   8.93560e-10
      191.000   9.00629e-10
      191.100   9.07736e-10
      191.200   9.14892e-10
      191.300   9.22093e-10
      191.400   9.29345e-10
      191.500   9.36646e-10
      191.600   9.43987e-10
      191.700   9.51374e-10
      191.800   9.58817e-10
      191.900   9.66300e-10
      192.000   9.73824e-10
      192.100   9.81398e-10
      192.200   9.89029e-10
      192.300   9.96703e-10
      192.400   1.00444e-09
      192.500   1.01221e-09
      192.600   1.02003e-09
      192.700   1.02790e-09
      192.800   1.03542e-09
      192.900   1.04197e-09
      193.000   1.04845e-09
      193.100   1.05497e-09
      193.200   1.06153e-09
      193.300   1.06812e-09
      193.400   1.07473e-09
      193.500   1.08138e-09
      193.600   1.08807e-09
      193.700   1.09480e-09
      193.800   1.10155e-09
      193.900   1.10834e-09
      194.000   1.11516e-09
      194.100   1.12203e-09
      194.200   1.12893e-09
      194.300   1.13586e-09
      194.400   1.14283e-09
      194.500   1.14984e-09
      194.600   1.15688e-09
      194.700   1.16395e-09
      194.800   1.17105e-09
      194.900   1.17819e-09
      195.000   1.18536e-09
      195.100   1.19258e-09
      195.200   1.19982e-09
      195.300   1.20708e-09
      195.400   1.21438e-09
      195.500   1.22172e-09
      195.600   1.22908e-09
      195.700   1.23646e-09
      195.800   1.24379e-09
      195.900   1.25055e-09
      196.000   1.23686e-09
      196.100   1.22306e-09
      196.200   1.20940e-09
      196.300   1.19588e-09
      196.400   1.18250e-09
      196.500   1.16925e-09
      196.600   1.15615e-09
      196.700   1.14317e-09
      196.800   1.13033e-09
      196.900   1.11764e-09
      197.000   1.10506e-09
      197.100   1.09262e-09
      197.200   1.08030e-09
      197.300   1.06811e-09
      197.400   1.05603e-09
      197.500   1.04408e-09
      197.600   1.03225e-09
      197.700   1.02055e-09
      197.800   1.00897e-09
      197.900   9.97512e-10
      198.000   9.86168e-10
      198.100   9.74942e-10
      198.200   9.63829e-10
      198.300   9.52832e-10
      198.400   9.41951e-10
      198.500   9.31194e-10
      198.600   9.20554e-10
      198.700   9.10026e-10
      198.800   8.99610e-10
      198.900   8.89309e-10
      199.000   8.79113e-10
      199.100   8.69027e-10
      199.200   8.59056e-10
      199.300   8.49204e-10
      199.400   8.39464e-10
      199.500   8.29832e-10
      199.600   8.20301e-10
      199.700   8.10878e-10
      199.800   8.01561e-10
      199.900   7.92346e-10
      200.000   7.83232e-10
      200.100   7.74272e-10
      200.200   7.65372e-10
      200.300   7.56580e-10
      200.400   7.47883e-10
      200.500   7.39285e-10
      200.600   7.30787e-10
      200.700   7.22385e-10
      200.800   7.14074e-10
      200.900   7.05865e-10
      201.000   6.97749e-10
      201.100   6.89729e-10
      201.200   6.81801e-10
      201.300   6.73961e-10
      201.400   6.66216e-10
      201.500   6.58554e-10
      201.600   6.50982e-10
      201.700   6.43497e-10
      201.800   6.36098e-10
      201.900   6.28782e-10
      202.000   6.21559e-10
      202.100   6.14416e-10
      202.200   6.07357e-10
      202.300   6.00429e-10
      202.400   5.93674e-10
      202.500   5.87023e-10
      202.600   5.80442e-10
      202.700   5.73943e-10
      202.800   5.67519e-10
      202.900   5.61168e-10
      203.000   5.54891e-10
      203.100   5.48690e-10
      203.200   5.42557e-10
      203.300   5.36495e-10
      203.400   5.30502e-10
      203.500   5.24578e-10
      203.600   5.18724e-10
      203.700   5.12939e-10
      203.800   5.07222e-10
      203.900   5.01577e-10
      204.000   4.95996e-10
      204.100   4.90481e-10
      204.200   4.85032e-10
      204.300   4.79646e-10
      204.400   4.74324e-10
      204.500   4.69065e-10
      204.600   4.63866e-10
      204.700   4.58728e-10
      204.800   4.53656e-10
      204.900   4.48643e-10
      205.000   4.43689e-10
      205.100   4.38793e-10
      205.200   4.33953e-10
      205.300   4.29171e-10
      205.400   4.24444e-10
      205.500   4.19772e-10
      205.600   4.14831e-10
      205.700   4.09654e-10
      205.800   4.04500e-10
      205.900   3.99416e-10
      206.000   3.94399e-10
      206.100   3.89445e-10
      206.200   3.84552e-10
      206.300   3.79723e-10
      206.400   3.74956e-10
      206.500   3.70245e-10
      206.600   3.65594e-10
      206.700   3.61003e-10
      206.800   3.56465e-10
      206.900   3.51983e-10
      207.000   3.47559e-10
      207.100   3.43189e-10
      207.200   3.38875e-10
      207.300   3.34611e-10
      207.400   3.30399e-10
      207.500   3.26237e-10
      207.600   3.22126e-10
      207.700   3.18063e-10
      207.800   3.14049e-10
      207.900   3.10082e-10
      208.000   3.06163e-10
      208.100   3.02291e-10
      208.200   2.98464e-10
      208.300   2.94684e-10
      208.400   2.90950e-10
      208.500   2.87261e-10
      208.600   2.83614e-10
      208.700   2.80010e-10
      208.800   2.76450e-10
      208.900   2.72563e-10
      209.000   2.68063e-10
      209.100   2.63476e-10
      209.200   2.58963e-10
      209.300   2.54523e-10
      209.400   2.50157e-10
      209.500   2.45862e-10
      209.600   2.41638e-10
      209.700   2.37484e-10
      209.800   2.33402e-10
      209.900   2.29385e-10
      210.000   2.25436e-10
      210.100   2.21552e-10
      210.200   2.17732e-10
      210.300   2.13975e-10
      210.400   2.10281e-10
      210.500   2.06648e-10
      210.600   2.03076e-10
      210.700   1.99563e-10
      210.800   1.96109e-10
      210.900   1.92712e-10
      211.000   1.89372e-10
      211.100   1.86090e-10
      211.200   1.82860e-10
      211.300   1.79688e-10
      211.400   1.76571e-10
      211.500   1.73505e-10
      211.600   1.70491e-10
      211.700   1.67528e-10
      211.800   1.64614e-10
      211.900   1.61749e-10
      212.000   1.58934e-10
      212.100   1.56165e-10
      212.200   1.53443e-10
      212.300   1.50768e-10
      212.400   1.48137e-10
      212.500   1.45551e-10
      212.600   1.43010e-10
      212.700   1.40511e-10
      212.800   1.38055e-10
      212.900   1.35641e-10
      213.000   1.33268e-10
      213.100   1.30937e-10
      213.200   1.28646e-10
      213.300   1.26394e-10
      213.400   1.24180e-10
      213.500   1.22005e-10
      213.600   1.19866e-10
      213.700   1.17765e-10
      213.800   1.15699e-10
      213.900   1.13670e-10
      214.000   1.11675e-10
      214.100   1.09714e-10
      214.200   1.07789e-10
      214.300   1.05895e-10
      214.400   1.04035e-10
      214.500   1.02207e-10
      214.600   1.00412e-10
      214.700   9.86476e-11
      214.800   9.69141e-11
      214.900   9.52114e-11
      215.000   9.35378e-11
      215.100   9.18943e-11
      215.200   9.02798e-11
      215.300   8.86949e-11
      215.400   8.71372e-11
      215.500   8.56072e-11
      215.600   8.41053e-11
      215.700   8.26288e-11
      215.800   8.11785e-11
      215.900   7.97546e-11
      216.000   7.83555e-11
      216.100   7.69812e-11
      216.200   7.56315e-11
      216.300   7.43058e-11
      216.400   7.30039e-11
      216.500   7.17248e-11
      216.600   7.04687e-11
      216.700   6.92352e-11
      216.800   6.80234e-11
      216.900   6.68332e-11
      217.000   6.56642e-11
      217.100   6.45157e-11
      217.200   6.33880e-11
      217.300   6.22801e-11
      217.400   6.11916e-11
      217.500   6.01230e-11
      217.600   5.90730e-11
      217.700   5.80410e-11
      217.800   5.70277e-11
      217.900   5.60327e-11
      218.000   5.50552e-11
      218.100   5.40947e-11
      218.200   5.31512e-11
      218.300   5.22244e-11
      218.400   5.13140e-11
      218.500   5.04189e-11
      218.600   4.95398e-11
      218.700   4.86758e-11
      218.800   4.78268e-11
      218.900   4.69929e-11
      219.000   4.61731e-11
      219.100   4.53674e-11
      219.200   4.45758e-11
      219.300   4.37977e-11
      219.400   4.30328e-11
      219.500   4.22812e-11
      219.600   4.15425e-11
      219.700   4.08166e-11
      219.800   4.01033e-11
      219.900   3.94020e-11
      220.000   3.87127e-11
      220.100   3.80352e-11
      220.200   3.73693e-11
      220.300   3.67148e-11
      220.400   3.60716e-11
      220.500   3.54395e-11
      220.600   3.48182e-11
      220.700   3.42073e-11
      220.800   3.36068e-11
      220.900   3.30169e-11
      221.000   3.24368e-11
      221.100   3.18665e-11
      221.200   3.13063e-11
      221.300   3.07556e-11
      221.400   3.02143e-11
      221.500   2.96823e-11
      221.600   2.91594e-11
      221.700   2.86453e-11
      221.800   2.81399e-11
      221.900   2.76434e-11
      222.000   2.71555e-11
      222.100   2.66757e-11
      222.200   2.62044e-11
      222.300   2.57410e-11
      222.400   2.52857e-11
      222.500   2.48380e-11
      222.600   2.43982e-11
      222.700   2.39659e-11
      222.800   2.35409e-11
      222.900   2.31233e-11
      223.000   2.27128e-11
      223.100   2.23093e-11
      223.200   2.19129e-11
      223.300   2.15232e-11
      223.400   2.11404e-11
      223.500   2.07639e-11
      223.600   2.03942e-11
      223.700   2.00307e-11
      223.800   1.96735e-11
      223.900   1.93227e-11
      224.000   1.89777e-11
      224.100   1.86387e-11
      224.200   1.83055e-11
      224.300   1.79782e-11
      224.400   1.76565e-11
      224.500   1.73404e-11
      224.600   1.70296e-11
      224.700   1.67244e-11
      224.800   1.64244e-11
      224.900   1.61296e-11
      225.000   1.58399e-11
      225.100   1.55552e-11
      225.200   1.52754e-11
      225.300   1.50007e-11
      225.400   1.47306e-11
      225.500   1.44652e-11
      225.600   1.42043e-11
      225.700   1.39482e-11
      225.800   1.36964e-11
      225.900   1.34490e-11
      226.000   1.32060e-11
      226.100   1.29672e-11
      226.200   1.27327e-11
      226.300   1.25031e-11
      226.400   1.22780e-11
      226.500   1.20566e-11
      226.600   1.18388e-11
      226.700   1.16248e-11
      226.800   1.14143e-11
      226.900   1.12075e-11
      227.000   1.10043e-11
      227.100   1.08047e-11
      227.200   1.06086e-11
      227.300   1.04160e-11
      227.400   1.02269e-11
      227.500   1.00411e-11
      227.600   9.85864e-12
      227.700   9.67943e-12
      227.800   9.50344e-12
      227.900   9.33062e-12
      228.000   9.16091e-12
      228.100   8.99423e-12
      228.200   8.83053e-12
      228.300   8.66979e-12
      228.400   8.51202e-12
      228.500   8.35703e-12
      228.600   8.20488e-12
      228.700   8.05549e-12
      228.800   7.90878e-12
      228.900   7.76481e-12
      229.000   7.62342e-12
      229.100   7.48462e-12
      229.200   7.34833e-12
      229.300   7.21455e-12
      229.400   7.08321e-12
      229.500   6.95429e-12
      229.600   6.82769e-12
      229.700   6.70344e-12
      229.800   6.58144e-12
      229.900   6.46169e-12
      230.000   6.34296e-12
      230.100   6.21818e-12
      230.200   6.09557e-12
      230.300   5.97546e-12
      230.400   5.85769e-12
      230.500   5.74225e-12
      230.600   5.62914e-12
      230.700   5.51824e-12
      230.800   5.40955e-12
      230.900   5.30302e-12
      231.000   5.19858e-12
      231.100   5.09620e-12
      231.200   4.99584e-12
      231.300   4.89748e-12
      231.400   4.80110e-12
      231.500   4.70656e-12
      231.600   4.61387e-12
      231.700   4.52304e-12
      231.800   4.43400e-12
      231.900   4.34671e-12
      232.000   4.26113e-12
      232.100   4.17723e-12
      232.200   4.09499e-12
      232.300   4.01437e-12
      232.400   3.93532e-12
      232.500   3.85781e-12
      232.600   3.78184e-12
      232.700   3.70735e-12
      232.800   3.63433e-12
      232.900   3.56273e-12
      233.000   3.49253e-12
      233.100   3.42373e-12
      233.200   3.35624e-12
      233.300   3.29010e-12
      233.400   3.22526e-12
      233.500   3.16169e-12
      233.600   3.09939e-12
      233.700   3.03827e-12
      233.800   2.97098e-12
      233.900   2.90420e-12
      234.000   2.83886e-12
      234.100   2.77499e-12
      234.200   2.71255e-12
      234.300   2.65148e-12
      234.400   2.59177e-12
      234.500   2.53338e-12
      234.600   2.47628e-12
      234.700   2.42045e-12
      234.800   2.36588e-12
      234.900   2.31249e-12
      235.000   2.26029e-12
      235.100   2.20925e-12
      235.200   2.15934e-12
      235.300   2.11055e-12
      235.400   2.06283e-12
      235.500   2.01617e-12
      235.600   1.97056e-12
      235.700   1.92596e-12
      235.800   1.88239e-12
      235.900   1.83978e-12
      236.000   1.79813e-12
      236.100   1.75739e-12
      236.200   1.71756e-12
      236.300   1.67861e-12
      236.400   1.64054e-12
      236.500   1.60331e-12
      236.600   1.56690e-12
      236.700   1.53130e-12
      236.800   1.49649e-12
      236.900   1.46245e-12
      237.000   1.42917e-12
      237.100   1.39662e-12
      237.200   1.36481e-12
      237.300   1.33370e-12
      237.400   1.30327e-12
      237.500   1.27352e-12
      237.600   1.24443e-12
      237.700   1.21601e-12
      237.800   1.18823e-12
      237.900   1.16106e-12
      238.000   1.13450e-12
      238.100   1.10852e-12
      238.200   1.08312e-12
      238.300   1.05829e-12
      238.400   1.03400e-12
      238.500   1.01026e-12
      238.600   9.87041e-13
      238.700   9.64348e-13
      238.800   9.42155e-13
      238.900   9.20457e-13
      239.000   8.99237e-13
      239.100   8.78493e-13
      239.200   8.58217e-13
      239.300   8.38401e-13
      239.400   8.19044e-13
      239.500   8.00118e-13
      239.600   7.81609e-13
      239.700   7.63525e-13
      239.800   7.45838e-13
      239.900   7.28546e-13
      240.000   7.11642e-13
      240.100   6.95112e-13
      240.200   6.78953e-13
      240.300   6.63157e-13
      240.400   6.47710e-13
      240.500   6.32619e-13
      240.600   6.17867e-13
      240.700   6.03444e-13
      240.800   5.89355e-13
      240.900   5.75593e-13
      241.000   5.62145e-13
      241.100   5.48998e-13
      241.200   5.36150e-13
      241.300   5.23589e-13
      241.400   5.11315e-13
      241.500   4.99319e-13
      241.600   4.87595e-13
      241.700   4.76137e-13
      241.800   4.64937e-13
      241.900   4.53992e-13
      242.000   4.43297e-13
      242.100   4.32849e-13
      242.200   4.22649e-13
      242.300   4.12690e-13
      242.400   4.02956e-13
      242.500   3.93446e-13
      242.600   3.84153e-13
      242.700   3.75073e-13
      242.800   3.66203e-13
      242.900   3.57537e-13
      243.000   3.49070e-13
      243.100   3.40799e-13
      243.200   3.32716e-13
      243.300   3.24820e-13
      243.400   3.17111e-13
      243.500   3.09584e-13
      243.600   3.02242e-13
      243.700   2.95066e-13
      243.800   2.88056e-13
      243.900   2.81213e-13
      244.000   2.74526e-13
      244.100   2.67995e-13
      244.200   2.61616e-13
      244.300   2.55385e-13
      244.400   2.49300e-13
      244.500   2.43357e-13
      244.600   2.37552e-13
      244.700   2.31888e-13
      244.800   2.26363e-13
      244.900   2.20968e-13
      245.000   2.15697e-13
      245.100   2.10550e-13
      245.200   2.05526e-13
      245.300   2.00619e-13
      245.400   1.95825e-13
      245.500   1.91146e-13
      245.600   1.86576e-13
      245.700   1.82113e-13
      245.800   1.77753e-13
      245.900   1.73505e-13
      246.000   1.69360e-13
      246.100   1.65311e-13
      246.200   1.61357e-13
      246.300   1.57496e-13
      246.400   1.53727e-13
      246.500   1.50046e-13
      246.600   1.46451e-13
      246.700   1.42942e-13
      246.800   1.39514e-13
      246.900   1.36168e-13
      247.000   1.32906e-13
      247.100   1.29723e-13
      247.200   1.26615e-13
      247.300   1.23581e-13
      247.400   1.20618e-13
      247.500   1.17725e-13
      247.600   1.14900e-13
      247.700   1.12142e-13
      247.800   1.09448e-13
      247.900   1.06819e-13
      248.000   1.04251e-13
      248.100   1.01752e-13
      248.200   9.93110e-14
      248.300   9.69272e-14
      248.400   9.45999e-14
      248.500   9.23270e-14
      248.600   9.01080e-14
      248.700   8.79418e-14
      248.800   8.58266e-14
      248.900   8.37615e-14
      249.000   8.17454e-14
      249.100   7.97809e-14
      249.200   7.78644e-14
      249.300   7.59923e-14
      249.400   7.41645e-14
      249.500   7.23802e-14
      249.600   7.06377e-14
      249.700   6.89365e-14
      249.800   6.72756e-14
      249.900   6.56538e-14
      250.000   6.40707e-14
      250.100   6.25277e-14
      250.200   6.10218e-14
      250.300   5.95529e-14
      250.400   5.81183e-14
      250.500   5.67181e-14
      250.600   5.53512e-14
      250.700   5.40166e-14
      250.800   5.27138e-14
      250.900   5.14419e-14
      251.000   5.02003e-14
      251.100   4.89882e-14
      251.200   4.78060e-14
      251.300   4.66532e-14
      251.400   4.55279e-14
      251.500   4.44289e-14
      251.600   4.33561e-14
      251.700   4.23095e-14
      251.800   4.12874e-14
      251.900   4.02896e-14
      252.000   3.93153e-14
      252.100   3.83648e-14
      252.200   3.74364e-14
      252.300   3.65313e-14
      252.400   3.56478e-14
      252.500   3.47860e-14
      252.600   3.39444e-14
      252.700   3.31229e-14
      252.800   3.23210e-14
      252.900   3.15382e-14
      253.000   3.07739e-14
      253.100   3.00280e-14
      253.200   2.92998e-14
      253.300   2.85953e-14
      253.400   2.79101e-14
      253.500   2.72416e-14
      253.600   2.65894e-14
      253.700   2.59524e-14
      253.800   2.53306e-14
      253.900   2.47234e-14
      254.000   2.41303e-14
      254.100   2.35511e-14
      254.200   2.29855e-14
      254.300   2.24333e-14
      254.400   2.18940e-14
      254.500   2.13673e-14
      254.600   2.08531e-14
      254.700   2.03510e-14
      254.800   1.98614e-14
      254.900   1.93832e-14
      255.000   1.89164e-14
      255.100   1.84603e-14
      255.200   1.80149e-14
      255.300   1.75802e-14
      255.400   1.71556e-14
      255.500   1.67410e-14
      255.600   1.63362e-14
      255.700   1.59409e-14
      255.800   1.55550e-14
      255.900   1.51780e-14
      256.000   1.48099e-14
      256.100   1.44508e-14
      256.200   1.41003e-14
      256.300   1.37581e-14
      256.400   1.34241e-14
      256.500   1.30978e-14
      256.600   1.27793e-14
      256.700   1.24684e-14
      256.800   1.21647e-14
      256.900   1.18682e-14
      257.000   1.15788e-14
      257.100   1.12962e-14
      257.200   1.10204e-14
      257.300   1.07510e-14
      257.400   1.05226e-14
      257.500   1.03113e-14
      257.600   1.01049e-14
      257.700   9.90259e-15
      257.800   9.70416e-15
      257.900   9.50964e-15
      258.000   9.31887e-15
      258.100   9.13180e-15
      258.200   8.94841e-15
      258.300   8.76864e-15
      258.400   8.59226e-15
      258.500   8.41931e-15
      258.600   8.24982e-15
      258.700   8.08360e-15
      258.800   7.92061e-15
      258.900   7.76092e-15
      259.000   7.60423e-15
      259.100   7.45067e-15
      259.200   7.30013e-15
      259.300   7.15270e-15
      259.400   7.00815e-15
      259.500   6.86638e-15
      259.600   6.72745e-15
      259.700   6.59127e-15
      259.800   6.45773e-15
      259.900   6.32677e-15
      260.000   6.19848e-15
      260.100   6.07272e-15
      260.200   5.94943e-15
      260.300   5.82858e-15
      260.400   5.71014e-15
      260.500   5.59407e-15
      260.600   5.48027e-15
      260.700   5.36872e-15
      260.800   5.25947e-15
      260.900   5.15231e-15
      261.000   5.04736e-15
      261.100   4.94454e-15
      261.200   4.84377e-15
      261.300   4.74498e-15
      261.400   4.64822e-15
      261.500   4.56267e-15
      261.600   4.50879e-15
      261.700   4.46076e-15
      261.800   4.41327e-15
      261.900   4.36623e-15
      262.000   4.31969e-15
      262.100   4.27363e-15
      262.200   4.22809e-15
      262.300   4.18299e-15
      262.400   4.13837e-15
      262.500   4.09423e-15
      262.600   4.05054e-15
      262.700   4.00732e-15
      262.800   3.96455e-15
      262.900   3.92219e-15
      263.000   3.88037e-15
      263.100   3.83894e-15
      263.200   3.79796e-15
      263.300   3.75743e-15
      263.400   3.71731e-15
      263.500   3.67762e-15
      263.600   3.63839e-15
      263.700   3.59954e-15
      263.800   3.56110e-15
      263.900   3.52311e-15
      264.000   3.48552e-15
      264.100   3.44831e-15
      264.200   3.41150e-15
      264.300   3.37512e-15
      264.400   3.33911e-15
      264.500   3.30349e-15
      264.600   3.26824e-15
      264.700   3.23338e-15
      264.800   3.19890e-15
      264.900   3.16481e-15
      265.000   3.13108e-15
      265.100   3.09770e-15
      265.200   3.06469e-15
      265.300   3.03204e-15
      265.400   2.99976e-15
      265.500   2.96782e-15
      265.600   2.93623e-15
      265.700   2.90498e-15
      265.800   2.87412e-15
      265.900   2.84359e-15
      266.000   2.81341e-15
      266.100   2.78357e-15
      266.200   2.75404e-15
      266.300   2.72483e-15
      266.400   2.69595e-15
      266.500   2.66738e-15
      266.600   2.63914e-15
      266.700   2.61118e-15
      266.800   2.58357e-15
      266.900   2.55624e-15
      267.000   2.52922e-15
      267.100   2.50250e-15
      267.200   2.47609e-15
      267.300   2.44995e-15
      267.400   2.42410e-15
      267.500   2.39853e-15
      267.600   2.37325e-15
      267.700   2.34825e-15
      267.800   2.32352e-15
      267.900   2.29907e-15
      268.000   2.27490e-15
      268.100   2.25100e-15
      268.200   2.22736e-15
      268.300   2.20398e-15
      268.400   2.18085e-15
      268.500   2.15799e-15
      268.600   2.13537e-15
      268.700   2.11302e-15
      268.800   2.09090e-15
      268.900   2.06903e-15
      269.000   2.04741e-15
      269.100   2.02602e-15
      269.200   2.00488e-15
      269.300   1.98396e-15
      269.400   1.96327e-15
      269.500   1.94281e-15
      269.600   1.92259e-15
      269.700   1.90257e-15
      269.800   1.88280e-15
      269.900   1.86322e-15
      270.000   1.84388e-15
      270.100   1.82476e-15
      270.200   1.80587e-15
      270.300   1.78718e-15
      270.400   1.76869e-15
      270.500   1.75041e-15
      270.600   1.73232e-15
      270.700   1.71444e-15
      270.800   1.69675e-15
      270.900   1.67925e-15
      271.000   1.66193e-15
      271.100   1.64481e-15
      271.200   1.62786e-15
      271.300   1.61111e-15
      271.400   1.59453e-15
      271.500   1.57815e-15
      271.600   1.56192e-15
      271.700   1.54587e-15
      271.800   1.53000e-15
      271.900   1.51429e-15
      272.000   1.49876e-15
      272.100   1.48338e-15
      272.200   1.46817e-15
      272.300   1.45312e-15
      272.400   1.43822e-15
      272.500   1.42349e-15
      272.600   1.40891e-15
      272.700   1.39448e-15
      272.800   1.38020e-15
      272.900   1.36607e-15
      273.000   1.35210e-15
      273.100   1.33827e-15
      273.200   1.32458e-15
      273.300   1.31103e-15
      273.400   1.29762e-15
      273.500   1.28435e-15
      273.600   1.27122e-15
      273.700   1.25822e-15
      273.800   1.24535e-15
      273.900   1.23263e-15
      274.000   1.22003e-15
      274.100   1.20756e-15
      274.200   1.19521e-15
      274.300   1.18299e-15
      274.400   1.17076e-15
      274.500   1.15835e-15
      274.600   1.14600e-15
      274.700   1.13379e-15
      274.800   1.12171e-15
      274.900   1.10974e-15
      275.000   1.09791e-15
      275.100   1.08620e-15
      275.200   1.07460e-15
      275.300   1.06313e-15
      275.400   1.05178e-15
      275.500   1.04055e-15
      275.600   1.02943e-15
      275.700   1.01843e-15
      275.800   1.00755e-15
      275.900   9.96774e-16
      276.000   9.86114e-16
      276.100   9.75560e-16
      276.200   9.65112e-16
      276.300   9.54774e-16
      276.400   9.44544e-16
      276.500   9.34420e-16
      276.600   9.24401e-16
      276.700   9.14481e-16
      276.800   9.04667e-16
      276.900   8.94949e-16
      277.000   8.85334e-16
      277.100   8.75814e-16
      277.200   8.66396e-16
      277.300   8.57074e-16
      277.400   8.47848e-16
      277.500   8.38710e-16
      277.600   8.29674e-16
      277.700   8.20726e-16
      277.800   8.11865e-16
      277.900   8.03101e-16
      278.000   7.94431e-16
      278.100   7.85846e-16
      278.200   7.77348e-16
      278.300   7.68937e-16
      278.400   7.60616e-16
      278.500   7.52372e-16
      278.600   7.44216e-16
      278.700   7.36147e-16
      278.800   7.28161e-16
      278.900   7.20229e-16
      279.000   7.12374e-16
      279.100   7.04601e-16
      279.200   6.96904e-16
      279.300   6.89292e-16
      279.400   6.81752e-16
      279.500   6.74293e-16
      279.600   6.66912e-16
      279.700   6.59610e-16
      279.800   6.52382e-16
      279.900   6.45226e-16
      280.000   6.38146e-16
      280.100   6.31137e-16
      280.200   6.24204e-16
      280.300   6.17340e-16
      280.400   6.10549e-16
      280.500   6.03834e-16
      280.600   5.97184e-16
      280.700   5.90603e-16
      280.800   5.84092e-16
      280.900   5.77647e-16
      281.000   5.71271e-16
      281.100   5.64960e-16
      281.200   5.58715e-16
      281.300   5.52538e-16
      281.400   5.46428e-16
      281.500   5.40377e-16
      281.600   5.34388e-16
      281.700   5.28465e-16
      281.800   5.22606e-16
      281.900   5.16808e-16
      282.000   5.11071e-16
      282.100   5.05393e-16
      282.200   4.99780e-16
      282.300   4.94222e-16
      282.400   4.88725e-16
      282.500   4.83284e-16
      282.600   4.77902e-16
      282.700   4.72576e-16
      282.800   4.67308e-16
      282.900   4.62100e-16
      283.000   4.56944e-16
      283.100   4.51844e-16
      283.200   4.46801e-16
      283.300   4.41810e-16
      283.400   4.36874e-16
      283.500   4.31994e-16
      283.600   4.27163e-16
      283.700   4.22383e-16
      283.800   4.17657e-16
      283.900   4.12983e-16
      284.000   4.08358e-16
      284.100   4.03781e-16
      284.200   3.99255e-16
      284.300   3.94781e-16
      284.400   3.90353e-16
      284.500   3.85976e-16
      284.600   3.81646e-16
      284.700   3.77364e-16
      284.800   3.73129e-16
      284.900   3.68939e-16
      285.000   3.64794e-16
      285.100   3.60695e-16
      285.200   3.56644e-16
      285.300   3.52636e-16
      285.400   3.48671e-16
      285.500   3.44750e-16
      285.600   3.40877e-16
      285.700   3.37043e-16
      285.800   3.33254e-16
      285.900   3.29505e-16
      286.000   3.25799e-16
      286.100   3.22137e-16
      286.200   3.18513e-16
      286.300   3.14933e-16
      286.400   3.11392e-16
      286.500   3.07890e-16
      286.600   3.04426e-16
      286.700   3.01002e-16
      286.800   2.97617e-16
      286.900   2.94271e-16
      287.000   2.90961e-16
      287.100   2.87688e-16
      287.200   2.84455e-16
      287.300   2.81256e-16
      287.400   2.78094e-16
      287.500   2.74968e-16
      287.600   2.71879e-16
      287.700   2.68823e-16
      287.800   2.65804e-16
      287.900   2.62818e-16
      288.000   2.59867e-16
      288.100   2.56949e-16
      288.200   2.54066e-16
      288.300   2.51216e-16
      288.400   2.48399e-16
      288.500   2.45615e-16
      288.600   2.42860e-16
      288.700   2.40139e-16
      288.800   2.37448e-16
      288.900   2.34790e-16
      289.000   2.32161e-16
      289.100   2.29562e-16
      289.200   2.26993e-16
      289.300   2.24455e-16
      289.400   2.21945e-16
      289.500   2.19464e-16
      289.600   2.17011e-16
      289.700   2.14589e-16
      289.800   2.12192e-16
      289.900   2.09822e-16
      290.000   2.07483e-16
      290.100   2.05167e-16
      290.200   2.02882e-16
      290.300   2.00622e-16
      290.400   1.98388e-16
      290.500   1.96181e-16
      290.600   1.93998e-16
      290.700   1.91840e-16
      290.800   1.89709e-16
      290.900   1.87602e-16
      291.000   1.85517e-16
      291.100   1.83457e-16
      291.200   1.81422e-16
      291.300   1.79409e-16
      291.400   1.77421e-16
      291.500   1.75454e-16
      291.600   1.73510e-16
      291.700   1.71589e-16
      291.800   1.69690e-16
      291.900   1.67813e-16
      292.000   1.65960e-16
      292.100   1.64127e-16
      292.200   1.62315e-16
      292.300   1.60523e-16
      292.400   1.58752e-16
      292.500   1.57000e-16
      292.600   1.55269e-16
      292.700   1.53558e-16
      292.800   1.51866e-16
      292.900   1.50194e-16
      293.000   1.48541e-16
      293.100   1.46907e-16
      293.200   1.45291e-16
      293.300   1.43692e-16
      293.400   1.42114e-16
      293.500   1.40553e-16
      293.600   1.39011e-16
      293.700   1.37485e-16
      293.800   1.35977e-16
      293.900   1.34486e-16
      294.000   1.33012e-16
      294.100   1.31554e-16
      294.200   1.30114e-16
      294.300   1.28689e-16
      294.400   1.27280e-16
      294.500   1.25887e-16
      294.600   1.24509e-16
      294.700   1.23148e-16
      294.800   1.21801e-16
      294.900   1.20469e-16
      295.000   1.19154e-16
      295.100   1.17853e-16
      295.200   1.16566e-16
      295.300   1.15293e-16
      295.400   1.14035e-16
      295.500   1.12792e-16
      295.600   1.11561e-16
      295.700   1.10344e-16
      295.800   1.09141e-16
      295.900   1.07950e-16
      296.000   1.06774e-16
      296.100   1.05609e-16
      296.200   1.04458e-16
      296.300   1.03320e-16
      296.400   1.02196e-16
      296.500   1.01082e-16
      296.600   9.99817e-17
      296.700   9.88931e-17
      296.800   9.78166e-17
      296.900   9.67516e-17
      297.000   9.56982e-17
      297.100   9.46560e-17
      297.200   9.36255e-17
      297.300   9.26062e-17
      297.400   9.15980e-17
      297.500   9.06002e-17
      297.600   8.96142e-17
      297.700   8.86386e-17
      297.800   8.76738e-17
      297.900   8.67198e-17
      298.000   8.57761e-17
      298.100   8.48422e-17
      298.200   8.39184e-17
      298.300   8.30049e-17
      298.400   8.21007e-17
      298.500   8.12062e-17
      298.600   8.03214e-17
      298.700   7.94460e-17
      298.800   7.85797e-17
      298.900   7.77234e-17
      299.000   7.68769e-17
      299.100   7.60391e-17
      299.200   7.52097e-17
      299.300   7.43895e-17
      299.400   7.35780e-17
      299.500   7.27752e-17
      299.600   7.19807e-17
      299.700   7.11947e-17
      299.800   7.04168e-17
      299.900   6.96476e-17
      300.000   6.88865e-17
      300.100   6.81333e-17
      300.192   6.74478e-17
      300.285   6.67609e-17
      300.377   6.60887e-17
      300.470   6.54162e-17
      300.562   6.47570e-17
      300.654   6.41041e-17
      300.747   6.34507e-17
      300.839   6.28109e-17
      300.932   6.21698e-17
      301.025   6.15354e-17
      301.117   6.09142e-17
      301.210   6.02916e-17
      301.303   5.96760e-17
      301.395   5.90730e-17
      301.488   5.84685e-17
      301.581   5.78706e-17
      301.674   5.72784e-17
      301.766   5.66979e-17
      301.859   5.61171e-17
      301.952   5.55422e-17
      302.045   5.49727e-17
      302.138   5.44466e-17
      302.231   5.40103e-17
      302.324   5.35810e-17
      302.417   5.31553e-17
      302.510   5.27320e-17
      302.603   5.23126e-17
      302.696   5.18957e-17
      302.789   5.14817e-17
      302.882   5.10709e-17
      302.976   5.06592e-17
      303.069   5.02545e-17
      303.162   4.98527e-17
      303.255   4.94537e-17
      303.349   4.90536e-17
      303.442   4.86603e-17
      303.535   4.82702e-17
      303.629   4.78787e-17
      303.722   4.74944e-17
      303.816   4.71089e-17
      303.909   4.67299e-17
      304.003   4.63498e-17
      304.096   4.59765e-17
      304.190   4.56020e-17
      304.283   4.52340e-17
      304.377   4.48651e-17
      304.471   4.44986e-17
      304.564   4.41387e-17
      304.658   4.37781e-17
      304.752   4.34196e-17
      304.846   4.30640e-17
      304.939   4.27148e-17
      305.033   4.23643e-17
      305.127   4.20164e-17
      305.221   4.16712e-17
      305.315   4.13288e-17
      305.409   4.09885e-17
      305.503   4.06510e-17
      305.597   4.03162e-17
      305.691   3.99835e-17
      305.785   3.96536e-17
      305.879   3.93258e-17
      305.973   3.90007e-17
      306.067   3.86779e-17
      306.161   3.83578e-17
      306.255   3.80399e-17
      306.350   3.77212e-17
      306.444   3.74080e-17
      306.538   3.70974e-17
      306.633   3.67860e-17
      306.727   3.64800e-17
      306.821   3.61764e-17
      306.916   3.58719e-17
      307.010   3.55771e-17
      307.105   3.52947e-17
      307.199   3.50193e-17
      307.294   3.47430e-17
      307.388   3.44716e-17
      307.483   3.41994e-17
      307.577   3.39319e-17
      307.672   3.36634e-17
      307.767   3.33970e-17
      307.861   3.31352e-17
      307.956   3.28723e-17
      308.051   3.26115e-17
      308.146   3.23528e-17
      308.240   3.20984e-17
      308.335   3.18431e-17
      308.430   3.15896e-17
      308.525   3.13382e-17
      308.620   3.10887e-17
      308.715   3.08409e-17
      308.810   3.05950e-17
      308.905   3.03509e-17
      309.000   3.01084e-17
      309.095   2.98679e-17
      309.190   2.96293e-17
      309.285   2.93923e-17
      309.380   2.91572e-17
      309.476   2.89215e-17
      309.571   2.86898e-17
      309.666   2.84598e-17
      309.761   2.82317e-17
      309.857   2.80030e-17
      309.952   2.77781e-17
      310.047   2.75552e-17
      310.143   2.73316e-17
      310.238   2.71120e-17
      310.334   2.68918e-17
      310.429   2.66755e-17
      310.525   2.64586e-17
      310.620   2.62458e-17
      310.716   2.60323e-17
      310.811   2.58228e-17
      310.907   2.56127e-17
      311.003   2.54042e-17
      311.098   2.51994e-17
      311.194   2.49941e-17
      311.290   2.47906e-17
      311.386   2.45887e-17
      311.481   2.43904e-17
      311.577   2.41915e-17
      311.673   2.39943e-17
      311.769   2.37987e-17
      311.865   2.36045e-17
      311.961   2.34127e-17
      312.057   2.32253e-17
      312.153   2.30404e-17
      312.249   2.28568e-17
      312.345   2.26749e-17
      312.441   2.24942e-17
      312.537   2.23151e-17
      312.633   2.21374e-17
      312.730   2.19592e-17
      312.826   2.17843e-17
      312.922   2.16107e-17
      313.018   2.14386e-17
      313.115   2.12662e-17
      313.211   2.10967e-17
      313.307   2.09287e-17
      313.404   2.07604e-17
      313.500   2.05951e-17
      313.597   2.04296e-17
      313.693   2.02670e-17
      313.790   2.01040e-17
      313.886   1.99441e-17
      313.983   1.97837e-17
      314.079   1.96264e-17
      314.176   1.94687e-17
      314.273   1.93123e-17
      314.369   1.91589e-17
      314.466   1.90052e-17
      314.563   1.88526e-17
      314.660   1.87014e-17
      314.756   1.85529e-17
      314.853   1.84040e-17
      314.950   1.82565e-17
      315.047   1.81103e-17
      315.144   1.79652e-17
      315.241   1.78213e-17
      315.338   1.76787e-17
      315.435   1.75372e-17
      315.532   1.73969e-17
      315.629   1.72577e-17
      315.726   1.71198e-17
      315.823   1.69830e-17
      315.921   1.68460e-17
      316.018   1.67115e-17
      316.115   1.65782e-17
      316.212   1.64459e-17
      316.310   1.63134e-17
      316.407   1.61834e-17
      316.504   1.60544e-17
      316.602   1.59253e-17
      316.699   1.57986e-17
      316.796   1.56729e-17
      316.894   1.55470e-17
      316.991   1.54238e-17
      317.089   1.53024e-17
      317.187   1.51829e-17
      317.284   1.50657e-17
      317.382   1.49483e-17
      317.479   1.48329e-17
      317.577   1.47174e-17
      317.675   1.46028e-17
      317.773   1.44892e-17
      317.870   1.43777e-17
      317.968   1.42660e-17
      318.066   1.41551e-17
      318.164   1.40452e-17
      318.262   1.39362e-17
      318.360   1.38282e-17
      318.458   1.37211e-17
      318.556   1.36149e-17
      318.654   1.35096e-17
      318.752   1.34050e-17
      318.850   1.33015e-17
      318.948   1.31987e-17
      319.046   1.30968e-17
      319.144   1.29957e-17
      319.242   1.28955e-17
      319.341   1.27952e-17
      319.439   1.26966e-17
      319.537   1.25990e-17
      319.635   1.25021e-17
      319.734   1.24050e-17
      319.832   1.23097e-17
      319.930   1.22152e-17
      320.029   1.21205e-17
      320.127   1.20276e-17
      320.226   1.19345e-17
      320.324   1.18430e-17
      320.423   1.17514e-17
      320.522   1.16607e-17
      320.620   1.15715e-17
      320.719   1.14822e-17
      320.818   1.13936e-17
      320.916   1.13067e-17
      321.015   1.12196e-17
      321.114   1.11331e-17
      321.213   1.10474e-17
      321.311   1.09633e-17
      321.410   1.08791e-17
      321.509   1.07954e-17
      321.608   1.07125e-17
      321.707   1.06303e-17
      321.806   1.05488e-17
      321.905   1.04679e-17
      322.004   1.03877e-17
      322.103   1.03081e-17
      322.202   1.02291e-17
      322.301   1.01509e-17
      322.401   1.00725e-17
      322.500   9.99551e-18
      322.599   9.91915e-18
      322.698   9.84336e-18
      322.798   9.76745e-18
      322.897   9.69292e-18
      322.996   9.61900e-18
      323.096   9.54488e-18
      323.195   9.47213e-18
      323.294   9.39993e-18
      323.394   9.32761e-18
      323.493   9.25658e-18
      323.593   9.18548e-18
      323.692   9.11558e-18
      323.792   9.04554e-18
      323.892   8.97606e-18
      323.991   8.90778e-18
      324.091   8.83946e-18
      324.191   8.77165e-18
      324.291   8.70433e-18
      324.390   8.63827e-18
      324.490   8.57204e-18
      324.590   8.50632e-18
      324.690   8.44113e-18
      324.790   8.37645e-18
      324.890   8.31230e-18
      324.990   8.24865e-18
      325.090   8.18548e-18
      325.190   8.12278e-18
      325.290   8.06062e-18
      325.390   7.99888e-18
      325.490   7.93768e-18
      325.590   7.87696e-18
      325.690   7.81661e-18
      325.790   7.75678e-18
      325.891   7.69684e-18
      325.991   7.63794e-18
      326.091   7.57947e-18
      326.192   7.52089e-18
      326.292   7.46334e-18
      326.392   7.40624e-18
      326.493   7.34901e-18
      326.593   7.29274e-18
      326.694   7.23640e-18
      326.794   7.18099e-18
      326.895   7.12546e-18
      326.995   7.07090e-18
      327.096   7.01621e-18
      327.197   6.96193e-18
      327.297   6.90860e-18
      327.398   6.85515e-18
      327.499   6.80210e-18
      327.599   6.74996e-18
      327.700   6.69768e-18
      327.801   6.64578e-18
      327.902   6.59432e-18
      328.003   6.54321e-18
      328.104   6.49249e-18
      328.205   6.44217e-18
      328.306   6.39220e-18
      328.407   6.34261e-18
      328.508   6.29335e-18
      328.609   6.24446e-18
      328.710   6.19593e-18
      328.811   6.14778e-18
      328.912   6.09999e-18
      329.013   6.05253e-18
      329.115   6.00500e-18
      329.216   5.95826e-18
      329.317   5.91181e-18
      329.419   5.86533e-18
      329.520   5.81959e-18
      329.621   5.77414e-18
      329.723   5.72863e-18
      329.824   5.68392e-18
      329.926   5.63907e-18
      330.027   5.59498e-18
      330.129   5.55077e-18
      330.230   5.50735e-18
      330.332   5.46378e-18
      330.434   5.42053e-18
      330.535   5.37803e-18
      330.637   5.33541e-18
      330.739   5.29309e-18
      330.840   5.25149e-18
      330.942   5.20979e-18
      331.044   5.16841e-18
      331.146   5.12730e-18
      331.248   5.08650e-18
      331.350   5.04602e-18
      331.452   5.00586e-18
      331.554   4.96717e-18
      331.656   4.93058e-18
      331.758   4.89425e-18
      331.860   4.85812e-18
      331.962   4.82226e-18
      332.064   4.78662e-18
      332.166   4.75126e-18
      332.268   4.71608e-18
      332.371   4.68083e-18
      332.473   4.64611e-18
      332.575   4.61160e-18
      332.677   4.57735e-18
      332.780   4.54300e-18
      332.882   4.50920e-18
      332.985   4.47529e-18
      333.087   4.44192e-18
      333.190   4.40847e-18
      333.292   4.37497e-18
      333.395   4.33983e-18
      333.497   4.30471e-18
      333.600   4.26952e-18
      333.702   4.23492e-18
      333.805   4.20023e-18
      333.908   4.16579e-18
      334.011   4.13162e-18
      334.113   4.09801e-18
      334.216   4.06432e-18
      334.319   4.03090e-18
      334.422   3.99769e-18
      334.525   3.96474e-18
      334.628   3.93203e-18
      334.731   3.89958e-18
      334.834   3.86737e-18
      334.937   3.83540e-18
      335.040   3.80364e-18
      335.143   3.77214e-18
      335.246   3.74086e-18
      335.349   3.70981e-18
      335.452   3.67900e-18
      335.555   3.64842e-18
      335.659   3.61779e-18
      335.762   3.58767e-18
      335.865   3.55780e-18
      335.969   3.52784e-18
      336.072   3.49837e-18
      336.175   3.46915e-18
      336.279   3.43988e-18
      336.382   3.41111e-18
      336.486   3.38226e-18
      336.589   3.35390e-18
      336.693   3.32552e-18
      336.796   3.29761e-18
      336.900   3.26966e-18
      337.004   3.24189e-18
      337.107   3.21463e-18
      337.211   3.18730e-18
      337.315   3.16023e-18
      337.419   3.13332e-18
      337.523   3.10660e-18
      337.626   3.08037e-18
      337.730   3.05413e-18
      337.834   3.02804e-18
      337.938   3.00219e-18
      338.042   2.97663e-18
      338.146   2.95161e-18
      338.250   2.92682e-18
      338.354   2.90224e-18
      338.458   2.87782e-18
      338.562   2.85360e-18
      338.667   2.82935e-18
      338.771   2.80550e-18
      338.875   2.78185e-18
      338.979   2.75838e-18
      339.084   2.73490e-18
      339.188   2.71179e-18
      339.292   2.68890e-18
      339.397   2.66593e-18
      339.501   2.64340e-18
      339.606   2.62081e-18
      339.710   2.59862e-18
      339.815   2.57641e-18
      339.919   2.55459e-18
      340.024   2.53272e-18
      340.128   2.51125e-18
      340.233   2.48973e-18
      340.338   2.46841e-18
      340.442   2.44745e-18
      340.547   2.42646e-18
      340.652   2.40565e-18
      340.757   2.38500e-18
      340.862   2.36453e-18
      340.966   2.34442e-18
      341.071   2.32426e-18
      341.176   2.30429e-18
      341.281   2.28449e-18
      341.386   2.26486e-18
      341.491   2.24537e-18
      341.596   2.22608e-18
      341.702   2.20675e-18
      341.807   2.18775e-18
      341.912   2.16893e-18
      342.017   2.15027e-18
      342.122   2.13175e-18
      342.228   2.11322e-18
      342.333   2.09502e-18
      342.438   2.07698e-18
      342.544   2.05893e-18
      342.649   2.04118e-18
      342.754   2.02362e-18
      342.860   2.00601e-18
      342.965   1.98872e-18
      343.071   1.97144e-18
      343.176   1.95445e-18
      343.282   1.93745e-18
      343.388   1.92061e-18
      343.493   1.90418e-18
      343.599   1.88874e-18
      343.705   1.87354e-18
      343.810   1.85858e-18
      343.916   1.84360e-18
      344.022   1.82877e-18
      344.128   1.81404e-18
      344.234   1.79943e-18
      344.340   1.78496e-18
      344.446   1.77058e-18
      344.552   1.75633e-18
      344.658   1.74222e-18
      344.764   1.72821e-18
      344.870   1.71431e-18
      344.976   1.70053e-18
      345.082   1.68686e-18
      345.188   1.67332e-18
      345.294   1.65988e-18
      345.401   1.64642e-18
      345.507   1.63321e-18
      345.613   1.62011e-18
      345.719   1.60711e-18
      345.826   1.59411e-18
      345.932   1.58133e-18
      346.039   1.56855e-18
      346.145   1.55598e-18
      346.252   1.54341e-18
      346.358   1.53106e-18
      346.465   1.51870e-18
      346.571   1.50655e-18
      346.678   1.49440e-18
      346.785   1.48235e-18
      346.891   1.47051e-18
      346.998   1.45867e-18
      347.105   1.44694e-18
      347.212   1.43529e-18
      347.319   1.42375e-18
      347.425   1.41240e-18
      347.532   1.40105e-18
      347.639   1.38981e-18
      347.746   1.37865e-18
      347.853   1.36759e-18
      347.960   1.35662e-18
      348.067   1.34576e-18
      348.174   1.33500e-18
      348.281   1.32430e-18
      348.389   1.31362e-18
      348.496   1.30311e-18
      348.603   1.29271e-18
      348.710   1.28239e-18
      348.818   1.27207e-18
      348.925   1.26192e-18
      349.032   1.25188e-18
      349.140   1.24179e-18
      349.247   1.23189e-18
      349.355   1.22199e-18
      349.462   1.21226e-18
      349.570   1.20251e-18
      349.677   1.19295e-18
      349.785   1.18337e-18
      349.892   1.17398e-18
      350.000   1.16458e-18
      350.100   1.15594e-18
      350.193   1.14798e-18
      350.287   1.13998e-18
      350.380   1.13213e-18
      350.473   1.12434e-18
      350.567   1.11652e-18
      350.660   1.10885e-18
      350.754   1.10115e-18
      350.847   1.09360e-18
      350.941   1.08601e-18
      351.034   1.07856e-18
      351.128   1.07110e-18
      351.221   1.06376e-18
      351.315   1.05641e-18
      351.409   1.04910e-18
      351.502   1.04193e-18
      351.596   1.03473e-18
      351.690   1.02759e-18
      351.783   1.02058e-18
      351.877   1.01356e-18
      351.971   1.00657e-18
      352.065   9.99644e-19
      352.159   9.92772e-19
      352.252   9.86017e-19
      352.346   9.79239e-19
      352.440   9.72513e-19
      352.534   9.65846e-19
      352.628   9.59225e-19
      352.722   9.52647e-19
      352.816   9.46120e-19
      352.910   9.39645e-19
      353.004   9.33218e-19
      353.098   9.26833e-19
      353.192   9.20498e-19
      353.287   9.14146e-19
      353.381   9.07905e-19
      353.475   9.01715e-19
      353.569   8.95560e-19
      353.663   8.89456e-19
      353.758   8.83341e-19
      353.852   8.77331e-19
      353.946   8.71364e-19
      354.041   8.65374e-19
      354.135   8.59493e-19
      354.229   8.53653e-19
      354.324   8.47802e-19
      354.418   8.42043e-19
      354.513   8.36271e-19
      354.607   8.30612e-19
      354.702   8.24903e-19
      354.796   8.19231e-19
      354.891   8.13528e-19
      354.985   8.07935e-19
      355.080   8.02317e-19
      355.175   7.96746e-19
      355.269   7.91267e-19
      355.364   7.85775e-19
      355.459   7.80323e-19
      355.553   7.74968e-19
      355.648   7.69596e-19
      355.743   7.64264e-19
      355.838   7.58965e-19
      355.933   7.53714e-19
      356.027   7.48554e-19
      356.122   7.43372e-19
      356.217   7.38229e-19
      356.312   7.33128e-19
      356.407   7.28060e-19
      356.502   7.23031e-19
      356.597   7.18031e-19
      356.692   7.13077e-19
      356.787   7.08155e-19
      356.882   7.03266e-19
      356.977   6.98416e-19
      357.073   6.93552e-19
      357.168   6.88765e-19
      357.263   6.84017e-19
      357.358   6.79304e-19
      357.453   6.74625e-19
      357.549   6.69931e-19
      357.644   6.65317e-19
      357.739   6.60738e-19
      357.835   6.56143e-19
      357.930   6.51628e-19
      358.025   6.47143e-19
      358.121   6.42644e-19
      358.216   6.38222e-19
      358.312   6.33785e-19
      358.407   6.29429e-19
      358.503   6.25055e-19
      358.598   6.20763e-19
      358.694   6.16451e-19
      358.790   6.12169e-19
      358.885   6.07959e-19
      358.981   6.03739e-19
      359.076   5.99589e-19
      359.172   5.95429e-19
      359.268   5.91291e-19
      359.364   5.87184e-19
      359.459   5.83154e-19
      359.555   5.79107e-19
      359.651   5.75084e-19
      359.747   5.71092e-19
      359.843   5.67127e-19
      359.939   5.63188e-19
      360.035   5.59279e-19
      360.131   5.55396e-19
      360.227   5.51538e-19
      360.323   5.47709e-19
      360.419   5.43907e-19
      360.515   5.40130e-19
      360.611   5.36379e-19
      360.707   5.32649e-19
      360.803   5.28950e-19
      360.899   5.25271e-19
      360.995   5.21625e-19
      361.092   5.17962e-19
      361.188   5.14360e-19
      361.284   5.10784e-19
      361.380   5.07233e-19
      361.477   5.03667e-19
      361.573   5.00163e-19
      361.669   4.96682e-19
      361.766   4.93185e-19
      361.862   4.89752e-19
      361.959   4.86307e-19
      362.055   4.82913e-19
      362.152   4.79514e-19
      362.248   4.76169e-19
      362.345   4.72811e-19
      362.441   4.69515e-19
      362.538   4.66205e-19
      362.635   4.62917e-19
      362.731   4.59681e-19
      362.828   4.56433e-19
      362.925   4.53209e-19
      363.021   4.50041e-19
      363.118   4.46860e-19
      363.215   4.43696e-19
      363.312   4.40555e-19
      363.409   4.37438e-19
      363.505   4.34371e-19
      363.602   4.31291e-19
      363.699   4.28236e-19
      363.796   4.25197e-19
      363.893   4.22179e-19
      363.990   4.19181e-19
      364.087   4.16202e-19
      364.184   4.13244e-19
      364.281   4.10304e-19
      364.378   4.07386e-19
      364.475   4.04485e-19
      364.573   4.01571e-19
      364.670   3.98707e-19
      364.767   3.95864e-19
      364.864   3.93039e-19
      364.961   3.90230e-19
      365.059   3.87414e-19
      365.156   3.84644e-19
      365.253   3.81891e-19
      365.351   3.79128e-19
      365.448   3.76411e-19
      365.545   3.73714e-19
      365.643   3.71004e-19
      365.740   3.68339e-19
      365.838   3.65666e-19
      365.935   3.63037e-19
      366.033   3.60400e-19
      366.130   3.57804e-19
      366.228   3.55200e-19
      366.326   3.52614e-19
      366.423   3.50069e-19
      366.521   3.47515e-19
      366.618   3.45002e-19
      366.716   3.42481e-19
      366.814   3.39978e-19
      366.912   3.37491e-19
      367.010   3.35021e-19
      367.107   3.32591e-19
      367.205   3.30151e-19
      367.303   3.27727e-19
      367.401   3.25320e-19
      367.499   3.22928e-19
      367.597   3.20552e-19
      367.695   3.18191e-19
      367.793   3.15846e-19
      367.891   3.13519e-19
      367.989   3.11204e-19
      368.087   3.08905e-19
      368.185   3.06621e-19
      368.283   3.04352e-19
      368.381   3.02098e-19
      368.480   2.99836e-19
      368.578   2.97612e-19
      368.676   2.95403e-19
      368.774   2.93210e-19
      368.873   2.91008e-19
      368.971   2.88843e-19
      369.069   2.86693e-19
      369.168   2.84533e-19
      369.266   2.82409e-19
      369.364   2.80300e-19
      369.463   2.78186e-19
      369.561   2.76106e-19
      369.660   2.74018e-19
      369.758   2.71965e-19
      369.857   2.69907e-19
      369.955   2.67882e-19
      370.054   2.65849e-19
      370.153   2.63830e-19
      370.251   2.61846e-19
      370.350   2.59855e-19
      370.449   2.57879e-19
      370.547   2.55935e-19
      370.646   2.53982e-19
      370.745   2.52046e-19
      370.844   2.50121e-19
      370.943   2.48210e-19
      371.041   2.46332e-19
      371.140   2.44446e-19
      371.239   2.42573e-19
      371.338   2.40715e-19
      371.437   2.38868e-19
      371.536   2.37034e-19
      371.635   2.35212e-19
      371.734   2.33405e-19
      371.833   2.31609e-19
      371.932   2.29826e-19
      372.032   2.28037e-19
      372.131   2.26277e-19
      372.230   2.24532e-19
      372.329   2.22799e-19
      372.428   2.21077e-19
      372.528   2.19351e-19
      372.627   2.17655e-19
      372.726   2.15970e-19
      372.826   2.14281e-19
      372.925   2.12620e-19
      373.024   2.10971e-19
      373.124   2.09316e-19
      373.223   2.07690e-19
      373.323   2.06060e-19
      373.422   2.04457e-19
      373.522   2.02849e-19
      373.621   2.01270e-19
      373.721   1.99686e-19
      373.820   1.98128e-19
      373.920   1.96566e-19
      374.020   1.95015e-19
      374.119   1.93491e-19
      374.219   1.91963e-19
      374.319   1.90447e-19
      374.419   1.88941e-19
      374.518   1.87461e-19
      374.618   1.85977e-19
      374.718   1.84502e-19
      374.818   1.83040e-19
      374.918   1.81589e-19
      375.018   1.80147e-19
      375.118   1.78718e-19
      375.218   1.77297e-19
      375.318   1.75888e-19
      375.418   1.74489e-19
      375.518   1.73101e-19
      375.618   1.71724e-19
      375.718   1.70355e-19
      375.818   1.68998e-19
      375.918   1.67650e-19
      376.019   1.66300e-19
      376.119   1.64974e-19
      376.219   1.63657e-19
      376.319   1.62349e-19
      376.420   1.61039e-19
      376.520   1.59752e-19
      376.620   1.58475e-19
      376.721   1.57194e-19
      376.821   1.55936e-19
      376.922   1.54675e-19
      377.022   1.53436e-19
      377.122   1.52207e-19
      377.223   1.50975e-19
      377.323   1.49765e-19
      377.424   1.48552e-19
      377.525   1.47349e-19
      377.625   1.46166e-19
      377.726   1.44981e-19
      377.827   1.43806e-19
      377.927   1.42650e-19
      378.028   1.41493e-19
      378.129   1.40345e-19
      378.230   1.39362e-19
      378.330   1.38634e-19
      378.431   1.37943e-19
      378.532   1.37256e-19
      378.633   1.36571e-19
      378.734   1.35889e-19
      378.835   1.35211e-19
      378.936   1.34536e-19
      379.037   1.33863e-19
      379.138   1.33193e-19
      379.239   1.32527e-19
      379.340   1.31864e-19
      379.441   1.31205e-19
      379.542   1.30548e-19
      379.643   1.29894e-19
      379.745   1.29237e-19
      379.846   1.28589e-19
      379.947   1.27944e-19
      380.048   1.27303e-19
      380.150   1.26658e-19
      380.251   1.26023e-19
      380.352   1.25391e-19
      380.454   1.24756e-19
      380.555   1.24130e-19
      380.656   1.23506e-19
      380.758   1.22880e-19
      380.859   1.22263e-19
      380.961   1.21643e-19
      381.062   1.21032e-19
      381.164   1.20418e-19
      381.266   1.19807e-19
      381.367   1.19206e-19
      381.469   1.18601e-19
      381.570   1.18006e-19
      381.672   1.17407e-19
      381.774   1.16812e-19
      381.876   1.16219e-19
      381.977   1.15636e-19
      382.079   1.15049e-19
      382.181   1.14466e-19
      382.283   1.13886e-19
      382.385   1.13309e-19
      382.487   1.12735e-19
      382.589   1.12164e-19
      382.691   1.11595e-19
      382.793   1.11030e-19
      382.895   1.10468e-19
      382.997   1.09909e-19
      383.099   1.09352e-19
      383.201   1.08799e-19
      383.303   1.08249e-19
      383.405   1.07701e-19
      383.507   1.07156e-19
      383.610   1.06609e-19
      383.712   1.06070e-19
      383.814   1.05535e-19
      383.916   1.05002e-19
      384.019   1.04467e-19
      384.121   1.03940e-19
      384.223   1.03415e-19
      384.326   1.02906e-19
      384.428   1.02450e-19
      384.531   1.02005e-19
      384.633   1.01566e-19
      384.736   1.01126e-19
      384.838   1.00690e-19
      384.941   1.00254e-19
      385.043   9.98229e-20
      385.146   9.93911e-20
      385.249   9.89604e-20
      385.351   9.85359e-20
      385.454   9.81098e-20
      385.557   9.76856e-20
      385.660   9.72638e-20
      385.762   9.68480e-20
      385.865   9.64301e-20
      385.968   9.60140e-20
      386.071   9.56001e-20
      386.174   9.51882e-20
      386.277   9.47784e-20
      386.380   9.43706e-20
      386.483   9.39645e-20
      386.586   9.35616e-20
      386.689   9.31599e-20
      386.792   9.27601e-20
      386.895   9.23623e-20
      386.998   9.19668e-20
      387.101   9.15729e-20
      387.204   9.11804e-20
      387.308   9.07872e-20
      387.411   9.03995e-20
      387.514   9.00135e-20
      387.617   8.96293e-20
      387.721   8.92437e-20
      387.824   8.88637e-20
      387.927   8.84852e-20
      388.031   8.81053e-20
      388.134   8.77308e-20
      388.238   8.73550e-20
      388.341   8.69841e-20
      388.445   8.66121e-20
      388.548   8.62447e-20
      388.652   8.58768e-20
      388.755   8.55137e-20
      388.859   8.51486e-20
      388.962   8.47889e-20
      389.066   8.44276e-20
      389.170   8.40684e-20
      389.274   8.37112e-20
      389.377   8.33594e-20
      389.481   8.30051e-20
      389.585   8.26530e-20
      389.689   8.23025e-20
      389.793   8.19541e-20
      389.897   8.16073e-20
      390.000   8.12659e-20
      390.104   8.09227e-20
      390.208   8.05809e-20
      390.312   8.02411e-20
      390.416   7.99023e-20
      390.520   7.95643e-20
      390.625   7.92252e-20
      390.729   7.88908e-20
      390.833   7.85581e-20
      390.937   7.82272e-20
      391.041   7.78980e-20
      391.145   7.75698e-20
      391.250   7.72409e-20
      391.354   7.69163e-20
      391.458   7.65934e-20
      391.563   7.62690e-20
      391.667   7.59496e-20
      391.771   7.56318e-20
      391.876   7.53124e-20
      391.980   7.49974e-20
      392.085   7.46811e-20
      392.189   7.43697e-20
      392.294   7.40566e-20
      392.398   7.37481e-20
      392.503   7.34381e-20
      392.607   7.31323e-20
      392.712   7.28258e-20
      392.817   7.25199e-20
      392.921   7.22194e-20
      393.026   7.19168e-20
      393.131   7.16160e-20
      393.236   7.13162e-20
      393.340   7.10215e-20
      393.445   7.07253e-20
      393.550   7.04300e-20
      393.655   7.01365e-20
      393.760   6.98443e-20
      393.865   6.95538e-20
      393.970   6.92644e-20
      394.075   6.89763e-20
      394.180   6.86902e-20
      394.285   6.84053e-20
      394.390   6.81212e-20
      394.495   6.78387e-20
      394.600   6.75578e-20
      394.706   6.72753e-20
      394.811   6.69973e-20
      394.916   6.67196e-20
      395.021   6.64438e-20
      395.126   6.61695e-20
      395.232   6.58936e-20
      395.337   6.56213e-20
      395.443   6.53483e-20
      395.548   6.50787e-20
      395.653   6.48103e-20
      395.759   6.45410e-20
      395.864   6.42756e-20
      395.970   6.40086e-20
      396.075   6.37453e-20
      396.181   6.34807e-20
      396.286   6.32193e-20
      396.392   6.29574e-20
      396.498   6.26967e-20
      396.603   6.24388e-20
      396.709   6.21799e-20
      396.815   6.19216e-20
      396.921   6.16650e-20
      397.026   6.14120e-20
      397.132   6.11578e-20
      397.238   6.09047e-20
      397.344   6.06524e-20
      397.450   6.04018e-20
      397.556   6.01516e-20
      397.662   5.99026e-20
      397.768   5.96549e-20
      397.874   5.94088e-20
      397.980   5.91626e-20
      398.086   5.89182e-20
      398.192   5.86743e-20
      398.298   5.84316e-20
      398.404   5.81906e-20
      398.510   5.79498e-20
      398.617   5.77080e-20
      398.723   5.74693e-20
      398.829   5.72317e-20
      398.935   5.69948e-20
      399.042   5.67574e-20
      399.148   5.65223e-20
      399.255   5.62863e-20
      399.361   5.60535e-20
      399.467   5.58213e-20
      399.574   5.55885e-20
      399.680   5.53581e-20
      399.787   5.51263e-20
      399.893       0.00000
      400.000       0.00000
