Filter: Al-poly/Al-thick
observation_date 22-Sept-2006 22:40:45
wavelength effective area
      1.00000   2.52651e-10
      1.10000   6.98701e-10
      1.20000   1.74884e-09
      1.30000   4.00002e-09
      1.40000   8.62049e-09
      1.50000   1.73365e-08
      1.60000   3.28235e-08
      1.70000   5.90908e-08
      1.80000   1.01134e-07
      1.90000   1.65567e-07
      2.00000   2.59714e-07
      2.10000   3.91889e-07
      2.20000   5.71231e-07
      2.30000   8.03150e-07
      2.40000   1.09089e-06
      2.50000   1.42627e-06
      2.60000   1.84023e-06
      2.70000   2.29214e-06
      2.80000   2.76808e-06
      2.90000   3.26409e-06
      3.00000   3.74299e-06
      3.10000   4.18270e-06
      3.20000   4.56193e-06
      3.30000   4.85882e-06
      3.40000   5.05279e-06
      3.50000   5.13435e-06
      3.60000   5.11519e-06
      3.70000   4.97722e-06
      3.80000   4.74989e-06
      3.90000   4.44370e-06
      4.00000   4.07304e-06
      4.10000   3.66166e-06
      4.20000   3.23193e-06
      4.30000   2.80184e-06
      4.40000   2.38662e-06
      4.50000   1.99732e-06
      4.60000   1.64118e-06
      4.70000   1.32856e-06
      4.80000   1.05783e-06
      4.90000   8.19075e-07
      5.00000   6.40966e-07
      5.10000   4.87230e-07
      5.20000   3.66018e-07
      5.30000   2.68401e-07
      5.40000   1.93654e-07
      5.50000   1.38042e-07
      5.60000   9.38530e-08
      5.70000   6.61307e-08
      5.80000   4.13705e-08
      5.90000   3.33687e-08
      6.00000   2.33791e-08
      6.10000   1.53570e-08
      6.20000   9.72662e-09
      6.30000   5.80553e-09
      6.40000   3.26219e-09
      6.50000   1.73169e-09
      6.60000   8.62809e-10
      6.70000   4.14091e-10
      6.80000   1.92522e-10
      6.90000   1.15374e-10
      7.00000   5.73097e-11
      7.10000   2.71576e-11
      7.20000   1.24603e-11
      7.30000   5.63562e-12
      7.40000   2.59643e-12
      7.50000   1.14545e-12
      7.60000   4.82249e-13
      7.70000   2.09447e-13
      7.80000   8.58653e-14
      7.90000   3.43988e-14
      8.00000     0.0688274
      8.10000     0.0687717
      8.20000     0.0636215
      8.30000     0.0584536
      8.40000     0.0536579
      8.50000     0.0491092
      8.60000     0.0448401
      8.70000     0.0408023
      8.80000     0.0370363
      8.90000     0.0334960
      9.00000     0.0302086
      9.10000     0.0271660
      9.20000     0.0243396
      9.30000     0.0217692
      9.40000     0.0194049
      9.50000     0.0172348
      9.60000     0.0152870
      9.70000     0.0135140
      9.80000     0.0118987
      9.90000     0.0104489
      10.0000    0.00914861
      10.1000    0.00797881
      10.2000    0.00693100
      10.3000    0.00600751
      10.4000    0.00519649
      10.5000    0.00447972
      10.6000    0.00384873
      10.7000    0.00329534
      10.8000    0.00281435
      10.9000    0.00240031
      11.0000    0.00204055
      11.1000    0.00172911
      11.2000    0.00146044
      11.3000    0.00122958
      11.4000    0.00103189
      11.5000   0.000863200
      11.6000   0.000719781
      11.7000   0.000599517
      11.8000   0.000497927
      11.9000   0.000413149
      12.0000   0.000341914
      12.1000   0.000283454
      12.2000   0.000238792
      12.3000   0.000197965
      12.4000   0.000162154
      12.5000   0.000132298
      12.6000   0.000107557
      12.7000   8.71421e-05
      12.8000   7.03717e-05
      12.9000   5.66538e-05
      13.0000   4.54676e-05
      13.1000   3.63721e-05
      13.2000   2.90007e-05
      13.3000   2.30453e-05
      13.4000   1.82504e-05
      13.5000   1.44108e-05
      13.6000   1.13958e-05
      13.7000   8.98332e-06
      13.8000   7.05812e-06
      13.9000   5.52635e-06
      14.0000   4.31116e-06
      14.1000   3.34999e-06
      14.2000   2.59230e-06
      14.3000   1.99725e-06
      14.4000   1.53185e-06
      14.5000   1.17454e-06
      14.6000   9.03224e-07
      14.7000   6.91230e-07
      14.8000   5.26227e-07
      14.9000   3.98361e-07
      15.0000   2.99771e-07
      15.1000   2.24166e-07
      15.2000   1.69258e-07
      15.3000   1.27337e-07
      15.4000   9.51017e-08
      15.5000   7.04865e-08
      15.6000   5.18305e-08
      15.7000   3.82688e-08
      15.8000   2.84376e-08
      15.9000   2.09377e-08
      16.0000   1.52734e-08
      16.1000   1.10393e-08
      16.2000   8.11009e-09
      16.3000   5.94204e-09
      16.4000   4.30027e-09
      16.5000   3.07453e-09
      16.6000   2.21385e-09
      16.7000   1.60830e-09
      16.8000   1.14989e-09
      16.9000   8.09672e-10
      17.0000   5.76233e-10
      17.1000   4.13369e-10
      17.2000   2.90747e-10
      17.3000   2.00827e-10
      17.4000   1.43445e-10
      17.5000   1.01803e-10
      17.6000   7.09907e-11
      17.7000   4.96626e-11
      17.8000   3.59087e-11
      17.9000   2.53542e-11
      18.0000   1.74870e-11
      18.1000   1.25487e-11
      18.2000   8.77134e-12
      18.3000   5.93114e-12
      18.4000   4.10403e-12
      18.5000   2.79853e-12
      18.6000   1.82705e-12
      18.7000   1.21437e-12
      18.8000   8.05337e-13
      18.9000   5.09780e-13
      19.0000   3.35111e-13
      19.1000   2.19607e-13
      19.2000   1.36889e-13
      19.3000   9.04265e-14
      19.4000   5.86292e-14
      19.5000   3.61031e-14
      19.6000   2.42518e-14
      19.7000   1.55236e-14
      19.8000   9.56172e-15
      19.9000   6.46072e-15
      20.0000   4.04754e-15
      20.1000   2.57568e-15
      20.2000   1.67975e-15
      20.3000   1.01708e-15
      20.4000   6.69100e-16
      20.5000   4.17865e-16
      20.6000   2.52801e-16
      20.7000   1.65815e-16
      20.8000   9.86044e-17
      20.9000   6.31482e-17
      21.0000   3.88378e-17
      21.1000   2.28651e-17
      21.2000   1.48188e-17
      21.3000   8.54132e-18
      21.4000   5.45333e-18
      21.5000   3.24281e-18
      21.6000   1.92315e-18
      21.7000   1.19740e-18
      21.8000   6.58250e-19
      21.9000   4.30214e-19
      22.0000   2.42572e-19
      22.1000   1.49948e-19
      22.2000   8.71399e-20
      22.3000   5.02353e-20
      22.4000   3.01749e-20
      22.5000   1.54880e-20
      22.6000   9.35970e-21
      22.7000   4.34737e-21
      22.8000   3.50591e-21
      22.9000   2.77960e-21
      23.0000   2.14163e-21
      23.1000   1.54089e-21
      23.2000   9.75184e-22
      23.3000   6.09612e-22
      23.4000   3.44020e-22
      23.5000   2.12226e-22
      23.6000   1.13056e-22
      23.7000   7.21739e-23
      23.8000   3.67721e-23
      23.9000   2.39426e-23
      24.0000   1.22214e-23
      24.1000   7.79151e-24
      24.2000   3.97557e-24
      24.3000   2.48894e-24
      24.4000   1.27210e-24
      24.5000   7.84797e-25
      24.6000   4.01851e-25
      24.7000   2.44912e-25
      24.8000   1.25250e-25
      24.9000   7.59392e-26
      25.0000   3.88656e-26
      25.1000   2.34450e-26
      25.2000   1.18822e-26
      25.3000   7.17632e-27
      25.4000   3.59805e-27
      25.5000   2.17923e-27
      25.6000   1.07090e-27
      25.7000   6.53428e-28
      25.8000   3.13506e-28
      25.9000   1.93338e-28
      26.0000   9.00535e-29
      26.1000   5.63207e-29
      26.2000   2.53645e-29
      26.3000   1.61299e-29
      26.4000   6.99605e-30
      26.5000   4.53306e-30
      26.6000   2.07874e-30
      26.7000   1.24779e-30
      26.8000   6.10767e-31
      26.9000   3.36029e-31
      27.0000   1.75090e-31
      27.1000   8.83798e-32
      27.2000   4.88089e-32
      27.3000   2.26644e-32
      27.4000   1.32492e-32
      27.5000   5.71738e-33
      27.6000   3.50309e-33
      27.7000   1.39265e-33
      27.8000   8.91417e-34
      27.9000   3.91867e-34
      28.0000   2.18892e-34
      28.1000   1.09782e-34
      28.2000   5.22899e-35
      28.3000   2.92395e-35
      28.4000   1.24542e-35
      28.5000   7.53296e-36
      28.6000   2.89937e-36
      28.7000   1.88854e-36
      28.8000   8.81126e-37
      28.9000   4.83580e-37
      29.0000   2.60298e-37
      29.1000   1.19152e-37
      29.2000   7.10176e-38
      29.3000   2.82887e-38
      29.4000   1.81971e-38
      29.5000   8.14002e-39
      29.6000   4.41890e-39
      29.7000   2.37027e-39
      29.8000   1.02269e-39
      29.9000   6.17394e-40
      30.0000   2.26370e-40
      30.1000   1.48533e-40
      30.2000   7.09632e-41
      30.3000   3.38512e-41
      30.4000   1.99082e-41
      30.5000   8.30970e-42
      30.6000   5.28430e-42
      30.7000   2.26870e-42
      30.8000   1.16588e-42
      30.9000   6.31986e-43
      31.0000   2.39622e-43
      31.1000   1.47136e-43
      31.2000   6.02558e-44
      31.3000   3.50325e-44
      31.4000   1.54143e-44
      31.5000   7.00649e-45
      31.6000   7.00649e-45
      31.7000  -2.80260e-45
      31.8000       0.00000
      31.9000       0.00000
      32.0000       0.00000
      32.1000       0.00000
      32.2000       0.00000
      32.3000       0.00000
      32.4000       0.00000
      32.5000       0.00000
      32.6000       0.00000
      32.7000       0.00000
      32.8000       0.00000
      32.9000       0.00000
      33.0000       0.00000
      33.1000       0.00000
      33.2000       0.00000
      33.3000       0.00000
      33.4000       0.00000
      33.5000       0.00000
      33.6000       0.00000
      33.7000       0.00000
      33.8000       0.00000
      33.9000       0.00000
      34.0000       0.00000
      34.1000       0.00000
      34.2000       0.00000
      34.3000       0.00000
      34.4000       0.00000
      34.5000       0.00000
      34.6000       0.00000
      34.7000       0.00000
      34.8000       0.00000
      34.9000       0.00000
      35.0000       0.00000
      35.1000       0.00000
      35.2000       0.00000
      35.3000       0.00000
      35.4000       0.00000
      35.5000       0.00000
      35.6000       0.00000
      35.7000       0.00000
      35.8000       0.00000
      35.9000       0.00000
      36.0000       0.00000
      36.1000       0.00000
      36.2000       0.00000
      36.3000       0.00000
      36.4000       0.00000
      36.5000       0.00000
      36.6000       0.00000
      36.7000       0.00000
      36.8000       0.00000
      36.9000       0.00000
      37.0000       0.00000
      37.1000       0.00000
      37.2000       0.00000
      37.3000       0.00000
      37.4000       0.00000
      37.5000       0.00000
      37.6000       0.00000
      37.7000       0.00000
      37.8000       0.00000
      37.9000       0.00000
      38.0000       0.00000
      38.1000       0.00000
      38.2000       0.00000
      38.3000       0.00000
      38.4000       0.00000
      38.5000       0.00000
      38.6000       0.00000
      38.7000       0.00000
      38.8000       0.00000
      38.9000       0.00000
      39.0000       0.00000
      39.1000       0.00000
      39.2000       0.00000
      39.3000       0.00000
      39.4000       0.00000
      39.5000       0.00000
      39.6000       0.00000
      39.7000       0.00000
      39.8000       0.00000
      39.9000       0.00000
      40.0000       0.00000
      40.1000       0.00000
      40.2000       0.00000
      40.3000       0.00000
      40.4000       0.00000
      40.5000       0.00000
      40.6000       0.00000
      40.7000       0.00000
      40.8000       0.00000
      40.9000       0.00000
      41.0000       0.00000
      41.1000       0.00000
      41.2000       0.00000
      41.3000       0.00000
      41.4000       0.00000
      41.5000       0.00000
      41.6000       0.00000
      41.7000       0.00000
      41.8000       0.00000
      41.9000       0.00000
      42.0000       0.00000
      42.1000       0.00000
      42.2000       0.00000
      42.3000       0.00000
      42.4000       0.00000
      42.5000       0.00000
      42.6000       0.00000
      42.7000       0.00000
      42.8000       0.00000
      42.9000       0.00000
      43.0000       0.00000
      43.1000       0.00000
      43.2000       0.00000
      43.3000       0.00000
      43.4000       0.00000
      43.5000       0.00000
      43.6000       0.00000
      43.7000       0.00000
      43.8000       0.00000
      43.9000       0.00000
      44.0000       0.00000
      44.1000       0.00000
      44.2000       0.00000
      44.3000       0.00000
      44.4000       0.00000
      44.5000       0.00000
      44.6000       0.00000
      44.7000       0.00000
      44.8000       0.00000
      44.9000       0.00000
      45.0000       0.00000
      45.1000       0.00000
      45.2000       0.00000
      45.3000       0.00000
      45.4000       0.00000
      45.5000       0.00000
      45.6000       0.00000
      45.7000       0.00000
      45.8000       0.00000
      45.9000       0.00000
      46.0000       0.00000
      46.1000       0.00000
      46.2000       0.00000
      46.3000       0.00000
      46.4000       0.00000
      46.5000       0.00000
      46.6000       0.00000
      46.7000       0.00000
      46.8000       0.00000
      46.9000       0.00000
      47.0000       0.00000
      47.1000       0.00000
      47.2000       0.00000
      47.3000       0.00000
      47.4000       0.00000
      47.5000       0.00000
      47.6000       0.00000
      47.7000       0.00000
      47.8000       0.00000
      47.9000       0.00000
      48.0000       0.00000
      48.1000       0.00000
      48.2000       0.00000
      48.3000       0.00000
      48.4000       0.00000
      48.5000       0.00000
      48.6000       0.00000
      48.7000       0.00000
      48.8000       0.00000
      48.9000       0.00000
      49.0000       0.00000
      49.1000       0.00000
      49.2000       0.00000
      49.3000       0.00000
      49.4000       0.00000
      49.5000       0.00000
      49.6000       0.00000
      49.7000       0.00000
      49.8000       0.00000
      49.9000       0.00000
      50.0000       0.00000
      50.1000       0.00000
      50.2000       0.00000
      50.3000       0.00000
      50.4000       0.00000
      50.5000       0.00000
      50.6000       0.00000
      50.7000       0.00000
      50.8000       0.00000
      50.9000       0.00000
      51.0000       0.00000
      51.1000       0.00000
      51.2000       0.00000
      51.3000       0.00000
      51.4000       0.00000
      51.5000       0.00000
      51.6000       0.00000
      51.7000       0.00000
      51.8000       0.00000
      51.9000       0.00000
      52.0000       0.00000
      52.1000       0.00000
      52.2000       0.00000
      52.3000       0.00000
      52.4000       0.00000
      52.5000       0.00000
      52.6000       0.00000
      52.7000       0.00000
      52.8000       0.00000
      52.9000       0.00000
      53.0000       0.00000
      53.1000       0.00000
      53.2000       0.00000
      53.3000       0.00000
      53.4000       0.00000
      53.5000       0.00000
      53.6000       0.00000
      53.7000       0.00000
      53.8000       0.00000
      53.9000       0.00000
      54.0000       0.00000
      54.1000       0.00000
      54.2000       0.00000
      54.3000       0.00000
      54.4000       0.00000
      54.5000       0.00000
      54.6000       0.00000
      54.7000       0.00000
      54.8000       0.00000
      54.9000       0.00000
      55.0000       0.00000
      55.1000       0.00000
      55.2000       0.00000
      55.3000       0.00000
      55.4000       0.00000
      55.5000       0.00000
      55.6000       0.00000
      55.7000       0.00000
      55.8000       0.00000
      55.9000       0.00000
      56.0000       0.00000
      56.1000       0.00000
      56.2000       0.00000
      56.3000       0.00000
      56.4000       0.00000
      56.5000       0.00000
      56.6000       0.00000
      56.7000       0.00000
      56.8000       0.00000
      56.9000       0.00000
      57.0000       0.00000
      57.1000       0.00000
      57.2000       0.00000
      57.3000       0.00000
      57.4000       0.00000
      57.5000       0.00000
      57.6000       0.00000
      57.7000       0.00000
      57.8000       0.00000
      57.9000       0.00000
      58.0000       0.00000
      58.1000       0.00000
      58.2000       0.00000
      58.3000       0.00000
      58.4000       0.00000
      58.5000       0.00000
      58.6000       0.00000
      58.7000       0.00000
      58.8000       0.00000
      58.9000       0.00000
      59.0000       0.00000
      59.1000       0.00000
      59.2000       0.00000
      59.3000       0.00000
      59.4000       0.00000
      59.5000       0.00000
      59.6000       0.00000
      59.7000       0.00000
      59.8000       0.00000
      59.9000       0.00000
      60.0000       0.00000
      60.1000       0.00000
      60.2000       0.00000
      60.3000       0.00000
      60.4000       0.00000
      60.5000       0.00000
      60.6000       0.00000
      60.7000       0.00000
      60.8000       0.00000
      60.9000       0.00000
      61.0000       0.00000
      61.1000       0.00000
      61.2000       0.00000
      61.3000       0.00000
      61.4000       0.00000
      61.5000       0.00000
      61.6000       0.00000
      61.7000       0.00000
      61.8000       0.00000
      61.9000       0.00000
      62.0000       0.00000
      62.1000       0.00000
      62.2000       0.00000
      62.3000       0.00000
      62.4000       0.00000
      62.5000       0.00000
      62.6000       0.00000
      62.7000       0.00000
      62.8000       0.00000
      62.9000       0.00000
      63.0000       0.00000
      63.1000       0.00000
      63.2000       0.00000
      63.3000       0.00000
      63.4000       0.00000
      63.5000       0.00000
      63.6000       0.00000
      63.7000       0.00000
      63.8000       0.00000
      63.9000       0.00000
      64.0000       0.00000
      64.1000       0.00000
      64.2000       0.00000
      64.3000       0.00000
      64.4000       0.00000
      64.5000       0.00000
      64.6000       0.00000
      64.7000       0.00000
      64.8000       0.00000
      64.9000       0.00000
      65.0000       0.00000
      65.1000       0.00000
      65.2000       0.00000
      65.3000       0.00000
      65.4000       0.00000
      65.5000       0.00000
      65.6000       0.00000
      65.7000       0.00000
      65.8000       0.00000
      65.9000       0.00000
      66.0000       0.00000
      66.1000       0.00000
      66.2000       0.00000
      66.3000       0.00000
      66.4000       0.00000
      66.5000       0.00000
      66.6000       0.00000
      66.7000       0.00000
      66.8000       0.00000
      66.9000       0.00000
      67.0000       0.00000
      67.1000       0.00000
      67.2000       0.00000
      67.3000       0.00000
      67.4000       0.00000
      67.5000       0.00000
      67.6000       0.00000
      67.7000       0.00000
      67.8000       0.00000
      67.9000       0.00000
      68.0000       0.00000
      68.1000       0.00000
      68.2000       0.00000
      68.3000       0.00000
      68.4000       0.00000
      68.5000       0.00000
      68.6000       0.00000
      68.7000       0.00000
      68.8000       0.00000
      68.9000       0.00000
      69.0000       0.00000
      69.1000       0.00000
      69.2000       0.00000
      69.3000       0.00000
      69.4000       0.00000
      69.5000       0.00000
      69.6000       0.00000
      69.7000       0.00000
      69.8000       0.00000
      69.9000       0.00000
      70.0000       0.00000
      70.1000       0.00000
      70.2000       0.00000
      70.3000       0.00000
      70.4000       0.00000
      70.5000       0.00000
      70.6000       0.00000
      70.7000       0.00000
      70.8000       0.00000
      70.9000       0.00000
      71.0000       0.00000
      71.1000       0.00000
      71.2000       0.00000
      71.3000       0.00000
      71.4000       0.00000
      71.5000       0.00000
      71.6000       0.00000
      71.7000       0.00000
      71.8000       0.00000
      71.9000       0.00000
      72.0000       0.00000
      72.1000       0.00000
      72.2000       0.00000
      72.3000       0.00000
      72.4000       0.00000
      72.5000       0.00000
      72.6000       0.00000
      72.7000       0.00000
      72.8000       0.00000
      72.9000       0.00000
      73.0000       0.00000
      73.1000       0.00000
      73.2000       0.00000
      73.3000       0.00000
      73.4000       0.00000
      73.5000       0.00000
      73.6000       0.00000
      73.7000       0.00000
      73.8000       0.00000
      73.9000       0.00000
      74.0000       0.00000
      74.1000       0.00000
      74.2000       0.00000
      74.3000       0.00000
      74.4000       0.00000
      74.5000       0.00000
      74.6000       0.00000
      74.7000       0.00000
      74.8000       0.00000
      74.9000       0.00000
      75.0000       0.00000
      75.1000       0.00000
      75.2000       0.00000
      75.3000       0.00000
      75.4000       0.00000
      75.5000       0.00000
      75.6000       0.00000
      75.7000       0.00000
      75.8000       0.00000
      75.9000       0.00000
      76.0000       0.00000
      76.1000       0.00000
      76.2000       0.00000
      76.3000       0.00000
      76.4000       0.00000
      76.5000       0.00000
      76.6000       0.00000
      76.7000       0.00000
      76.8000       0.00000
      76.9000       0.00000
      77.0000       0.00000
      77.1000       0.00000
      77.2000       0.00000
      77.3000       0.00000
      77.4000       0.00000
      77.5000       0.00000
      77.6000       0.00000
      77.7000       0.00000
      77.8000       0.00000
      77.9000       0.00000
      78.0000       0.00000
      78.1000       0.00000
      78.2000       0.00000
      78.3000       0.00000
      78.4000       0.00000
      78.5000       0.00000
      78.6000       0.00000
      78.7000       0.00000
      78.8000       0.00000
      78.9000       0.00000
      79.0000       0.00000
      79.1000       0.00000
      79.2000       0.00000
      79.3000       0.00000
      79.4000       0.00000
      79.5000       0.00000
      79.6000       0.00000
      79.7000       0.00000
      79.8000       0.00000
      79.9000       0.00000
      80.0000       0.00000
      80.1000       0.00000
      80.2000       0.00000
      80.3000       0.00000
      80.4000       0.00000
      80.5000       0.00000
      80.6000       0.00000
      80.7000       0.00000
      80.8000       0.00000
      80.9000       0.00000
      81.0000       0.00000
      81.1000       0.00000
      81.2000       0.00000
      81.3000       0.00000
      81.4000       0.00000
      81.5000       0.00000
      81.6000       0.00000
      81.7000       0.00000
      81.8000       0.00000
      81.9000       0.00000
      82.0000       0.00000
      82.1000       0.00000
      82.2000       0.00000
      82.3000       0.00000
      82.4000       0.00000
      82.5000       0.00000
      82.6000       0.00000
      82.7000       0.00000
      82.8000       0.00000
      82.9000       0.00000
      83.0000       0.00000
      83.1000       0.00000
      83.2000       0.00000
      83.3000       0.00000
      83.4000       0.00000
      83.5000       0.00000
      83.6000       0.00000
      83.7000       0.00000
      83.8000       0.00000
      83.9000       0.00000
      84.0000       0.00000
      84.1000       0.00000
      84.2000       0.00000
      84.3000       0.00000
      84.4000       0.00000
      84.5000       0.00000
      84.6000       0.00000
      84.7000       0.00000
      84.8000       0.00000
      84.9000       0.00000
      85.0000       0.00000
      85.1000       0.00000
      85.2000       0.00000
      85.3000       0.00000
      85.4000       0.00000
      85.5000       0.00000
      85.6000       0.00000
      85.7000       0.00000
      85.8000       0.00000
      85.9000       0.00000
      86.0000       0.00000
      86.1000       0.00000
      86.2000       0.00000
      86.3000       0.00000
      86.4000       0.00000
      86.5000       0.00000
      86.6000       0.00000
      86.7000       0.00000
      86.8000       0.00000
      86.9000       0.00000
      87.0000       0.00000
      87.1000       0.00000
      87.2000       0.00000
      87.3000       0.00000
      87.4000       0.00000
      87.5000       0.00000
      87.6000       0.00000
      87.7000       0.00000
      87.8000       0.00000
      87.9000       0.00000
      88.0000       0.00000
      88.1000       0.00000
      88.2000       0.00000
      88.3000       0.00000
      88.4000       0.00000
      88.5000       0.00000
      88.6000       0.00000
      88.7000       0.00000
      88.8000       0.00000
      88.9000       0.00000
      89.0000       0.00000
      89.1000       0.00000
      89.2000       0.00000
      89.3000       0.00000
      89.4000       0.00000
      89.5000       0.00000
      89.6000       0.00000
      89.7000       0.00000
      89.8000       0.00000
      89.9000       0.00000
      90.0000       0.00000
      90.1000       0.00000
      90.2000       0.00000
      90.3000       0.00000
      90.4000       0.00000
      90.5000       0.00000
      90.6000       0.00000
      90.7000       0.00000
      90.8000       0.00000
      90.9000       0.00000
      91.0000       0.00000
      91.1000       0.00000
      91.2000       0.00000
      91.3000       0.00000
      91.4000       0.00000
      91.5000       0.00000
      91.6000       0.00000
      91.7000       0.00000
      91.8000       0.00000
      91.9000       0.00000
      92.0000       0.00000
      92.1000       0.00000
      92.2000       0.00000
      92.3000       0.00000
      92.4000       0.00000
      92.5000       0.00000
      92.6000       0.00000
      92.7000       0.00000
      92.8000       0.00000
      92.9000       0.00000
      93.0000       0.00000
      93.1000       0.00000
      93.2000       0.00000
      93.3000       0.00000
      93.4000       0.00000
      93.5000       0.00000
      93.6000       0.00000
      93.7000       0.00000
      93.8000       0.00000
      93.9000       0.00000
      94.0000       0.00000
      94.1000       0.00000
      94.2000       0.00000
      94.3000       0.00000
      94.4000       0.00000
      94.5000       0.00000
      94.6000       0.00000
      94.7000       0.00000
      94.8000       0.00000
      94.9000       0.00000
      95.0000       0.00000
      95.1000       0.00000
      95.2000       0.00000
      95.3000       0.00000
      95.4000       0.00000
      95.5000       0.00000
      95.6000       0.00000
      95.7000       0.00000
      95.8000       0.00000
      95.9000       0.00000
      96.0000       0.00000
      96.1000       0.00000
      96.2000       0.00000
      96.3000       0.00000
      96.4000       0.00000
      96.5000       0.00000
      96.6000       0.00000
      96.7000       0.00000
      96.8000       0.00000
      96.9000       0.00000
      97.0000       0.00000
      97.1000       0.00000
      97.2000       0.00000
      97.3000       0.00000
      97.4000       0.00000
      97.5000       0.00000
      97.6000       0.00000
      97.7000       0.00000
      97.8000       0.00000
      97.9000       0.00000
      98.0000       0.00000
      98.1000       0.00000
      98.2000       0.00000
      98.3000       0.00000
      98.4000       0.00000
      98.5000       0.00000
      98.6000       0.00000
      98.7000       0.00000
      98.8000       0.00000
      98.9000       0.00000
      99.0000       0.00000
      99.1000       0.00000
      99.2000       0.00000
      99.3000       0.00000
      99.4000       0.00000
      99.5000       0.00000
      99.6000       0.00000
      99.7000       0.00000
      99.8000       0.00000
      99.9000       0.00000
      100.000       0.00000
      100.100       0.00000
      100.200       0.00000
      100.300       0.00000
      100.400       0.00000
      100.500       0.00000
      100.600       0.00000
      100.700       0.00000
      100.800       0.00000
      100.900       0.00000
      101.000       0.00000
      101.100       0.00000
      101.200       0.00000
      101.300       0.00000
      101.400       0.00000
      101.500       0.00000
      101.600       0.00000
      101.700       0.00000
      101.800       0.00000
      101.900       0.00000
      102.000       0.00000
      102.100       0.00000
      102.200       0.00000
      102.300       0.00000
      102.400       0.00000
      102.500       0.00000
      102.600       0.00000
      102.700       0.00000
      102.800       0.00000
      102.900       0.00000
      103.000       0.00000
      103.100       0.00000
      103.200       0.00000
      103.300       0.00000
      103.400       0.00000
      103.500       0.00000
      103.600       0.00000
      103.700       0.00000
      103.800       0.00000
      103.900       0.00000
      104.000       0.00000
      104.100       0.00000
      104.200       0.00000
      104.300       0.00000
      104.400       0.00000
      104.500       0.00000
      104.600       0.00000
      104.700       0.00000
      104.800       0.00000
      104.900       0.00000
      105.000       0.00000
      105.100       0.00000
      105.200       0.00000
      105.300       0.00000
      105.400       0.00000
      105.500       0.00000
      105.600       0.00000
      105.700       0.00000
      105.800       0.00000
      105.900       0.00000
      106.000       0.00000
      106.100       0.00000
      106.200       0.00000
      106.300       0.00000
      106.400       0.00000
      106.500       0.00000
      106.600       0.00000
      106.700       0.00000
      106.800       0.00000
      106.900       0.00000
      107.000       0.00000
      107.100       0.00000
      107.200       0.00000
      107.300       0.00000
      107.400       0.00000
      107.500       0.00000
      107.600       0.00000
      107.700       0.00000
      107.800       0.00000
      107.900       0.00000
      108.000       0.00000
      108.100       0.00000
      108.200       0.00000
      108.300       0.00000
      108.400       0.00000
      108.500       0.00000
      108.600       0.00000
      108.700       0.00000
      108.800       0.00000
      108.900       0.00000
      109.000       0.00000
      109.100       0.00000
      109.200       0.00000
      109.300       0.00000
      109.400       0.00000
      109.500       0.00000
      109.600       0.00000
      109.700       0.00000
      109.800       0.00000
      109.900       0.00000
      110.000       0.00000
      110.100       0.00000
      110.200       0.00000
      110.300       0.00000
      110.400       0.00000
      110.500       0.00000
      110.600       0.00000
      110.700       0.00000
      110.800       0.00000
      110.900       0.00000
      111.000       0.00000
      111.100       0.00000
      111.200       0.00000
      111.300       0.00000
      111.400       0.00000
      111.500       0.00000
      111.600       0.00000
      111.700       0.00000
      111.800       0.00000
      111.900       0.00000
      112.000       0.00000
      112.100       0.00000
      112.200       0.00000
      112.300       0.00000
      112.400       0.00000
      112.500       0.00000
      112.600       0.00000
      112.700       0.00000
      112.800       0.00000
      112.900       0.00000
      113.000       0.00000
      113.100       0.00000
      113.200       0.00000
      113.300       0.00000
      113.400       0.00000
      113.500       0.00000
      113.600       0.00000
      113.700       0.00000
      113.800       0.00000
      113.900       0.00000
      114.000       0.00000
      114.100       0.00000
      114.200       0.00000
      114.300       0.00000
      114.400       0.00000
      114.500       0.00000
      114.600       0.00000
      114.700       0.00000
      114.800       0.00000
      114.900       0.00000
      115.000       0.00000
      115.100       0.00000
      115.200       0.00000
      115.300       0.00000
      115.400       0.00000
      115.500       0.00000
      115.600       0.00000
      115.700       0.00000
      115.800       0.00000
      115.900       0.00000
      116.000       0.00000
      116.100       0.00000
      116.200       0.00000
      116.300       0.00000
      116.400       0.00000
      116.500       0.00000
      116.600       0.00000
      116.700       0.00000
      116.800       0.00000
      116.900       0.00000
      117.000       0.00000
      117.100       0.00000
      117.200       0.00000
      117.300       0.00000
      117.400       0.00000
      117.500       0.00000
      117.600       0.00000
      117.700       0.00000
      117.800       0.00000
      117.900       0.00000
      118.000       0.00000
      118.100       0.00000
      118.200       0.00000
      118.300       0.00000
      118.400       0.00000
      118.500       0.00000
      118.600       0.00000
      118.700       0.00000
      118.800       0.00000
      118.900       0.00000
      119.000       0.00000
      119.100       0.00000
      119.200       0.00000
      119.300       0.00000
      119.400       0.00000
      119.500       0.00000
      119.600       0.00000
      119.700       0.00000
      119.800       0.00000
      119.900       0.00000
      120.000       0.00000
      120.100       0.00000
      120.200       0.00000
      120.300       0.00000
      120.400       0.00000
      120.500       0.00000
      120.600       0.00000
      120.700       0.00000
      120.800       0.00000
      120.900       0.00000
      121.000       0.00000
      121.100       0.00000
      121.200       0.00000
      121.300       0.00000
      121.400       0.00000
      121.500       0.00000
      121.600       0.00000
      121.700       0.00000
      121.800       0.00000
      121.900       0.00000
      122.000       0.00000
      122.100       0.00000
      122.200       0.00000
      122.300       0.00000
      122.400       0.00000
      122.500       0.00000
      122.600       0.00000
      122.700       0.00000
      122.800       0.00000
      122.900       0.00000
      123.000       0.00000
      123.100       0.00000
      123.200       0.00000
      123.300       0.00000
      123.400       0.00000
      123.500       0.00000
      123.600       0.00000
      123.700       0.00000
      123.800       0.00000
      123.900       0.00000
      124.000       0.00000
      124.100       0.00000
      124.200       0.00000
      124.300       0.00000
      124.400       0.00000
      124.500       0.00000
      124.600       0.00000
      124.700       0.00000
      124.800       0.00000
      124.900       0.00000
      125.000       0.00000
      125.100       0.00000
      125.200       0.00000
      125.300       0.00000
      125.400       0.00000
      125.500       0.00000
      125.600       0.00000
      125.700       0.00000
      125.800       0.00000
      125.900       0.00000
      126.000       0.00000
      126.100       0.00000
      126.200       0.00000
      126.300       0.00000
      126.400       0.00000
      126.500       0.00000
      126.600       0.00000
      126.700       0.00000
      126.800       0.00000
      126.900       0.00000
      127.000       0.00000
      127.100       0.00000
      127.200       0.00000
      127.300       0.00000
      127.400       0.00000
      127.500       0.00000
      127.600       0.00000
      127.700       0.00000
      127.800       0.00000
      127.900       0.00000
      128.000       0.00000
      128.100       0.00000
      128.200       0.00000
      128.300       0.00000
      128.400       0.00000
      128.500       0.00000
      128.600       0.00000
      128.700       0.00000
      128.800       0.00000
      128.900       0.00000
      129.000       0.00000
      129.100       0.00000
      129.200       0.00000
      129.300       0.00000
      129.400       0.00000
      129.500       0.00000
      129.600       0.00000
      129.700       0.00000
      129.800       0.00000
      129.900       0.00000
      130.000       0.00000
      130.100       0.00000
      130.200       0.00000
      130.300       0.00000
      130.400       0.00000
      130.500       0.00000
      130.600       0.00000
      130.700       0.00000
      130.800       0.00000
      130.900       0.00000
      131.000       0.00000
      131.100       0.00000
      131.200       0.00000
      131.300       0.00000
      131.400       0.00000
      131.500       0.00000
      131.600       0.00000
      131.700       0.00000
      131.800       0.00000
      131.900       0.00000
      132.000       0.00000
      132.100       0.00000
      132.200       0.00000
      132.300       0.00000
      132.400       0.00000
      132.500       0.00000
      132.600       0.00000
      132.700       0.00000
      132.800       0.00000
      132.900       0.00000
      133.000       0.00000
      133.100       0.00000
      133.200       0.00000
      133.300       0.00000
      133.400       0.00000
      133.500       0.00000
      133.600       0.00000
      133.700       0.00000
      133.800       0.00000
      133.900       0.00000
      134.000       0.00000
      134.100       0.00000
      134.200       0.00000
      134.300       0.00000
      134.400       0.00000
      134.500       0.00000
      134.600       0.00000
      134.700       0.00000
      134.800       0.00000
      134.900       0.00000
      135.000       0.00000
      135.100       0.00000
      135.200       0.00000
      135.300       0.00000
      135.400       0.00000
      135.500       0.00000
      135.600       0.00000
      135.700       0.00000
      135.800       0.00000
      135.900       0.00000
      136.000       0.00000
      136.100       0.00000
      136.200       0.00000
      136.300       0.00000
      136.400       0.00000
      136.500       0.00000
      136.600       0.00000
      136.700       0.00000
      136.800       0.00000
      136.900       0.00000
      137.000       0.00000
      137.100       0.00000
      137.200       0.00000
      137.300       0.00000
      137.400       0.00000
      137.500       0.00000
      137.600       0.00000
      137.700       0.00000
      137.800       0.00000
      137.900       0.00000
      138.000       0.00000
      138.100       0.00000
      138.200       0.00000
      138.300       0.00000
      138.400       0.00000
      138.500       0.00000
      138.600       0.00000
      138.700       0.00000
      138.800       0.00000
      138.900       0.00000
      139.000       0.00000
      139.100       0.00000
      139.200       0.00000
      139.300       0.00000
      139.400       0.00000
      139.500       0.00000
      139.600       0.00000
      139.700       0.00000
      139.800       0.00000
      139.900       0.00000
      140.000       0.00000
      140.100       0.00000
      140.200       0.00000
      140.300       0.00000
      140.400       0.00000
      140.500       0.00000
      140.600       0.00000
      140.700       0.00000
      140.800       0.00000
      140.900       0.00000
      141.000       0.00000
      141.100       0.00000
      141.200       0.00000
      141.300       0.00000
      141.400       0.00000
      141.500       0.00000
      141.600       0.00000
      141.700       0.00000
      141.800       0.00000
      141.900       0.00000
      142.000       0.00000
      142.100       0.00000
      142.200       0.00000
      142.300       0.00000
      142.400       0.00000
      142.500       0.00000
      142.600       0.00000
      142.700       0.00000
      142.800       0.00000
      142.900       0.00000
      143.000       0.00000
      143.100       0.00000
      143.200       0.00000
      143.300       0.00000
      143.400       0.00000
      143.500       0.00000
      143.600       0.00000
      143.700       0.00000
      143.800       0.00000
      143.900       0.00000
      144.000       0.00000
      144.100       0.00000
      144.200       0.00000
      144.300       0.00000
      144.400       0.00000
      144.500       0.00000
      144.600       0.00000
      144.700       0.00000
      144.800       0.00000
      144.900       0.00000
      145.000       0.00000
      145.100       0.00000
      145.200       0.00000
      145.300       0.00000
      145.400       0.00000
      145.500       0.00000
      145.600       0.00000
      145.700       0.00000
      145.800       0.00000
      145.900       0.00000
      146.000       0.00000
      146.100       0.00000
      146.200       0.00000
      146.300       0.00000
      146.400       0.00000
      146.500       0.00000
      146.600       0.00000
      146.700       0.00000
      146.800       0.00000
      146.900       0.00000
      147.000       0.00000
      147.100       0.00000
      147.200       0.00000
      147.300       0.00000
      147.400       0.00000
      147.500       0.00000
      147.600       0.00000
      147.700       0.00000
      147.800       0.00000
      147.900       0.00000
      148.000       0.00000
      148.100       0.00000
      148.200       0.00000
      148.300       0.00000
      148.400       0.00000
      148.500       0.00000
      148.600       0.00000
      148.700       0.00000
      148.800       0.00000
      148.900       0.00000
      149.000       0.00000
      149.100       0.00000
      149.200       0.00000
      149.300       0.00000
      149.400       0.00000
      149.500       0.00000
      149.600       0.00000
      149.700       0.00000
      149.800       0.00000
      149.900       0.00000
      150.000       0.00000
      150.100       0.00000
      150.200       0.00000
      150.300       0.00000
      150.400       0.00000
      150.500       0.00000
      150.600       0.00000
      150.700       0.00000
      150.800       0.00000
      150.900       0.00000
      151.000       0.00000
      151.100       0.00000
      151.200       0.00000
      151.300       0.00000
      151.400       0.00000
      151.500       0.00000
      151.600       0.00000
      151.700       0.00000
      151.800       0.00000
      151.900       0.00000
      152.000       0.00000
      152.100       0.00000
      152.200       0.00000
      152.300       0.00000
      152.400       0.00000
      152.500       0.00000
      152.600       0.00000
      152.700       0.00000
      152.800       0.00000
      152.900       0.00000
      153.000       0.00000
      153.100       0.00000
      153.200       0.00000
      153.300       0.00000
      153.400       0.00000
      153.500       0.00000
      153.600       0.00000
      153.700       0.00000
      153.800       0.00000
      153.900       0.00000
      154.000       0.00000
      154.100       0.00000
      154.200       0.00000
      154.300       0.00000
      154.400       0.00000
      154.500       0.00000
      154.600       0.00000
      154.700       0.00000
      154.800       0.00000
      154.900       0.00000
      155.000       0.00000
      155.100       0.00000
      155.200       0.00000
      155.300       0.00000
      155.400       0.00000
      155.500       0.00000
      155.600       0.00000
      155.700       0.00000
      155.800       0.00000
      155.900       0.00000
      156.000       0.00000
      156.100       0.00000
      156.200       0.00000
      156.300       0.00000
      156.400       0.00000
      156.500       0.00000
      156.600       0.00000
      156.700       0.00000
      156.800       0.00000
      156.900       0.00000
      157.000       0.00000
      157.100       0.00000
      157.200       0.00000
      157.300       0.00000
      157.400       0.00000
      157.500       0.00000
      157.600       0.00000
      157.700       0.00000
      157.800       0.00000
      157.900       0.00000
      158.000       0.00000
      158.100       0.00000
      158.200       0.00000
      158.300       0.00000
      158.400       0.00000
      158.500       0.00000
      158.600       0.00000
      158.700       0.00000
      158.800       0.00000
      158.900       0.00000
      159.000       0.00000
      159.100       0.00000
      159.200       0.00000
      159.300       0.00000
      159.400       0.00000
      159.500       0.00000
      159.600       0.00000
      159.700       0.00000
      159.800       0.00000
      159.900       0.00000
      160.000       0.00000
      160.100       0.00000
      160.200       0.00000
      160.300       0.00000
      160.400       0.00000
      160.500       0.00000
      160.600       0.00000
      160.700       0.00000
      160.800       0.00000
      160.900       0.00000
      161.000       0.00000
      161.100       0.00000
      161.200       0.00000
      161.300       0.00000
      161.400       0.00000
      161.500       0.00000
      161.600       0.00000
      161.700       0.00000
      161.800       0.00000
      161.900       0.00000
      162.000       0.00000
      162.100       0.00000
      162.200       0.00000
      162.300       0.00000
      162.400       0.00000
      162.500       0.00000
      162.600       0.00000
      162.700       0.00000
      162.800       0.00000
      162.900       0.00000
      163.000       0.00000
      163.100       0.00000
      163.200       0.00000
      163.300       0.00000
      163.400       0.00000
      163.500       0.00000
      163.600       0.00000
      163.700       0.00000
      163.800       0.00000
      163.900       0.00000
      164.000       0.00000
      164.100       0.00000
      164.200       0.00000
      164.300       0.00000
      164.400       0.00000
      164.500       0.00000
      164.600       0.00000
      164.700       0.00000
      164.800       0.00000
      164.900       0.00000
      165.000       0.00000
      165.100       0.00000
      165.200       0.00000
      165.300       0.00000
      165.400       0.00000
      165.500       0.00000
      165.600       0.00000
      165.700       0.00000
      165.800       0.00000
      165.900       0.00000
      166.000       0.00000
      166.100       0.00000
      166.200       0.00000
      166.300       0.00000
      166.400       0.00000
      166.500       0.00000
      166.600       0.00000
      166.700       0.00000
      166.800       0.00000
      166.900       0.00000
      167.000       0.00000
      167.100       0.00000
      167.200       0.00000
      167.300       0.00000
      167.400       0.00000
      167.500       0.00000
      167.600       0.00000
      167.700       0.00000
      167.800       0.00000
      167.900       0.00000
      168.000       0.00000
      168.100       0.00000
      168.200       0.00000
      168.300       0.00000
      168.400       0.00000
      168.500       0.00000
      168.600       0.00000
      168.700       0.00000
      168.800       0.00000
      168.900       0.00000
      169.000       0.00000
      169.100       0.00000
      169.200       0.00000
      169.300       0.00000
      169.400       0.00000
      169.500       0.00000
      169.600       0.00000
      169.700       0.00000
      169.800       0.00000
      169.900       0.00000
      170.000       0.00000
      170.100       0.00000
      170.200       0.00000
      170.300       0.00000
      170.400       0.00000
      170.500       0.00000
      170.600   4.51036e-41
      170.700   6.73538e-26
      170.800   9.46667e-22
      170.900   1.57101e-21
      171.000   1.60255e-21
      171.100   1.63450e-21
      171.200   1.66684e-21
      171.300   1.69960e-21
      171.400   1.73274e-21
      171.500   1.76625e-21
      171.600   1.80017e-21
      171.700   1.83454e-21
      171.800   1.86936e-21
      171.900   1.90462e-21
      172.000   1.94039e-21
      172.100   1.97676e-21
      172.200   2.01369e-21
      172.300   2.05119e-21
      172.400   2.08914e-21
      172.500   2.12768e-21
      172.600   2.16694e-21
      172.700   2.20689e-21
      172.800   2.24752e-21
      172.900   2.28896e-21
      173.000   2.33109e-21
      173.100   2.37398e-21
      173.200   2.41767e-21
      173.300   2.46216e-21
      173.400   2.50752e-21
      173.500   2.55368e-21
      173.600   2.60069e-21
      173.700   2.64856e-21
      173.800   2.69737e-21
      173.900   2.74697e-21
      174.000   2.79749e-21
      174.100   2.84903e-21
      174.200   2.90139e-21
      174.300   2.95462e-21
      174.400   3.00887e-21
      174.500   3.06400e-21
      174.600   3.12015e-21
      174.700   3.17725e-21
      174.800   3.23526e-21
      174.900   3.29428e-21
      175.000   3.35433e-21
      175.100   3.41524e-21
      175.200   3.47736e-21
      175.300   3.54038e-21
      175.400   3.60453e-21
      175.500   3.66969e-21
      175.600   3.73583e-21
      175.700   3.80310e-21
      175.800   3.87155e-21
      175.900   3.94103e-21
      176.000   4.01157e-21
      176.100   4.08330e-21
      176.200   4.15617e-21
      176.300   4.23028e-21
      176.400   4.30551e-21
      176.500   4.38191e-21
      176.600   4.45964e-21
      176.700   4.53852e-21
      176.800   4.61858e-21
      176.900   4.69988e-21
      177.000   4.78254e-21
      177.100   4.86646e-21
      177.200   4.95156e-21
      177.300   5.03793e-21
      177.400   5.12568e-21
      177.500   5.21470e-21
      177.600   5.30497e-21
      177.700   5.39654e-21
      177.800   5.48938e-21
      177.900   5.58364e-21
      178.000   5.67958e-21
      178.100   5.77676e-21
      178.200   5.87537e-21
      178.300   5.97547e-21
      178.400   6.07685e-21
      178.500   6.17964e-21
      178.600   6.28391e-21
      178.700   6.38978e-21
      178.800   6.49699e-21
      178.900   6.60561e-21
      179.000   6.71572e-21
      179.100   6.82745e-21
      179.200   6.94085e-21
      179.300   7.05571e-21
      179.400   7.17218e-21
      179.500   7.29035e-21
      179.600   7.41051e-21
      179.700   7.53211e-21
      179.800   7.65547e-21
      179.900   7.78062e-21
      180.000   7.90784e-21
      180.100   8.03664e-21
      180.200   8.16743e-21
      180.300   8.30007e-21
      180.400   8.43488e-21
      180.500   8.57166e-21
      180.600   8.71029e-21
      180.700   8.85099e-21
      180.800   8.99548e-21
      180.900   9.14509e-21
      181.000   9.29832e-21
      181.100   9.45369e-21
      181.200   9.61167e-21
      181.300   9.77230e-21
      181.400   9.93515e-21
      181.500   1.01005e-20
      181.600   1.02685e-20
      181.700   1.04392e-20
      181.800   1.06124e-20
      181.900   1.07883e-20
      182.000   1.09670e-20
      182.100   1.11483e-20
      182.200   1.13329e-20
      182.300   1.15200e-20
      182.400   1.17100e-20
      182.500   1.19030e-20
      182.600   1.20993e-20
      182.700   1.22982e-20
      182.800   1.25001e-20
      182.900   1.27054e-20
      183.000   1.29137e-20
      183.100   1.31252e-20
      183.200   1.33399e-20
      183.300   1.35579e-20
      183.400   1.37794e-20
      183.500   1.40041e-20
      183.600   1.42322e-20
      183.700   1.44726e-20
      183.800   1.47549e-20
      183.900   1.50660e-20
      184.000   1.53826e-20
      184.100   1.57061e-20
      184.200   1.60358e-20
      184.300   1.63725e-20
      184.400   1.67156e-20
      184.500   1.70650e-20
      184.600   1.74213e-20
      184.700   1.77848e-20
      184.800   1.81552e-20
      184.900   1.85324e-20
      185.000   1.89168e-20
      185.100   1.93087e-20
      185.200   1.97082e-20
      185.300   2.01148e-20
      185.400   2.05289e-20
      185.500   2.09506e-20
      185.600   2.13803e-20
      185.700   2.18185e-20
      185.800   2.22647e-20
      185.900   2.27188e-20
      186.000   2.31822e-20
      186.100   2.36533e-20
      186.200   2.41326e-20
      186.300   2.46205e-20
      186.400   2.51174e-20
      186.500   2.56234e-20
      186.600   2.61378e-20
      186.700   2.66607e-20
      186.800   2.71928e-20
      186.900   2.77345e-20
      187.000   2.82857e-20
      187.100   2.88455e-20
      187.200   2.94155e-20
      187.300   2.99963e-20
      187.400   3.05868e-20
      187.500   3.11870e-20
      187.600   3.17973e-20
      187.700   3.24179e-20
      187.800   3.30495e-20
      187.900   3.36918e-20
      188.000   3.43441e-20
      188.100   3.50071e-20
      188.200   3.56815e-20
      188.300   3.63675e-20
      188.400   3.70651e-20
      188.500   3.77738e-20
      188.600   3.84945e-20
      188.700   3.92287e-20
      188.800   3.99743e-20
      188.900   4.07318e-20
      189.000   4.15018e-20
      189.100   4.22856e-20
      189.200   4.30819e-20
      189.300   4.38908e-20
      189.400   4.47129e-20
      189.500   4.55488e-20
      189.600   4.63996e-20
      189.700   4.72632e-20
      189.800   4.81455e-20
      189.900   4.90440e-20
      190.000   4.99589e-20
      190.100   5.08880e-20
      190.200   5.18328e-20
      190.300   5.27930e-20
      190.400   5.37699e-20
      190.500   5.47633e-20
      190.600   5.57725e-20
      190.700   5.67987e-20
      190.800   5.78417e-20
      190.900   5.89024e-20
      191.000   5.99834e-20
      191.100   6.10818e-20
      191.200   6.21989e-20
      191.300   6.33344e-20
      191.400   6.44895e-20
      191.500   6.56642e-20
      191.600   6.68576e-20
      191.700   6.80708e-20
      191.800   6.93055e-20
      191.900   7.05596e-20
      192.000   7.18336e-20
      192.100   7.31303e-20
      192.200   7.44502e-20
      192.300   7.57914e-20
      192.400   7.71566e-20
      192.500   7.85435e-20
      192.600   7.99522e-20
      192.700   8.13839e-20
      192.800   8.27702e-20
      192.900   8.40018e-20
      193.000   8.52317e-20
      193.100   8.64793e-20
      193.200   8.77467e-20
      193.300   8.90294e-20
      193.400   9.03284e-20
      193.500   9.16451e-20
      193.600   9.29803e-20
      193.700   9.43335e-20
      193.800   9.57038e-20
      193.900   9.70908e-20
      194.000   9.84978e-20
      194.100   9.99274e-20
      194.200   1.01374e-19
      194.300   1.02840e-19
      194.400   1.04326e-19
      194.500   1.05832e-19
      194.600   1.07359e-19
      194.700   1.08904e-19
      194.800   1.10470e-19
      194.900   1.12057e-19
      195.000   1.13665e-19
      195.100   1.15300e-19
      195.200   1.16953e-19
      195.300   1.18627e-19
      195.400   1.20323e-19
      195.500   1.22042e-19
      195.600   1.23783e-19
      195.700   1.25545e-19
      195.800   1.27311e-19
      195.900   1.28967e-19
      196.000   1.26091e-19
      196.100   1.23221e-19
      196.200   1.20416e-19
      196.300   1.17673e-19
      196.400   1.14991e-19
      196.500   1.12368e-19
      196.600   1.09804e-19
      196.700   1.07296e-19
      196.800   1.04847e-19
      196.900   1.02456e-19
      197.000   1.00117e-19
      197.100   9.78303e-20
      197.200   9.55935e-20
      197.300   9.34056e-20
      197.400   9.12648e-20
      197.500   8.91707e-20
      197.600   8.71231e-20
      197.700   8.51259e-20
      197.800   8.31738e-20
      197.900   8.12634e-20
      198.000   7.93948e-20
      198.100   7.75671e-20
      198.200   7.57792e-20
      198.300   7.40306e-20
      198.400   7.23206e-20
      198.500   7.06521e-20
      198.600   6.90219e-20
      198.700   6.74274e-20
      198.800   6.58683e-20
      198.900   6.43440e-20
      199.000   6.28526e-20
      199.100   6.13944e-20
      199.200   5.99692e-20
      199.300   5.85795e-20
      199.400   5.72221e-20
      199.500   5.58949e-20
      199.600   5.45969e-20
      199.700   5.33280e-20
      199.800   5.20879e-20
      199.900   5.08752e-20
      200.000   4.96897e-20
      200.100   4.85364e-20
      200.200   4.74073e-20
      200.300   4.63046e-20
      200.400   4.52266e-20
      200.500   4.41731e-20
      200.600   4.31440e-20
      200.700   4.21382e-20
      200.800   4.11548e-20
      200.900   4.01946e-20
      201.000   3.92570e-20
      201.100   3.83416e-20
      201.200   3.74473e-20
      201.300   3.65733e-20
      201.400   3.57196e-20
      201.500   3.48851e-20
      201.600   3.40698e-20
      201.700   3.32733e-20
      201.800   3.24950e-20
      201.900   3.17350e-20
      202.000   3.09937e-20
      202.100   3.02692e-20
      202.200   2.95615e-20
      202.300   2.88745e-20
      202.400   2.82116e-20
      202.500   2.75661e-20
      202.600   2.69349e-20
      202.700   2.63185e-20
      202.800   2.57164e-20
      202.900   2.51284e-20
      203.000   2.45539e-20
      203.100   2.39928e-20
      203.200   2.34442e-20
      203.300   2.29081e-20
      203.400   2.23843e-20
      203.500   2.18724e-20
      203.600   2.13724e-20
      203.700   2.08839e-20
      203.800   2.04071e-20
      203.900   1.99418e-20
      204.000   1.94870e-20
      204.100   1.90428e-20
      204.200   1.86090e-20
      204.300   1.81852e-20
      204.400   1.77711e-20
      204.500   1.73667e-20
      204.600   1.69716e-20
      204.700   1.65856e-20
      204.800   1.62090e-20
      204.900   1.58415e-20
      205.000   1.54824e-20
      205.100   1.51316e-20
      205.200   1.47889e-20
      205.300   1.44542e-20
      205.400   1.41272e-20
      205.500   1.38078e-20
      205.600   1.34730e-20
      205.700   1.31257e-20
      205.800   1.27845e-20
      205.900   1.24526e-20
      206.000   1.21297e-20
      206.100   1.18152e-20
      206.200   1.15088e-20
      206.300   1.12105e-20
      206.400   1.09200e-20
      206.500   1.06368e-20
      206.600   1.03612e-20
      206.700   1.00927e-20
      206.800   9.83096e-21
      206.900   9.57605e-21
      207.000   9.32782e-21
      207.100   9.08626e-21
      207.200   8.85106e-21
      207.300   8.62184e-21
      207.400   8.39850e-21
      207.500   8.18087e-21
      207.600   7.96887e-21
      207.700   7.76226e-21
      207.800   7.56093e-21
      207.900   7.36474e-21
      208.000   7.17361e-21
      208.100   6.98739e-21
      208.200   6.80591e-21
      208.300   6.62912e-21
      208.400   6.45709e-21
      208.500   6.28947e-21
      208.600   6.12608e-21
      208.700   5.96686e-21
      208.800   5.81176e-21
      208.900   5.64428e-21
      209.000   5.45265e-21
      209.100   5.26054e-21
      209.200   5.07509e-21
      209.300   4.89603e-21
      209.400   4.72325e-21
      209.500   4.55645e-21
      209.600   4.39544e-21
      209.700   4.24015e-21
      209.800   4.09052e-21
      209.900   3.94600e-21
      210.000   3.80656e-21
      210.100   3.67197e-21
      210.200   3.54205e-21
      210.300   3.41666e-21
      210.400   3.29565e-21
      210.500   3.17885e-21
      210.600   3.06613e-21
      210.700   2.95734e-21
      210.800   2.85235e-21
      210.900   2.75102e-21
      211.000   2.65322e-21
      211.100   2.55889e-21
      211.200   2.46780e-21
      211.300   2.38009e-21
      211.400   2.29548e-21
      211.500   2.21378e-21
      211.600   2.13497e-21
      211.700   2.05892e-21
      211.800   1.98549e-21
      211.900   1.91463e-21
      212.000   1.84631e-21
      212.100   1.78035e-21
      212.200   1.71670e-21
      212.300   1.65529e-21
      212.400   1.59603e-21
      212.500   1.53887e-21
      212.600   1.48372e-21
      212.700   1.43051e-21
      212.800   1.37917e-21
      212.900   1.32965e-21
      213.000   1.28189e-21
      213.100   1.23587e-21
      213.200   1.19148e-21
      213.300   1.14865e-21
      213.400   1.10734e-21
      213.500   1.06749e-21
      213.600   1.02904e-21
      213.700   9.91971e-22
      213.800   9.56203e-22
      213.900   9.21724e-22
      214.000   8.88457e-22
      214.100   8.56377e-22
      214.200   8.25452e-22
      214.300   7.95619e-22
      214.400   7.66848e-22
      214.500   7.39110e-22
      214.600   7.12372e-22
      214.700   6.86585e-22
      214.800   6.61723e-22
      214.900   6.37761e-22
      215.000   6.14647e-22
      215.100   5.92377e-22
      215.200   5.70923e-22
      215.300   5.50253e-22
      215.400   5.30319e-22
      215.500   5.11103e-22
      215.600   4.92593e-22
      215.700   4.74736e-22
      215.800   4.57525e-22
      215.900   4.40943e-22
      216.000   4.24954e-22
      216.100   4.09542e-22
      216.200   3.94689e-22
      216.300   3.80373e-22
      216.400   3.66578e-22
      216.500   3.53277e-22
      216.600   3.40460e-22
      216.700   3.28110e-22
      216.800   3.16204e-22
      216.900   3.04730e-22
      217.000   2.93672e-22
      217.100   2.83013e-22
      217.200   2.72743e-22
      217.300   2.62844e-22
      217.400   2.53302e-22
      217.500   2.44110e-22
      217.600   2.35249e-22
      217.700   2.26706e-22
      217.800   2.18476e-22
      217.900   2.10547e-22
      218.000   2.02910e-22
      218.100   1.95548e-22
      218.200   1.88454e-22
      218.300   1.81619e-22
      218.400   1.75031e-22
      218.500   1.68679e-22
      218.600   1.62560e-22
      218.700   1.56660e-22
      218.800   1.50975e-22
      218.900   1.45497e-22
      219.000   1.40216e-22
      219.100   1.35125e-22
      219.200   1.30220e-22
      219.300   1.25492e-22
      219.400   1.20934e-22
      219.500   1.16541e-22
      219.600   1.12308e-22
      219.700   1.08229e-22
      219.800   1.04297e-22
      219.900   1.00508e-22
      220.000   9.68549e-23
      220.100   9.33347e-23
      220.200   8.99417e-23
      220.300   8.66719e-23
      220.400   8.35206e-23
      220.500   8.04842e-23
      220.600   7.75579e-23
      220.700   7.47364e-23
      220.800   7.20167e-23
      220.900   6.93973e-23
      221.000   6.68716e-23
      221.100   6.44370e-23
      221.200   6.20918e-23
      221.300   5.98313e-23
      221.400   5.76525e-23
      221.500   5.55529e-23
      221.600   5.35295e-23
      221.700   5.15789e-23
      221.800   4.96985e-23
      221.900   4.78868e-23
      222.000   4.61413e-23
      222.100   4.44581e-23
      222.200   4.28367e-23
      222.300   4.12734e-23
      222.400   3.97673e-23
      222.500   3.83152e-23
      222.600   3.69163e-23
      222.700   3.55677e-23
      222.800   3.42680e-23
      222.900   3.30156e-23
      223.000   3.18084e-23
      223.100   3.06449e-23
      223.200   2.95239e-23
      223.300   2.84433e-23
      223.400   2.74021e-23
      223.500   2.63982e-23
      223.600   2.54313e-23
      223.700   2.44991e-23
      223.800   2.36007e-23
      223.900   2.27356e-23
      224.000   2.19012e-23
      224.100   2.10973e-23
      224.200   2.03225e-23
      224.300   1.95760e-23
      224.400   1.88565e-23
      224.500   1.81633e-23
      224.600   1.74950e-23
      224.700   1.68514e-23
      224.800   1.62311e-23
      224.900   1.56332e-23
      225.000   1.50572e-23
      225.100   1.45021e-23
      225.200   1.39672e-23
      225.300   1.34521e-23
      225.400   1.29555e-23
      225.500   1.24769e-23
      225.600   1.20158e-23
      225.700   1.15718e-23
      225.800   1.11437e-23
      225.900   1.07314e-23
      226.000   1.03342e-23
      226.100   9.95146e-24
      226.200   9.58267e-24
      226.300   9.22818e-24
      226.400   8.88708e-24
      226.500   8.55821e-24
      226.600   8.24121e-24
      226.700   7.93582e-24
      226.800   7.64140e-24
      226.900   7.35775e-24
      227.000   7.08454e-24
      227.100   6.82126e-24
      227.200   6.56772e-24
      227.300   6.32348e-24
      227.400   6.08820e-24
      227.500   5.86158e-24
      227.600   5.64328e-24
      227.700   5.43301e-24
      227.800   5.23051e-24
      227.900   5.03549e-24
      228.000   4.84767e-24
      228.100   4.66676e-24
      228.200   4.49249e-24
      228.300   4.32469e-24
      228.400   4.16314e-24
      228.500   4.00751e-24
      228.600   3.85766e-24
      228.700   3.71336e-24
      228.800   3.57438e-24
      228.900   3.44062e-24
      229.000   3.31178e-24
      229.100   3.18774e-24
      229.200   3.06830e-24
      229.300   2.95330e-24
      229.400   2.84258e-24
      229.500   2.73599e-24
      229.600   2.63334e-24
      229.700   2.53453e-24
      229.800   2.43940e-24
      229.900   2.34782e-24
      230.000   2.25879e-24
      230.100   2.16702e-24
      230.200   2.07874e-24
      230.300   1.99407e-24
      230.400   1.91282e-24
      230.500   1.83487e-24
      230.600   1.76014e-24
      230.700   1.68842e-24
      230.800   1.61961e-24
      230.900   1.55360e-24
      231.000   1.49025e-24
      231.100   1.42947e-24
      231.200   1.37115e-24
      231.300   1.31521e-24
      231.400   1.26156e-24
      231.500   1.21005e-24
      231.600   1.16063e-24
      231.700   1.11323e-24
      231.800   1.06776e-24
      231.900   1.02413e-24
      232.000   9.82277e-25
      232.100   9.42115e-25
      232.200   9.03594e-25
      232.300   8.66643e-25
      232.400   8.31188e-25
      232.500   7.97167e-25
      232.600   7.64539e-25
      232.700   7.33239e-25
      232.800   7.03214e-25
      232.900   6.74407e-25
      233.000   6.46773e-25
      233.100   6.20272e-25
      233.200   5.94842e-25
      233.300   5.70455e-25
      233.400   5.47063e-25
      233.500   5.24644e-25
      233.600   5.03153e-25
      233.700   4.82526e-25
      233.800   4.60298e-25
      233.900   4.38770e-25
      234.000   4.18230e-25
      234.100   3.98649e-25
      234.200   3.79981e-25
      234.300   3.62178e-25
      234.400   3.45201e-25
      234.500   3.29016e-25
      234.600   3.13579e-25
      234.700   2.98865e-25
      234.800   2.84838e-25
      234.900   2.71461e-25
      235.000   2.58704e-25
      235.100   2.46544e-25
      235.200   2.34952e-25
      235.300   2.23900e-25
      235.400   2.13362e-25
      235.500   2.03317e-25
      235.600   1.93744e-25
      235.700   1.84619e-25
      235.800   1.75938e-25
      235.900   1.67662e-25
      236.000   1.59773e-25
      236.100   1.52251e-25
      236.200   1.45080e-25
      236.300   1.38244e-25
      236.400   1.31729e-25
      236.500   1.25517e-25
      236.600   1.19596e-25
      236.700   1.13952e-25
      236.800   1.08571e-25
      236.900   1.03442e-25
      237.000   9.85535e-26
      237.100   9.38931e-26
      237.200   8.94521e-26
      237.300   8.52188e-26
      237.400   8.11839e-26
      237.500   7.73376e-26
      237.600   7.36741e-26
      237.700   7.01897e-26
      237.800   6.68687e-26
      237.900   6.37030e-26
      238.000   6.06864e-26
      238.100   5.78101e-26
      238.200   5.50689e-26
      238.300   5.24564e-26
      238.400   4.99663e-26
      238.500   4.75927e-26
      238.600   4.53309e-26
      238.700   4.31758e-26
      238.800   4.11215e-26
      238.900   3.91638e-26
      239.000   3.72978e-26
      239.100   3.55199e-26
      239.200   3.38260e-26
      239.300   3.22144e-26
      239.400   3.06811e-26
      239.500   2.92197e-26
      239.600   2.78267e-26
      239.700   2.64999e-26
      239.800   2.52351e-26
      239.900   2.40299e-26
      240.000   2.28814e-26
      240.100   2.17868e-26
      240.200   2.07439e-26
      240.300   1.97502e-26
      240.400   1.88031e-26
      240.500   1.79012e-26
      240.600   1.70419e-26
      240.700   1.62231e-26
      240.800   1.54444e-26
      240.900   1.47038e-26
      241.000   1.39983e-26
      241.100   1.33260e-26
      241.200   1.26856e-26
      241.300   1.20754e-26
      241.400   1.14942e-26
      241.500   1.09405e-26
      241.600   1.04131e-26
      241.700   9.91063e-27
      241.800   9.43197e-27
      241.900   8.97602e-27
      242.000   8.54182e-27
      242.100   8.12837e-27
      242.200   7.73548e-27
      242.300   7.36195e-27
      242.400   7.00607e-27
      242.500   6.66711e-27
      242.600   6.34431e-27
      242.700   6.03684e-27
      242.800   5.74410e-27
      242.900   5.46531e-27
      243.000   5.19983e-27
      243.100   4.94704e-27
      243.200   4.70626e-27
      243.300   4.47705e-27
      243.400   4.25890e-27
      243.500   4.05162e-27
      243.600   3.85474e-27
      243.700   3.66717e-27
      243.800   3.48860e-27
      243.900   3.31865e-27
      244.000   3.15679e-27
      244.100   3.00271e-27
      244.200   2.85605e-27
      244.300   2.71639e-27
      244.400   2.58347e-27
      244.500   2.45695e-27
      244.600   2.33652e-27
      244.700   2.22209e-27
      244.800   2.11351e-27
      244.900   2.01016e-27
      245.000   1.91174e-27
      245.100   1.81807e-27
      245.200   1.72895e-27
      245.300   1.64412e-27
      245.400   1.56336e-27
      245.500   1.48654e-27
      245.600   1.41341e-27
      245.700   1.34381e-27
      245.800   1.27758e-27
      245.900   1.21479e-27
      246.000   1.15514e-27
      246.100   1.09835e-27
      246.200   1.04431e-27
      246.300   9.92880e-28
      246.400   9.43954e-28
      246.500   8.97390e-28
      246.600   8.53082e-28
      246.700   8.10931e-28
      246.800   7.70811e-28
      246.900   7.32649e-28
      247.000   6.96475e-28
      247.100   6.62111e-28
      247.200   6.29418e-28
      247.300   5.98315e-28
      247.400   5.68719e-28
      247.500   5.40560e-28
      247.600   5.13771e-28
      247.700   4.88286e-28
      247.800   4.64042e-28
      247.900   4.40979e-28
      248.000   4.19046e-28
      248.100   3.98310e-28
      248.200   3.78576e-28
      248.300   3.59799e-28
      248.400   3.41939e-28
      248.500   3.24945e-28
      248.600   3.08782e-28
      248.700   2.93411e-28
      248.800   2.78789e-28
      248.900   2.64884e-28
      249.000   2.51661e-28
      249.100   2.39146e-28
      249.200   2.27258e-28
      249.300   2.15946e-28
      249.400   2.05186e-28
      249.500   1.94955e-28
      249.600   1.85223e-28
      249.700   1.75968e-28
      249.800   1.67167e-28
      249.900   1.58798e-28
      250.000   1.50841e-28
      250.100   1.43303e-28
      250.200   1.36147e-28
      250.300   1.29349e-28
      250.400   1.22884e-28
      250.500   1.16739e-28
      250.600   1.10898e-28
      250.700   1.05344e-28
      250.800   1.00065e-28
      250.900   9.50474e-29
      251.000   9.02781e-29
      251.100   8.57447e-29
      251.200   8.14440e-29
      251.300   7.73658e-29
      251.400   7.34901e-29
      251.500   6.98043e-29
      251.600   6.63016e-29
      251.700   6.29746e-29
      251.800   5.98115e-29
      251.900   5.68052e-29
      252.000   5.39479e-29
      252.100   5.12339e-29
      252.200   4.86539e-29
      252.300   4.62065e-29
      252.400   4.38848e-29
      252.500   4.16800e-29
      252.600   3.95840e-29
      252.700   3.75925e-29
      252.800   3.57003e-29
      252.900   3.39023e-29
      253.000   3.21937e-29
      253.100   3.05705e-29
      253.200   2.90282e-29
      253.300   2.75732e-29
      253.400   2.61947e-29
      253.500   2.48866e-29
      253.600   2.36457e-29
      253.700   2.24657e-29
      253.800   2.13443e-29
      253.900   2.02784e-29
      254.000   1.92650e-29
      254.100   1.83016e-29
      254.200   1.73859e-29
      254.300   1.65156e-29
      254.400   1.56883e-29
      254.500   1.49019e-29
      254.600   1.41546e-29
      254.700   1.34445e-29
      254.800   1.27717e-29
      254.900   1.21322e-29
      255.000   1.15245e-29
      255.100   1.09467e-29
      255.200   1.03975e-29
      255.300   9.87580e-30
      255.400   9.37987e-30
      255.500   8.90861e-30
      255.600   8.46083e-30
      255.700   8.03528e-30
      255.800   7.63087e-30
      255.900   7.24651e-30
      256.000   6.88132e-30
      256.100   6.53482e-30
      256.200   6.20610e-30
      256.300   5.89373e-30
      256.400   5.59710e-30
      256.500   5.31500e-30
      256.600   5.04708e-30
      256.700   4.79255e-30
      256.800   4.55066e-30
      256.900   4.32082e-30
      257.000   4.10250e-30
      257.100   3.89507e-30
      257.200   3.69809e-30
      257.300   3.51090e-30
      257.400   3.35660e-30
      257.500   3.21745e-30
      257.600   3.08467e-30
      257.700   2.95739e-30
      257.800   2.83529e-30
      257.900   2.71822e-30
      258.000   2.60592e-30
      258.100   2.49821e-30
      258.200   2.39493e-30
      258.300   2.29591e-30
      258.400   2.20089e-30
      258.500   2.10975e-30
      258.600   2.02239e-30
      258.700   1.93861e-30
      258.800   1.85825e-30
      258.900   1.78123e-30
      259.000   1.70732e-30
      259.100   1.63648e-30
      259.200   1.56860e-30
      259.300   1.50361e-30
      259.400   1.44128e-30
      259.500   1.38149e-30
      259.600   1.32417e-30
      259.700   1.26922e-30
      259.800   1.21651e-30
      259.900   1.16594e-30
      260.000   1.11750e-30
      260.100   1.07104e-30
      260.200   1.02649e-30
      260.300   9.83773e-31
      260.400   9.42828e-31
      260.500   9.03577e-31
      260.600   8.65933e-31
      260.700   8.29839e-31
      260.800   7.95265e-31
      260.900   7.62090e-31
      261.000   7.30319e-31
      261.100   6.99894e-31
      261.200   6.70724e-31
      261.300   6.42754e-31
      261.400   6.15953e-31
      261.500   5.92830e-31
      261.600   5.78921e-31
      261.700   5.66780e-31
      261.800   5.54897e-31
      261.900   5.43254e-31
      262.000   5.31855e-31
      262.100   5.20692e-31
      262.200   5.09768e-31
      262.300   4.99064e-31
      262.400   4.88584e-31
      262.500   4.78325e-31
      262.600   4.68277e-31
      262.700   4.58440e-31
      262.800   4.48807e-31
      262.900   4.39365e-31
      263.000   4.30139e-31
      263.100   4.21095e-31
      263.200   4.12244e-31
      263.300   4.03580e-31
      263.400   3.95093e-31
      263.500   3.86785e-31
      263.600   3.78655e-31
      263.700   3.70690e-31
      263.800   3.62888e-31
      263.900   3.55256e-31
      264.000   3.47781e-31
      264.100   3.40459e-31
      264.200   3.33290e-31
      264.300   3.26275e-31
      264.400   3.19405e-31
      264.500   3.12677e-31
      264.600   3.06087e-31
      264.700   2.99638e-31
      264.800   2.93322e-31
      264.900   2.87143e-31
      265.000   2.81090e-31
      265.100   2.75162e-31
      265.200   2.69359e-31
      265.300   2.63677e-31
      265.400   2.58117e-31
      265.500   2.52672e-31
      265.600   2.47341e-31
      265.700   2.42120e-31
      265.800   2.37017e-31
      265.900   2.32021e-31
      266.000   2.27133e-31
      266.100   2.22349e-31
      266.200   2.17662e-31
      266.300   2.13074e-31
      266.400   2.08582e-31
      266.500   2.04184e-31
      266.600   1.99880e-31
      266.700   1.95664e-31
      266.800   1.91541e-31
      266.900   1.87501e-31
      267.000   1.83547e-31
      267.100   1.79677e-31
      267.200   1.75890e-31
      267.300   1.72182e-31
      267.400   1.68549e-31
      267.500   1.64994e-31
      267.600   1.61514e-31
      267.700   1.58107e-31
      267.800   1.54772e-31
      267.900   1.51507e-31
      268.000   1.48313e-31
      268.100   1.45185e-31
      268.200   1.42124e-31
      268.300   1.39128e-31
      268.400   1.36193e-31
      268.500   1.33321e-31
      268.600   1.30509e-31
      268.700   1.27758e-31
      268.800   1.25064e-31
      268.900   1.22427e-31
      269.000   1.19847e-31
      269.100   1.17320e-31
      269.200   1.14848e-31
      269.300   1.12428e-31
      269.400   1.10058e-31
      269.500   1.07738e-31
      269.600   1.05469e-31
      269.700   1.03246e-31
      269.800   1.01072e-31
      269.900   9.89424e-32
      270.000   9.68603e-32
      270.100   9.48222e-32
      270.200   9.28305e-32
      270.300   9.08793e-32
      270.400   8.89691e-32
      270.500   8.71000e-32
      270.600   8.52698e-32
      270.700   8.34790e-32
      270.800   8.17264e-32
      270.900   8.00098e-32
      271.000   7.83297e-32
      271.100   7.66847e-32
      271.200   7.50743e-32
      271.300   7.34991e-32
      271.400   7.19561e-32
      271.500   7.04470e-32
      271.600   6.89681e-32
      271.700   6.75211e-32
      271.800   6.61046e-32
      271.900   6.47183e-32
      272.000   6.33614e-32
      272.100   6.20327e-32
      272.200   6.07317e-32
      272.300   5.94582e-32
      272.400   5.82115e-32
      272.500   5.69915e-32
      272.600   5.57969e-32
      272.700   5.46276e-32
      272.800   5.34826e-32
      272.900   5.23619e-32
      273.000   5.12652e-32
      273.100   5.01913e-32
      273.200   4.91401e-32
      273.300   4.81111e-32
      273.400   4.71034e-32
      273.500   4.61171e-32
      273.600   4.51515e-32
      273.700   4.42058e-32
      273.800   4.32801e-32
      273.900   4.23747e-32
      274.000   4.14877e-32
      274.100   4.06196e-32
      274.200   3.97695e-32
      274.300   3.89374e-32
      274.400   3.81143e-32
      274.500   3.72906e-32
      274.600   3.64810e-32
      274.700   3.56890e-32
      274.800   3.49143e-32
      274.900   3.41561e-32
      275.000   3.34144e-32
      275.100   3.26890e-32
      275.200   3.19791e-32
      275.300   3.12845e-32
      275.400   3.06055e-32
      275.500   2.99412e-32
      275.600   2.92910e-32
      275.700   2.86549e-32
      275.800   2.80329e-32
      275.900   2.74244e-32
      276.000   2.68292e-32
      276.100   2.62466e-32
      276.200   2.56766e-32
      276.300   2.51190e-32
      276.400   2.45737e-32
      276.500   2.40401e-32
      276.600   2.35183e-32
      276.700   2.30075e-32
      276.800   2.25080e-32
      276.900   2.20191e-32
      277.000   2.15410e-32
      277.100   2.10731e-32
      277.200   2.06155e-32
      277.300   2.01678e-32
      277.400   1.97299e-32
      277.500   1.93011e-32
      277.600   1.88820e-32
      277.700   1.84718e-32
      277.800   1.80702e-32
      277.900   1.76777e-32
      278.000   1.72938e-32
      278.100   1.69182e-32
      278.200   1.65505e-32
      278.300   1.61909e-32
      278.400   1.58392e-32
      278.500   1.54948e-32
      278.600   1.51579e-32
      278.700   1.48286e-32
      278.800   1.45064e-32
      278.900   1.41902e-32
      279.000   1.38807e-32
      279.100   1.35779e-32
      279.200   1.32815e-32
      279.300   1.29919e-32
      279.400   1.27082e-32
      279.500   1.24309e-32
      279.600   1.21596e-32
      279.700   1.18943e-32
      279.800   1.16347e-32
      279.900   1.13806e-32
      280.000   1.11321e-32
      280.100   1.08890e-32
      280.200   1.06512e-32
      280.300   1.04185e-32
      280.400   1.01909e-32
      280.500   9.96846e-33
      280.600   9.75070e-33
      280.700   9.53761e-33
      280.800   9.32923e-33
      280.900   9.12532e-33
      281.000   8.92585e-33
      281.100   8.73069e-33
      281.200   8.53980e-33
      281.300   8.35310e-33
      281.400   8.17052e-33
      281.500   7.99178e-33
      281.600   7.81687e-33
      281.700   7.64584e-33
      281.800   7.47861e-33
      281.900   7.31495e-33
      282.000   7.15487e-33
      282.100   6.99823e-33
      282.200   6.84511e-33
      282.300   6.69522e-33
      282.400   6.54861e-33
      282.500   6.40514e-33
      282.600   6.26484e-33
      282.700   6.12753e-33
      282.800   5.99326e-33
      282.900   5.86201e-33
      283.000   5.73353e-33
      283.100   5.60791e-33
      283.200   5.48507e-33
      283.300   5.36485e-33
      283.400   5.24727e-33
      283.500   5.13232e-33
      283.600   5.01979e-33
      283.700   4.90970e-33
      283.800   4.80202e-33
      283.900   4.69675e-33
      284.000   4.59369e-33
      284.100   4.49285e-33
      284.200   4.39423e-33
      284.300   4.29781e-33
      284.400   4.20347e-33
      284.500   4.11119e-33
      284.600   4.02093e-33
      284.700   3.93264e-33
      284.800   3.84627e-33
      284.900   3.76178e-33
      285.000   3.67908e-33
      285.100   3.59822e-33
      285.200   3.51915e-33
      285.300   3.44178e-33
      285.400   3.36609e-33
      285.500   3.29203e-33
      285.600   3.21969e-33
      285.700   3.14884e-33
      285.800   3.07959e-33
      285.900   3.01184e-33
      286.000   2.94559e-33
      286.100   2.88084e-33
      286.200   2.81745e-33
      286.300   2.75550e-33
      286.400   2.69489e-33
      286.500   2.63558e-33
      286.600   2.57755e-33
      286.700   2.52080e-33
      286.800   2.46531e-33
      286.900   2.41103e-33
      287.000   2.35792e-33
      287.100   2.30597e-33
      287.200   2.25518e-33
      287.300   2.20549e-33
      287.400   2.15688e-33
      287.500   2.10934e-33
      287.600   2.06286e-33
      287.700   2.01737e-33
      287.800   1.97289e-33
      287.900   1.92938e-33
      288.000   1.88684e-33
      288.100   1.84522e-33
      288.200   1.80455e-33
      288.300   1.76478e-33
      288.400   1.72588e-33
      288.500   1.68783e-33
      288.600   1.65059e-33
      288.700   1.61420e-33
      288.800   1.57859e-33
      288.900   1.54378e-33
      289.000   1.50972e-33
      289.100   1.47640e-33
      289.200   1.44382e-33
      289.300   1.41196e-33
      289.400   1.38079e-33
      289.500   1.35030e-33
      289.600   1.32048e-33
      289.700   1.29135e-33
      289.800   1.26282e-33
      289.900   1.23491e-33
      290.000   1.20765e-33
      290.100   1.18096e-33
      290.200   1.15491e-33
      290.300   1.12941e-33
      290.400   1.10448e-33
      290.500   1.08011e-33
      290.600   1.05626e-33
      290.700   1.03293e-33
      290.800   1.01013e-33
      290.900   9.87821e-34
      291.000   9.65989e-34
      291.100   9.44640e-34
      291.200   9.23769e-34
      291.300   9.03353e-34
      291.400   8.83393e-34
      291.500   8.63861e-34
      291.600   8.44760e-34
      291.700   8.26088e-34
      291.800   8.07817e-34
      291.900   7.89977e-34
      292.000   7.72540e-34
      292.100   7.55476e-34
      292.200   7.38791e-34
      292.300   7.22462e-34
      292.400   7.06496e-34
      292.500   6.90877e-34
      292.600   6.75603e-34
      292.700   6.60667e-34
      292.800   6.46058e-34
      292.900   6.31771e-34
      293.000   6.17800e-34
      293.100   6.04134e-34
      293.200   5.90768e-34
      293.300   5.77690e-34
      293.400   5.64920e-34
      293.500   5.52431e-34
      293.600   5.40222e-34
      293.700   5.28275e-34
      293.800   5.16597e-34
      293.900   5.05175e-34
      294.000   4.94000e-34
      294.100   4.83074e-34
      294.200   4.72392e-34
      294.300   4.61946e-34
      294.400   4.51722e-34
      294.500   4.41726e-34
      294.600   4.31945e-34
      294.700   4.22385e-34
      294.800   4.13033e-34
      294.900   4.03889e-34
      295.000   3.94959e-34
      295.100   3.86229e-34
      295.200   3.77687e-34
      295.300   3.69328e-34
      295.400   3.61156e-34
      295.500   3.53168e-34
      295.600   3.45351e-34
      295.700   3.37707e-34
      295.800   3.30231e-34
      295.900   3.22915e-34
      296.000   3.15765e-34
      296.100   3.08766e-34
      296.200   3.01928e-34
      296.300   2.95242e-34
      296.400   2.88716e-34
      296.500   2.82323e-34
      296.600   2.76076e-34
      296.700   2.69965e-34
      296.800   2.63989e-34
      296.900   2.58143e-34
      297.000   2.52426e-34
      297.100   2.46832e-34
      297.200   2.41364e-34
      297.300   2.36016e-34
      297.400   2.30786e-34
      297.500   2.25667e-34
      297.600   2.20669e-34
      297.700   2.15783e-34
      297.800   2.11005e-34
      297.900   2.06334e-34
      298.000   2.01765e-34
      298.100   1.97295e-34
      298.200   1.92924e-34
      298.300   1.88650e-34
      298.400   1.84468e-34
      298.500   1.80378e-34
      298.600   1.76378e-34
      298.700   1.72466e-34
      298.800   1.68638e-34
      298.900   1.64902e-34
      299.000   1.61251e-34
      299.100   1.57679e-34
      299.200   1.54184e-34
      299.300   1.50766e-34
      299.400   1.47424e-34
      299.500   1.44155e-34
      299.600   1.40957e-34
      299.700   1.37830e-34
      299.800   1.34770e-34
      299.900   1.31780e-34
      300.000   1.28855e-34
      300.100   1.25995e-34
      300.192   1.23422e-34
      300.285   1.20871e-34
      300.377   1.18403e-34
      300.470   1.15959e-34
      300.562   1.13590e-34
      300.654   1.11269e-34
      300.747   1.08970e-34
      300.839   1.06744e-34
      300.932   1.04537e-34
      301.025   1.02378e-34
      301.117   1.00286e-34
      301.210   9.82125e-35
      301.303   9.61842e-35
      301.395   9.42192e-35
      301.488   9.22706e-35
      301.581   9.03643e-35
      301.674   8.84966e-35
      301.766   8.66861e-35
      301.859   8.48939e-35
      301.952   8.31394e-35
      302.045   8.14205e-35
      302.138   7.98566e-35
      302.231   7.85900e-35
      302.324   7.73548e-35
      302.417   7.61405e-35
      302.510   7.49433e-35
      302.603   7.37670e-35
      302.696   7.26071e-35
      302.789   7.14655e-35
      302.882   7.03417e-35
      302.976   6.92253e-35
      303.069   6.81370e-35
      303.162   6.70656e-35
      303.255   6.60104e-35
      303.349   6.49611e-35
      303.442   6.39389e-35
      303.535   6.29332e-35
      303.629   6.19323e-35
      303.722   6.09581e-35
      303.816   5.99892e-35
      303.909   5.90446e-35
      304.003   5.81053e-35
      304.096   5.71907e-35
      304.190   5.62807e-35
      304.283   5.53942e-35
      304.377   5.45128e-35
      304.471   5.36445e-35
      304.564   5.27993e-35
      304.658   5.19595e-35
      304.752   5.11316e-35
      304.846   5.03173e-35
      304.939   4.95244e-35
      305.033   4.87353e-35
      305.127   4.79585e-35
      305.221   4.71942e-35
      305.315   4.64428e-35
      305.409   4.57019e-35
      305.503   4.49735e-35
      305.597   4.42570e-35
      305.691   4.35511e-35
      305.785   4.28568e-35
      305.879   4.21730e-35
      305.973   4.15003e-35
      306.067   4.08380e-35
      306.161   4.01865e-35
      306.255   3.95453e-35
      306.350   3.89074e-35
      306.444   3.82861e-35
      306.538   3.76751e-35
      306.633   3.70675e-35
      306.727   3.64756e-35
      306.821   3.58931e-35
      306.916   3.53137e-35
      307.010   3.47584e-35
      307.105   3.42338e-35
      307.199   3.37268e-35
      307.294   3.32218e-35
      307.388   3.27299e-35
      307.483   3.22401e-35
      307.577   3.17626e-35
      307.672   3.12870e-35
      307.767   3.08186e-35
      307.861   3.03619e-35
      307.956   2.99067e-35
      308.051   2.94585e-35
      308.146   2.90175e-35
      308.240   2.85870e-35
      308.335   2.81584e-35
      308.430   2.77360e-35
      308.525   2.73202e-35
      308.620   2.69106e-35
      308.715   2.65070e-35
      308.810   2.61096e-35
      308.905   2.57179e-35
      309.000   2.53317e-35
      309.095   2.49516e-35
      309.190   2.45774e-35
      309.285   2.42086e-35
      309.380   2.38452e-35
      309.476   2.34837e-35
      309.571   2.31311e-35
      309.666   2.27837e-35
      309.761   2.24416e-35
      309.857   2.21011e-35
      309.952   2.17689e-35
      310.047   2.14419e-35
      310.143   2.11164e-35
      310.238   2.07992e-35
      310.334   2.04833e-35
      310.429   2.01754e-35
      310.525   1.98689e-35
      310.620   1.95703e-35
      310.716   1.92729e-35
      310.811   1.89834e-35
      310.907   1.86950e-35
      311.003   1.84109e-35
      311.098   1.81339e-35
      311.194   1.78582e-35
      311.290   1.75870e-35
      311.386   1.73198e-35
      311.481   1.70592e-35
      311.577   1.67998e-35
      311.673   1.65445e-35
      311.769   1.62929e-35
      311.865   1.60451e-35
      311.961   1.58019e-35
      312.057   1.55658e-35
      312.153   1.53345e-35
      312.249   1.51065e-35
      312.345   1.48820e-35
      312.441   1.46608e-35
      312.537   1.44429e-35
      312.633   1.42282e-35
      312.730   1.40144e-35
      312.826   1.38060e-35
      312.922   1.36007e-35
      313.018   1.33985e-35
      313.115   1.31972e-35
      313.211   1.30008e-35
      313.307   1.28075e-35
      313.404   1.26150e-35
      313.500   1.24273e-35
      313.597   1.22407e-35
      313.693   1.20586e-35
      313.790   1.18774e-35
      313.886   1.17007e-35
      313.983   1.15247e-35
      314.079   1.13532e-35
      314.176   1.11826e-35
      314.273   1.10144e-35
      314.369   1.08507e-35
      314.466   1.06877e-35
      314.563   1.05270e-35
      314.660   1.03687e-35
      314.756   1.02144e-35
      314.853   1.00607e-35
      314.950   9.90943e-36
      315.047   9.76048e-36
      315.144   9.61375e-36
      315.241   9.46918e-36
      315.338   9.32680e-36
      315.435   9.18652e-36
      315.532   9.04832e-36
      315.629   8.91221e-36
      315.726   8.77822e-36
      315.823   8.64609e-36
      315.921   8.51472e-36
      316.018   8.38666e-36
      316.115   8.26054e-36
      316.212   8.13624e-36
      316.310   8.01257e-36
      316.407   7.89200e-36
      316.504   7.77322e-36
      316.602   7.65508e-36
      316.699   7.53994e-36
      316.796   7.42641e-36
      316.894   7.31353e-36
      316.991   7.20374e-36
      317.089   7.09616e-36
      317.187   6.99102e-36
      317.284   6.88850e-36
      317.382   6.78643e-36
      317.479   6.68684e-36
      317.577   6.58772e-36
      317.675   6.49009e-36
      317.773   6.39387e-36
      317.870   6.30010e-36
      317.968   6.20669e-36
      318.066   6.11464e-36
      318.164   6.02397e-36
      318.262   5.93465e-36
      318.360   5.84665e-36
      318.458   5.75998e-36
      318.556   5.67465e-36
      318.654   5.59051e-36
      318.752   5.50757e-36
      318.850   5.42592e-36
      318.948   5.34544e-36
      319.046   5.26616e-36
      319.144   5.18802e-36
      319.242   5.11106e-36
      319.341   5.03448e-36
      319.439   4.95979e-36
      319.537   4.88625e-36
      319.635   4.81376e-36
      319.734   4.74159e-36
      319.832   4.67126e-36
      319.930   4.60191e-36
      320.029   4.53290e-36
      320.127   4.46564e-36
      320.226   4.39871e-36
      320.324   4.33339e-36
      320.423   4.26835e-36
      320.522   4.20440e-36
      320.620   4.14198e-36
      320.719   4.07983e-36
      320.818   4.01864e-36
      320.916   3.95896e-36
      321.015   3.89956e-36
      321.114   3.84103e-36
      321.213   3.78338e-36
      321.311   3.72720e-36
      321.410   3.67129e-36
      321.509   3.61614e-36
      321.608   3.56187e-36
      321.707   3.50840e-36
      321.806   3.45572e-36
      321.905   3.40384e-36
      322.004   3.35273e-36
      322.103   3.30239e-36
      322.202   3.25275e-36
      322.301   3.20390e-36
      322.401   3.15532e-36
      322.500   3.10792e-36
      322.599   3.06124e-36
      322.698   3.01523e-36
      322.798   2.96945e-36
      322.897   2.92483e-36
      322.996   2.88088e-36
      323.096   2.83712e-36
      323.195   2.79447e-36
      323.294   2.75243e-36
      323.394   2.71061e-36
      323.493   2.66985e-36
      323.593   2.62932e-36
      323.692   2.58976e-36
      323.792   2.55040e-36
      323.892   2.51162e-36
      323.991   2.47380e-36
      324.091   2.43622e-36
      324.191   2.39919e-36
      324.291   2.36270e-36
      324.390   2.32714e-36
      324.490   2.29174e-36
      324.590   2.25688e-36
      324.690   2.22254e-36
      324.790   2.18872e-36
      324.890   2.15543e-36
      324.990   2.12264e-36
      325.090   2.09033e-36
      325.190   2.05849e-36
      325.290   2.02717e-36
      325.390   1.99628e-36
      325.490   1.96589e-36
      325.590   1.93596e-36
      325.690   1.90644e-36
      325.790   1.87738e-36
      325.891   1.84850e-36
      325.991   1.82032e-36
      326.091   1.79257e-36
      326.192   1.76496e-36
      326.292   1.73805e-36
      326.392   1.71156e-36
      326.493   1.68519e-36
      326.593   1.65948e-36
      326.694   1.63392e-36
      326.794   1.60898e-36
      326.895   1.58418e-36
      326.995   1.56000e-36
      327.096   1.53594e-36
      327.197   1.51225e-36
      327.297   1.48916e-36
      327.398   1.46619e-36
      327.499   1.44358e-36
      327.599   1.42152e-36
      327.700   1.39958e-36
      327.801   1.37796e-36
      327.902   1.35670e-36
      328.003   1.33575e-36
      328.104   1.31513e-36
      328.205   1.29482e-36
      328.306   1.27482e-36
      328.407   1.25513e-36
      328.508   1.23572e-36
      328.609   1.21662e-36
      328.710   1.19780e-36
      328.811   1.17928e-36
      328.912   1.16105e-36
      329.013   1.14308e-36
      329.115   1.12524e-36
      329.216   1.10783e-36
      329.317   1.09067e-36
      329.419   1.07364e-36
      329.520   1.05701e-36
      329.621   1.04063e-36
      329.723   1.02435e-36
      329.824   1.00850e-36
      329.926   9.92720e-37
      330.027   9.77336e-37
      330.129   9.62038e-37
      330.230   9.47132e-37
      330.332   9.32300e-37
      330.434   9.17698e-37
      330.535   9.03468e-37
      330.637   8.89312e-37
      330.739   8.75376e-37
      330.840   8.61789e-37
      330.942   8.48280e-37
      331.044   8.34984e-37
      331.146   8.21885e-37
      331.248   8.08997e-37
      331.350   7.96313e-37
      331.452   7.83839e-37
      331.554   7.71979e-37
      331.656   7.60951e-37
      331.758   7.50082e-37
      331.860   7.39358e-37
      331.962   7.28794e-37
      332.064   7.18377e-37
      332.166   7.08119e-37
      332.268   6.97990e-37
      332.371   6.87916e-37
      332.473   6.78073e-37
      332.575   6.68364e-37
      332.677   6.58800e-37
      332.780   6.49280e-37
      332.882   6.39988e-37
      332.985   6.30738e-37
      333.087   6.21703e-37
      333.190   6.12716e-37
      333.292   6.03756e-37
      333.395   5.94352e-37
      333.497   5.85002e-37
      333.600   5.75711e-37
      333.702   5.66653e-37
      333.805   5.57649e-37
      333.908   5.48783e-37
      334.011   5.40063e-37
      334.113   5.31558e-37
      334.216   5.23104e-37
      334.319   5.14787e-37
      334.422   5.06592e-37
      334.525   4.98533e-37
      334.628   4.90598e-37
      334.731   4.82793e-37
      334.834   4.75111e-37
      334.937   4.67548e-37
      335.040   4.60102e-37
      335.143   4.52778e-37
      335.246   4.45565e-37
      335.349   4.38466e-37
      335.452   4.31480e-37
      335.555   4.24605e-37
      335.659   4.17775e-37
      335.762   4.11119e-37
      335.865   4.04572e-37
      335.969   3.98059e-37
      336.072   3.91707e-37
      336.175   3.85462e-37
      336.279   3.79257e-37
      336.382   3.73211e-37
      336.486   3.67198e-37
      336.589   3.61337e-37
      336.693   3.55522e-37
      336.796   3.49850e-37
      336.900   3.44215e-37
      337.004   3.38666e-37
      337.107   3.33262e-37
      337.211   3.27892e-37
      337.315   3.22614e-37
      337.419   3.17412e-37
      337.523   3.12291e-37
      337.626   3.07305e-37
      337.730   3.02356e-37
      337.834   2.97478e-37
      337.938   2.92686e-37
      338.042   2.87982e-37
      338.146   2.83411e-37
      338.250   2.78921e-37
      338.354   2.74502e-37
      338.458   2.70149e-37
      338.562   2.65867e-37
      338.667   2.61613e-37
      338.771   2.57464e-37
      338.875   2.53382e-37
      338.979   2.49364e-37
      339.084   2.45376e-37
      339.188   2.41483e-37
      339.292   2.37658e-37
      339.397   2.33851e-37
      339.501   2.30146e-37
      339.606   2.26461e-37
      339.710   2.22869e-37
      339.815   2.19304e-37
      339.919   2.15828e-37
      340.024   2.12372e-37
      340.128   2.09006e-37
      340.233   2.05660e-37
      340.338   2.02371e-37
      340.442   1.99161e-37
      340.547   1.95974e-37
      340.652   1.92838e-37
      340.757   1.89750e-37
      340.862   1.86713e-37
      340.966   1.83755e-37
      341.071   1.80811e-37
      341.176   1.77917e-37
      341.281   1.75069e-37
      341.386   1.72270e-37
      341.491   1.69512e-37
      341.596   1.66802e-37
      341.702   1.64109e-37
      341.807   1.61481e-37
      341.912   1.58898e-37
      342.017   1.56358e-37
      342.122   1.53856e-37
      342.228   1.51371e-37
      342.333   1.48950e-37
      342.438   1.46567e-37
      342.544   1.44202e-37
      342.649   1.41894e-37
      342.754   1.39628e-37
      342.860   1.37373e-37
      342.965   1.35175e-37
      343.071   1.32995e-37
      343.176   1.30870e-37
      343.282   1.28757e-37
      343.388   1.26680e-37
      343.493   1.24669e-37
      343.599   1.22779e-37
      343.705   1.20933e-37
      343.810   1.19128e-37
      343.916   1.17334e-37
      344.022   1.15569e-37
      344.128   1.13830e-37
      344.234   1.12116e-37
      344.340   1.10429e-37
      344.446   1.08766e-37
      344.552   1.07129e-37
      344.658   1.05519e-37
      344.764   1.03932e-37
      344.870   1.02369e-37
      344.976   1.00829e-37
      345.082   9.93124e-38
      345.188   9.78203e-38
      345.294   9.63490e-38
      345.401   9.48869e-38
      345.507   9.34605e-38
      345.613   9.20559e-38
      345.719   9.06725e-38
      345.826   8.92976e-38
      345.932   8.79555e-38
      346.039   8.66221e-38
      346.145   8.53197e-38
      346.252   8.40268e-38
      346.358   8.27651e-38
      346.465   8.15100e-38
      346.571   8.02860e-38
      346.678   7.90689e-38
      346.785   7.78703e-38
      346.891   7.67010e-38
      346.998   7.55390e-38
      347.105   7.43956e-38
      347.212   7.32678e-38
      347.319   7.21584e-38
      347.425   7.10742e-38
      347.532   6.99977e-38
      347.639   6.89381e-38
      347.746   6.78935e-38
      347.853   6.68660e-38
      347.960   6.58527e-38
      348.067   6.48565e-38
      348.174   6.38756e-38
      348.281   6.29074e-38
      348.389   6.19472e-38
      348.496   6.10080e-38
      348.603   6.00857e-38
      348.710   5.91756e-38
      348.818   5.82726e-38
      348.925   5.73899e-38
      349.032   5.65220e-38
      349.140   5.56565e-38
      349.247   5.48119e-38
      349.355   5.39740e-38
      349.462   5.31554e-38
      349.570   5.23408e-38
      349.677   5.15474e-38
      349.785   5.07578e-38
      349.892   4.99884e-38
      350.000   4.92236e-38
      350.100   4.85254e-38
      350.193   4.78857e-38
      350.287   4.72471e-38
      350.380   4.66234e-38
      350.473   4.60086e-38
      350.567   4.53946e-38
      350.660   4.47957e-38
      350.754   4.41981e-38
      350.847   4.36157e-38
      350.941   4.30339e-38
      351.034   4.24658e-38
      351.128   4.18997e-38
      351.221   4.13469e-38
      351.315   4.07960e-38
      351.409   4.02514e-38
      351.502   3.97204e-38
      351.596   3.91903e-38
      351.690   3.86675e-38
      351.783   3.81574e-38
      351.877   3.76490e-38
      351.971   3.71463e-38
      352.065   3.66508e-38
      352.159   3.61622e-38
      352.252   3.56847e-38
      352.346   3.52083e-38
      352.440   3.47384e-38
      352.534   3.42754e-38
      352.628   3.38183e-38
      352.722   3.33667e-38
      352.816   3.29213e-38
      352.910   3.24820e-38
      353.004   3.20486e-38
      353.098   3.16205e-38
      353.192   3.11983e-38
      353.287   3.07774e-38
      353.381   3.03665e-38
      353.475   2.99613e-38
      353.569   2.95607e-38
      353.663   2.91657e-38
      353.758   2.87724e-38
      353.852   2.83883e-38
      353.946   2.80091e-38
      354.041   2.76308e-38
      354.135   2.72615e-38
      354.229   2.68971e-38
      354.324   2.65341e-38
      354.418   2.61790e-38
      354.513   2.58252e-38
      354.607   2.54805e-38
      354.702   2.51348e-38
      354.796   2.47938e-38
      354.891   2.44529e-38
      354.985   2.41207e-38
      355.080   2.37892e-38
      355.175   2.34624e-38
      355.269   2.31430e-38
      355.364   2.28248e-38
      355.459   2.25110e-38
      355.553   2.22047e-38
      355.648   2.18993e-38
      355.743   2.15981e-38
      355.838   2.13006e-38
      355.933   2.10077e-38
      356.027   2.07217e-38
      356.122   2.04363e-38
      356.217   2.01549e-38
      356.312   1.98775e-38
      356.407   1.96036e-38
      356.502   1.93336e-38
      356.597   1.90669e-38
      356.692   1.88044e-38
      356.787   1.85452e-38
      356.882   1.82893e-38
      356.977   1.80372e-38
      357.073   1.77860e-38
      357.168   1.75403e-38
      357.263   1.72983e-38
      357.358   1.70596e-38
      357.453   1.68241e-38
      357.549   1.65895e-38
      357.644   1.63603e-38
      357.739   1.61344e-38
      357.835   1.59093e-38
      357.930   1.56894e-38
      358.025   1.54725e-38
      358.121   1.52563e-38
      358.216   1.50453e-38
      358.312   1.48349e-38
      358.407   1.46298e-38
      358.503   1.44252e-38
      358.598   1.42257e-38
      358.694   1.40267e-38
      358.790   1.38304e-38
      358.885   1.36388e-38
      358.981   1.34479e-38
      359.076   1.32615e-38
      359.172   1.30759e-38
      359.268   1.28925e-38
      359.364   1.27118e-38
      359.459   1.25356e-38
      359.555   1.23600e-38
      359.651   1.21866e-38
      359.747   1.20157e-38
      359.843   1.18471e-38
      359.939   1.16808e-38
      360.035   1.15169e-38
      360.131   1.13552e-38
      360.227   1.11956e-38
      360.323   1.10384e-38
      360.419   1.08834e-38
      360.515   1.07305e-38
      360.611   1.05796e-38
      360.707   1.04307e-38
      360.803   1.02841e-38
      360.899   1.01393e-38
      360.995   9.99679e-39
      361.092   9.85463e-39
      361.188   9.71585e-39
      361.284   9.57905e-39
      361.380   9.44418e-39
      361.477   9.30971e-39
      361.573   9.17855e-39
      361.669   9.04917e-39
      361.766   8.92011e-39
      361.862   8.79437e-39
      361.959   8.66907e-39
      362.055   8.54653e-39
      362.152   8.42471e-39
      362.248   8.30569e-39
      362.345   8.18706e-39
      362.441   8.07151e-39
      362.538   7.95631e-39
      362.635   7.84270e-39
      362.731   7.73171e-39
      362.828   7.62111e-39
      362.925   7.51219e-39
      363.021   7.40591e-39
      363.118   7.29999e-39
      363.215   7.19546e-39
      363.312   7.09243e-39
      363.409   6.99093e-39
      363.505   6.89181e-39
      363.602   6.79305e-39
      363.699   6.69579e-39
      363.796   6.59979e-39
      363.893   6.50512e-39
      363.990   6.41183e-39
      364.087   6.31982e-39
      364.184   6.22915e-39
      364.281   6.13972e-39
      364.378   6.05163e-39
      364.475   5.96470e-39
      364.573   5.87805e-39
      364.670   5.79355e-39
      364.767   5.71030e-39
      364.864   5.62821e-39
      364.961   5.54722e-39
      365.059   5.46660e-39
      365.156   5.38795e-39
      365.253   5.31039e-39
      365.351   5.23312e-39
      365.448   5.15771e-39
      365.545   5.08344e-39
      365.643   5.00940e-39
      365.740   4.93715e-39
      365.838   4.86522e-39
      365.935   4.79506e-39
      366.033   4.72521e-39
      366.130   4.65698e-39
      366.228   4.58906e-39
      366.326   4.52214e-39
      366.423   4.45680e-39
      366.521   4.39174e-39
      366.618   4.32823e-39
      366.716   4.26499e-39
      366.814   4.20267e-39
      366.912   4.14130e-39
      367.010   4.08076e-39
      367.107   4.02172e-39
      367.205   3.96286e-39
      367.303   3.90487e-39
      367.401   3.84774e-39
      367.499   3.79140e-39
      367.597   3.73588e-39
      367.695   3.68114e-39
      367.793   3.62723e-39
      367.891   3.57411e-39
      367.989   3.52172e-39
      368.087   3.47010e-39
      368.185   3.41920e-39
      368.283   3.36905e-39
      368.381   3.31960e-39
      368.480   3.27038e-39
      368.578   3.22237e-39
      368.676   3.17506e-39
      368.774   3.12845e-39
      368.873   3.08206e-39
      368.971   3.03678e-39
      369.069   2.99218e-39
      369.168   2.94773e-39
      369.266   2.90435e-39
      369.364   2.86166e-39
      369.463   2.81915e-39
      369.561   2.77771e-39
      369.660   2.73640e-39
      369.758   2.69612e-39
      369.857   2.65606e-39
      369.955   2.61696e-39
      370.054   2.57802e-39
      370.153   2.53964e-39
      370.251   2.50222e-39
      370.350   2.46500e-39
      370.449   2.42833e-39
      370.547   2.39255e-39
      370.646   2.35687e-39
      370.745   2.32179e-39
      370.844   2.28720e-39
      370.943   2.25312e-39
      371.041   2.21990e-39
      371.140   2.18680e-39
      371.239   2.15418e-39
      371.338   2.12210e-39
      371.437   2.09045e-39
      371.536   2.05927e-39
      371.635   2.02854e-39
      371.734   1.99830e-39
      371.833   1.96850e-39
      371.932   1.93911e-39
      372.032   1.90991e-39
      372.131   1.88137e-39
      372.230   1.85331e-39
      372.329   1.82567e-39
      372.428   1.79841e-39
      372.528   1.77129e-39
      372.627   1.74488e-39
      372.726   1.71884e-39
      372.826   1.69293e-39
      372.925   1.66766e-39
      373.024   1.64276e-39
      373.124   1.61797e-39
      373.223   1.59382e-39
      373.323   1.56980e-39
      373.422   1.54634e-39
      373.522   1.52302e-39
      373.621   1.50028e-39
      373.721   1.47764e-39
      373.820   1.45557e-39
      373.920   1.43360e-39
      374.020   1.41196e-39
      374.119   1.39085e-39
      374.219   1.36985e-39
      374.319   1.34921e-39
      374.419   1.32884e-39
      374.518   1.30897e-39
      374.618   1.28922e-39
      374.718   1.26974e-39
      374.818   1.25057e-39
      374.918   1.23170e-39
      375.018   1.21310e-39
      375.118   1.19480e-39
      375.218   1.17675e-39
      375.318   1.15898e-39
      375.418   1.14148e-39
      375.518   1.12426e-39
      375.618   1.10728e-39
      375.718   1.09056e-39
      375.818   1.07409e-39
      375.918   1.05786e-39
      376.019   1.04175e-39
      376.119   1.02602e-39
      376.219   1.01052e-39
      376.319   9.95265e-40
      376.420   9.80096e-40
      376.520   9.65290e-40
      376.620   9.50740e-40
      376.721   9.36248e-40
      376.821   9.22108e-40
      376.922   9.08046e-40
      377.022   8.94340e-40
      377.122   8.80858e-40
      377.223   8.67425e-40
      377.323   8.54339e-40
      377.424   8.41326e-40
      377.525   8.28511e-40
      377.625   8.16008e-40
      377.726   8.03565e-40
      377.827   7.91327e-40
      377.927   7.79391e-40
      378.028   7.67532e-40
      378.129   7.55832e-40
      378.230   7.46119e-40
      378.330   7.39401e-40
      378.431   7.33122e-40
      378.532   7.26908e-40
      378.633   7.20741e-40
      378.734   7.14626e-40
      378.835   7.08569e-40
      378.936   7.02565e-40
      379.037   6.96601e-40
      379.138   6.90678e-40
      379.239   6.84817e-40
      379.340   6.79029e-40
      379.441   6.73265e-40
      379.542   6.67562e-40
      379.643   6.61887e-40
      379.745   6.56232e-40
      379.846   6.50669e-40
      379.947   6.45133e-40
      380.048   6.39673e-40
      380.150   6.34193e-40
      380.251   6.28826e-40
      380.352   6.23484e-40
      380.454   6.18155e-40
      380.555   6.12924e-40
      380.656   6.07719e-40
      380.758   6.02512e-40
      380.859   5.97403e-40
      380.961   5.92291e-40
      381.062   5.87276e-40
      381.164   5.82262e-40
      381.266   5.77275e-40
      381.367   5.72384e-40
      381.469   5.67502e-40
      381.570   5.62700e-40
      381.672   5.57872e-40
      381.774   5.53112e-40
      381.876   5.48380e-40
      381.977   5.43737e-40
      382.079   5.39082e-40
      382.181   5.34469e-40
      382.283   5.29914e-40
      382.385   5.25376e-40
      382.487   5.20893e-40
      382.589   5.16440e-40
      382.691   5.12027e-40
      382.793   5.07664e-40
      382.895   5.03328e-40
      382.997   4.99028e-40
      383.099   4.94777e-40
      383.201   4.90541e-40
      383.303   4.86368e-40
      383.405   4.82209e-40
      383.507   4.78096e-40
      383.610   4.73975e-40
      383.712   4.69918e-40
      383.814   4.65915e-40
      383.916   4.61953e-40
      384.019   4.57975e-40
      384.121   4.54068e-40
      384.223   4.50183e-40
      384.326   4.46473e-40
      384.428   4.43256e-40
      384.531   4.40151e-40
      384.633   4.37106e-40
      384.736   4.34028e-40
      384.838   4.31016e-40
      384.941   4.27997e-40
      385.043   4.25025e-40
      385.146   4.22057e-40
      385.249   4.19096e-40
      385.351   4.16186e-40
      385.454   4.13271e-40
      385.557   4.10367e-40
      385.660   4.07492e-40
      385.762   4.04667e-40
      385.865   4.01824e-40
      385.968   3.99018e-40
      386.071   3.96217e-40
      386.174   3.93450e-40
      386.277   3.90683e-40
      386.380   3.87938e-40
      386.483   3.85223e-40
      386.586   3.82536e-40
      386.689   3.79846e-40
      386.792   3.77188e-40
      386.895   3.74549e-40
      386.998   3.71916e-40
      387.101   3.69308e-40
      387.204   3.66714e-40
      387.308   3.64116e-40
      387.411   3.61570e-40
      387.514   3.59036e-40
      387.617   3.56520e-40
      387.721   3.54002e-40
      387.824   3.51519e-40
      387.927   3.49052e-40
      388.031   3.46571e-40
      388.134   3.44135e-40
      388.238   3.41701e-40
      388.341   3.39298e-40
      388.445   3.36902e-40
      388.548   3.34528e-40
      388.652   3.32164e-40
      388.755   3.29829e-40
      388.859   3.27486e-40
      388.962   3.25197e-40
      389.066   3.22886e-40
      389.170   3.20599e-40
      389.274   3.18323e-40
      389.377   3.16081e-40
      389.481   3.13832e-40
      389.585   3.11614e-40
      389.689   3.09397e-40
      389.793   3.07195e-40
      389.897   3.05004e-40
      390.000   3.02867e-40
      390.104   3.00710e-40
      390.208   2.98576e-40
      390.312   2.96445e-40
      390.416   2.94326e-40
      390.520   2.92230e-40
      390.625   2.90125e-40
      390.729   2.88058e-40
      390.833   2.85987e-40
      390.937   2.83952e-40
      391.041   2.81913e-40
      391.145   2.79898e-40
      391.250   2.77882e-40
      391.354   2.75882e-40
      391.458   2.73908e-40
      391.563   2.71933e-40
      391.667   2.69971e-40
      391.771   2.68038e-40
      391.876   2.66105e-40
      391.980   2.64194e-40
      392.085   2.62264e-40
      392.189   2.60382e-40
      392.294   2.58498e-40
      392.398   2.56638e-40
      392.503   2.54776e-40
      392.607   2.52939e-40
      392.712   2.51104e-40
      392.817   2.49274e-40
      392.921   2.47482e-40
      393.026   2.45677e-40
      393.131   2.43888e-40
      393.236   2.42101e-40
      393.340   2.40354e-40
      393.445   2.38599e-40
      393.550   2.36852e-40
      393.655   2.35136e-40
      393.760   2.33411e-40
      393.865   2.31705e-40
      393.970   2.30002e-40
      394.075   2.28328e-40
      394.180   2.26650e-40
      394.285   2.24990e-40
      394.390   2.23343e-40
      394.495   2.21698e-40
      394.600   2.20063e-40
      394.706   2.18436e-40
      394.811   2.16826e-40
      394.916   2.15235e-40
      395.021   2.13643e-40
      395.126   2.12075e-40
      395.232   2.10488e-40
      395.337   2.08938e-40
      395.443   2.07368e-40
      395.548   2.05838e-40
      395.653   2.04325e-40
      395.759   2.02785e-40
      395.864   2.01290e-40
      395.970   1.99787e-40
      396.075   1.98308e-40
      396.181   1.96810e-40
      396.286   1.95347e-40
      396.392   1.93884e-40
      396.498   1.92429e-40
      396.603   1.90994e-40
      396.709   1.89556e-40
      396.815   1.88129e-40
      396.921   1.86710e-40
      397.026   1.85315e-40
      397.132   1.83915e-40
      397.238   1.82525e-40
      397.344   1.81142e-40
      397.450   1.79767e-40
      397.556   1.78404e-40
      397.662   1.77046e-40
      397.768   1.75700e-40
      397.874   1.74380e-40
      397.980   1.73049e-40
      398.086   1.71729e-40
      398.192   1.70413e-40
      398.298   1.69126e-40
      398.404   1.67831e-40
      398.510   1.66544e-40
      398.617   1.65262e-40
      398.723   1.63994e-40
      398.829   1.62733e-40
      398.935   1.61493e-40
      399.042   1.60230e-40
      399.148   1.59007e-40
      399.255   1.57776e-40
      399.361   1.56556e-40
      399.467   1.55342e-40
      399.574   1.54137e-40
      399.680   1.52952e-40
      399.787   1.51761e-40
      399.893       0.00000
      400.000       0.00000
