Filter C-poly
observation_date 22-Sept-2019 22:40:45
wavelength effective area
      1.00000   2.78570e-10
      1.10000   7.95341e-10
      1.20000   2.06791e-09
      1.30000   4.94566e-09
      1.40000   1.12244e-08
      1.50000   2.39515e-08
      1.60000   4.85002e-08
      1.70000   9.41847e-08
      1.80000   1.75405e-07
      1.90000   3.15373e-07
      2.00000   5.48498e-07
      2.10000   9.26855e-07
      2.20000   1.52904e-06
      2.30000   2.45924e-06
      2.40000   3.86311e-06
      2.50000   5.90749e-06
      2.60000   9.02136e-06
      2.70000   1.34596e-05
      2.80000   1.96981e-05
      2.90000   2.85336e-05
      3.00000   4.06893e-05
      3.10000   5.72807e-05
      3.20000   7.97619e-05
      3.30000   0.000109943
      3.40000   0.000149974
      3.50000   0.000202612
      3.60000   0.000272484
      3.70000   0.000362579
      3.80000   0.000480500
      3.90000   0.000633279
      4.00000   0.000829494
      4.10000    0.00108154
      4.20000    0.00140523
      4.30000    0.00182073
      4.40000    0.00235295
      4.50000    0.00303260
      4.60000    0.00389570
      4.70000    0.00500464
      4.80000    0.00642319
      4.90000    0.00813820
      5.00000     0.0105837
      5.10000     0.0135705
      5.20000     0.0174536
      5.30000     0.0222589
      5.40000     0.0283442
      5.50000     0.0361588
      5.60000     0.0447153
      5.70000     0.0582598
      5.80000     0.0684679
      5.90000      0.104798
      6.00000      0.141230
      6.10000      0.180971
      6.20000      0.222812
      6.30000      0.262974
      6.40000      0.297738
      6.50000      0.323708
      6.60000      0.336040
      6.70000      0.347563
      6.80000      0.349069
      6.90000      0.459363
      7.00000      0.501125
      7.10000      0.531682
      7.20000      0.556483
      7.30000      0.577192
      7.40000      0.593586
      7.50000      0.607154
      7.60000      0.617995
      7.70000      0.624444
      7.80000      0.625234
      7.90000      0.626816
      8.00000      0.909690
      8.10000      0.999252
      8.20000       1.01908
      8.30000       1.03440
      8.40000       1.04579
      8.50000       1.05561
      8.60000       1.06354
      8.70000       1.07025
      8.80000       1.07539
      8.90000       1.07950
      9.00000       1.08247
      9.10000       1.08436
      9.20000       1.08536
      9.30000       1.08538
      9.40000       1.08456
      9.50000       1.08298
      9.60000       1.08055
      9.70000       1.07739
      9.80000       1.07366
      9.90000       1.06938
      10.0000       1.06461
      10.1000       1.05937
      10.2000       1.05367
      10.3000       1.04746
      10.4000       1.04077
      10.5000       1.03361
      10.6000       1.02604
      10.7000       1.01806
      10.8000       1.00970
      10.9000       1.00097
      11.0000      0.991897
      11.1000      0.982511
      11.2000      0.972813
      11.3000      0.962844
      11.4000      0.952594
      11.5000      0.942055
      11.6000      0.931247
      11.7000      0.920089
      11.8000      0.908683
      11.9000      0.896888
      12.0000      0.883772
      12.1000      0.873766
      12.2000      0.879012
      12.3000      0.875008
      12.4000      0.864490
      12.5000      0.853323
      12.6000      0.841846
      12.7000      0.830193
      12.8000      0.818410
      12.9000      0.806513
      13.0000      0.794552
      13.1000      0.782555
      13.2000      0.770549
      13.3000      0.758548
      13.4000      0.746578
      13.5000      0.734770
      13.6000      0.723104
      13.7000      0.711485
      13.8000      0.699907
      13.9000      0.688401
      14.0000      0.676963
      14.1000      0.665574
      14.2000      0.654233
      14.3000      0.642939
      14.4000      0.631673
      14.5000      0.620450
      14.6000      0.609264
      14.7000      0.598119
      14.8000      0.587024
      14.9000      0.575981
      15.0000      0.565001
      15.1000      0.554096
      15.2000      0.543282
      15.3000      0.532555
      15.4000      0.521913
      15.5000      0.511365
      15.6000      0.500942
      15.7000      0.490624
      15.8000      0.480454
      15.9000      0.470411
      16.0000      0.460494
      16.1000      0.450709
      16.2000      0.441087
      16.3000      0.431587
      16.4000      0.422200
      16.5000      0.412923
      16.6000      0.403763
      16.7000      0.394726
      16.8000      0.385792
      16.9000      0.376962
      17.0000      0.368255
      17.1000      0.359668
      17.2000      0.351180
      17.3000      0.342805
      17.4000      0.334708
      17.5000      0.326872
      17.6000      0.319259
      17.7000      0.311907
      17.8000      0.304960
      17.9000      0.298123
      18.0000      0.291340
      18.1000      0.284659
      18.2000      0.278013
      18.3000      0.271391
      18.4000      0.264774
      18.5000      0.258181
      18.6000      0.251598
      18.7000      0.245001
      18.8000      0.238513
      18.9000      0.232109
      19.0000      0.225820
      19.1000      0.219657
      19.2000      0.213588
      19.3000      0.207662
      19.4000      0.201863
      19.5000      0.196163
      19.6000      0.190638
      19.7000      0.185215
      19.8000      0.179887
      19.9000      0.174720
      20.0000      0.169631
      20.1000      0.164647
      20.2000      0.159769
      20.3000      0.154960
      20.4000      0.150277
      20.5000      0.145668
      20.6000      0.141128
      20.7000      0.136710
      20.8000      0.132349
      20.9000      0.128079
      21.0000      0.123893
      21.1000      0.119780
      21.2000      0.115748
      21.3000      0.111767
      21.4000      0.107892
      21.5000      0.104060
      21.6000      0.100270
      21.7000     0.0965553
      21.8000     0.0928746
      21.9000     0.0891814
      22.0000     0.0855056
      22.1000     0.0818427
      22.2000     0.0780585
      22.3000     0.0741727
      22.4000     0.0692035
      22.5000     0.0639138
      22.6000     0.0540401
      22.7000     0.0483206
      22.8000     0.0635737
      22.9000     0.0823457
      23.0000      0.103822
      23.1000      0.117154
      23.2000      0.122746
      23.3000      0.122991
      23.4000      0.120545
      23.5000      0.117981
      23.6000      0.115398
      23.7000      0.112561
      23.8000      0.109718
      23.9000      0.106904
      24.0000      0.104102
      24.1000      0.101295
      24.2000     0.0985140
      24.3000     0.0957941
      24.4000     0.0931003
      24.5000     0.0904537
      24.6000     0.0878451
      24.7000     0.0853033
      24.8000     0.0827990
      24.9000     0.0803542
      25.0000     0.0779520
      25.1000     0.0756157
      25.2000     0.0733198
      25.3000     0.0710860
      25.4000     0.0688947
      25.5000     0.0667741
      25.6000     0.0646970
      25.7000     0.0627016
      25.8000     0.0607376
      25.9000     0.0588438
      26.0000     0.0569747
      26.1000     0.0551773
      26.2000     0.0533979
      26.3000     0.0516967
      26.4000     0.0500054
      26.5000     0.0483934
      26.6000     0.0467904
      26.7000     0.0452613
      26.8000     0.0437504
      26.9000     0.0422969
      27.0000     0.0408666
      27.1000     0.0394763
      27.2000     0.0381146
      27.3000     0.0368692
      27.4000     0.0357661
      27.5000     0.0346524
      27.6000     0.0334969
      27.7000     0.0323498
      27.8000     0.0312430
      27.9000     0.0301424
      28.0000     0.0290969
      28.1000     0.0280668
      28.2000     0.0270764
      28.3000     0.0261144
      28.4000     0.0251765
      28.5000     0.0242797
      28.6000     0.0233918
      28.7000     0.0225604
      28.8000     0.0217338
      28.9000     0.0209495
      29.0000     0.0201804
      29.1000     0.0194371
      29.2000     0.0187224
      29.3000     0.0180179
      29.4000     0.0173551
      29.5000     0.0166962
      29.6000     0.0160738
      29.7000     0.0154636
      29.8000     0.0148737
      29.9000     0.0143097
      30.0000     0.0137506
      30.1000     0.0132300
      30.2000     0.0127124
      30.3000     0.0127887
      30.4000     0.0132024
      30.5000     0.0134191
      30.6000     0.0129135
      30.7000     0.0124110
      30.8000     0.0119375
      30.9000     0.0114748
      31.0000     0.0110246
      31.1000     0.0105991
      31.2000     0.0101762
      31.3000    0.00978046
      31.4000    0.00939240
      31.5000    0.00901568
      31.6000    0.00866020
      31.7000    0.00830690
      31.8000    0.00797663
      31.9000    0.00765362
      32.0000    0.00733885
      32.1000    0.00704408
      32.2000    0.00675114
      32.3000    0.00647595
      32.4000    0.00620950
      32.5000    0.00594785
      32.6000    0.00571310
      32.7000    0.00547993
      32.8000    0.00525758
      32.9000    0.00504566
      33.0000    0.00483505
      33.1000    0.00464929
      33.2000    0.00446797
      33.3000    0.00429109
      33.4000    0.00412581
      33.5000    0.00396160
      33.6000    0.00380578
      33.7000    0.00365645
      33.8000    0.00350802
      33.9000    0.00337096
      34.0000    0.00323617
      34.1000    0.00310449
      34.2000    0.00298249
      34.3000    0.00286120
      34.4000    0.00274502
      34.5000    0.00263520
      34.6000    0.00252603
      34.7000    0.00242319
      34.8000    0.00232362
      34.9000    0.00222462
      35.0000    0.00213409
      35.1000    0.00204490
      35.2000    0.00195708
      35.3000    0.00187688
      35.4000    0.00179713
      35.5000    0.00171994
      35.6000    0.00164837
      35.7000    0.00157722
      35.8000    0.00150942
      35.9000    0.00144570
      36.0000    0.00138234
      36.1000    0.00132284
      36.2000    0.00126622
      36.3000    0.00120993
      36.4000    0.00115772
      36.5000    0.00110751
      36.6000    0.00105759
      36.7000    0.00101180
      36.8000   0.000967371
      36.9000   0.000923210
      37.0000   0.000883048
      37.1000   0.000843830
      37.2000   0.000804846
      37.3000   0.000769626
      37.4000   0.000735086
      37.5000   0.000700755
      37.6000   0.000669859
      37.7000   0.000639507
      37.8000   0.000609340
      37.9000   0.000582226
      38.0000   0.000555621
      38.1000   0.000529176
      38.2000   0.000505362
      38.3000   0.000482087
      38.4000   0.000458954
      38.5000   0.000438026
      38.6000   0.000417719
      38.7000   0.000397535
      38.8000   0.000379128
      38.9000   0.000361453
      39.0000   0.000343885
      39.1000   0.000327682
      39.2000   0.000312337
      39.3000   0.000297085
      39.4000   0.000282809
      39.5000   0.000269520
      39.6000   0.000256314
      39.7000   0.000243723
      39.8000   0.000232247
      39.9000   0.000220842
      40.0000   0.000209729
      40.1000   0.000199845
      40.2000   0.000190021
      40.3000   0.000180260
      40.4000   0.000171712
      40.5000   0.000163272
      40.6000   0.000154885
      40.7000   0.000147314
      40.8000   0.000140080
      40.9000   0.000132892
      41.0000   0.000126179
      41.1000   0.000119997
      41.2000   0.000113855
      41.3000   0.000107901
      41.4000   0.000102639
      41.5000   9.74090e-05
      41.6000   9.22119e-05
      41.7000   8.76540e-05
      41.8000   8.32103e-05
      41.9000   7.87947e-05
      42.0000   7.47327e-05
      42.1000   7.09700e-05
      42.2000   6.72308e-05
      42.3000   6.36071e-05
      42.4000   6.04291e-05
      42.5000   5.72709e-05
      42.6000   5.41326e-05
      42.7000   5.13622e-05
      42.8000   4.87021e-05
      42.9000   4.60584e-05
      43.0000   4.35729e-05
      43.1000   4.13397e-05
      43.2000   3.91207e-05
      43.3000   3.69156e-05
      43.4000     0.0371224
      43.5000     0.0818554
      43.6000      0.138114
      43.7000      0.186158
      43.8000      0.205791
      43.9000      0.208586
      44.0000      0.205094
      44.1000      0.195629
      44.2000      0.192759
      44.3000      0.190467
      44.4000      0.188202
      44.5000      0.185970
      44.6000      0.183744
      44.7000      0.181523
      44.8000      0.179352
      44.9000      0.177193
      45.0000      0.175040
      45.1000      0.172906
      45.2000      0.170811
      45.3000      0.168721
      45.4000      0.166637
      45.5000      0.164591
      45.6000      0.162566
      45.7000      0.160547
      45.8000      0.158534
      45.9000      0.156573
      46.0000      0.154617
      46.1000      0.152666
      46.2000      0.150805
      46.3000      0.149097
      46.4000      0.147393
      46.5000      0.145693
      46.6000      0.144049
      46.7000      0.142434
      46.8000      0.140823
      46.9000      0.139217
      47.0000      0.137687
      47.1000      0.136167
      47.2000      0.134650
      47.3000      0.133144
      47.4000      0.131678
      47.5000      0.130215
      47.6000      0.128757
      47.7000      0.127315
      47.8000      0.125898
      47.9000      0.124485
      48.0000      0.123075
      48.1000      0.121688
      48.2000      0.120320
      48.3000      0.118955
      48.4000      0.117594
      48.5000      0.116259
      48.6000      0.114937
      48.7000      0.113618
      48.8000      0.112303
      48.9000      0.111019
      49.0000      0.109744
      49.1000      0.108472
      49.2000      0.107204
      49.3000      0.105969
      49.4000      0.104741
      49.5000      0.103515
      49.6000      0.102292
      49.7000      0.101104
      49.8000     0.0999202
      49.9000     0.0987391
      50.0000     0.0975624
      50.1000     0.0964230
      50.2000     0.0953447
      50.3000     0.0942752
      50.4000     0.0932162
      50.5000     0.0921666
      50.6000     0.0911274
      50.7000     0.0900994
      50.8000     0.0890797
      50.9000     0.0880714
      51.0000     0.0870816
      51.1000     0.0861045
      51.2000     0.0851364
      51.3000     0.0841778
      51.4000     0.0832300
      51.5000     0.0822894
      51.6000     0.0813570
      51.7000     0.0804332
      51.8000     0.0795108
      51.9000     0.0785964
      52.0000     0.0776905
      52.1000     0.0767935
      52.2000     0.0759052
      52.3000     0.0750244
      52.4000     0.0741525
      52.5000     0.0732892
      52.6000     0.0724331
      52.7000     0.0715838
      52.8000     0.0707419
      52.9000     0.0699082
      53.0000     0.0690830
      53.1000     0.0682655
      53.2000     0.0674573
      53.3000     0.0666574
      53.4000     0.0658647
      53.5000     0.0650791
      53.6000     0.0643005
      53.7000     0.0635292
      53.8000     0.0627672
      53.9000     0.0620125
      54.0000     0.0612662
      54.1000     0.0605284
      54.2000     0.0597966
      54.3000     0.0590719
      54.4000     0.0583545
      54.5000     0.0576441
      54.6000     0.0569421
      54.7000     0.0562472
      54.8000     0.0555599
      54.9000     0.0548797
      55.0000     0.0542062
      55.1000     0.0535387
      55.2000     0.0528536
      55.3000     0.0521538
      55.4000     0.0514612
      55.5000     0.0507763
      55.6000     0.0500990
      55.7000     0.0494297
      55.8000     0.0487674
      55.9000     0.0481118
      56.0000     0.0474708
      56.1000     0.0468258
      56.2000     0.0461780
      56.3000     0.0455376
      56.4000     0.0449047
      56.5000     0.0442783
      56.6000     0.0436590
      56.7000     0.0430476
      56.8000     0.0424431
      56.9000     0.0418476
      57.0000     0.0412584
      57.1000     0.0406752
      57.2000     0.0400979
      57.3000     0.0395274
      57.4000     0.0389632
      57.5000     0.0384063
      57.6000     0.0378558
      57.7000     0.0373118
      57.8000     0.0367754
      57.9000     0.0362462
      58.0000     0.0357230
      58.1000     0.0352050
      58.2000     0.0346940
      58.3000     0.0341892
      58.4000     0.0336905
      58.5000     0.0331977
      58.6000     0.0327118
      58.7000     0.0322316
      58.8000     0.0317576
      58.9000     0.0312892
      59.0000     0.0308266
      59.1000     0.0303694
      59.2000     0.0299185
      59.3000     0.0294731
      59.4000     0.0290339
      59.5000     0.0286001
      59.6000     0.0281721
      59.7000     0.0277489
      59.8000     0.0273313
      59.9000     0.0269187
      60.0000     0.0265119
      60.1000     0.0261100
      60.2000     0.0257138
      60.3000     0.0253229
      60.4000     0.0249371
      60.5000     0.0245567
      60.6000     0.0241806
      60.7000     0.0238087
      60.8000     0.0234414
      60.9000     0.0230790
      61.0000     0.0227215
      61.1000     0.0223691
      61.2000     0.0220212
      61.3000     0.0216785
      61.4000     0.0213401
      61.5000     0.0210063
      61.6000     0.0206764
      61.7000     0.0203509
      61.8000     0.0200307
      61.9000     0.0197157
      62.0000     0.0194051
      62.1000     0.0190986
      62.2000     0.0187968
      62.3000     0.0184988
      62.4000     0.0182053
      62.5000     0.0179154
      62.6000     0.0176295
      62.7000     0.0173470
      62.8000     0.0170701
      62.9000     0.0167969
      63.0000     0.0165277
      63.1000     0.0162625
      63.2000     0.0160008
      63.3000     0.0157426
      63.4000     0.0154876
      63.5000     0.0152369
      63.6000     0.0149894
      63.7000     0.0147454
      63.8000     0.0145051
      63.9000     0.0142684
      64.0000     0.0140353
      64.1000     0.0138053
      64.2000     0.0135792
      64.3000     0.0133561
      64.4000     0.0131361
      64.5000     0.0129190
      64.6000     0.0127049
      64.7000     0.0124942
      64.8000     0.0122863
      64.9000     0.0120816
      65.0000     0.0118799
      65.1000     0.0116814
      65.2000     0.0114860
      65.3000     0.0112932
      65.4000     0.0111035
      65.5000     0.0109163
      65.6000     0.0107318
      65.7000     0.0105500
      65.8000     0.0103711
      65.9000     0.0101954
      66.0000     0.0100221
      66.1000    0.00985169
      66.2000    0.00968390
      66.3000    0.00951853
      66.4000    0.00935574
      66.5000    0.00919518
      66.6000    0.00903705
      66.7000    0.00888141
      66.8000    0.00872813
      66.9000    0.00858044
      67.0000    0.00843781
      67.1000    0.00829794
      67.2000    0.00816035
      67.3000    0.00802466
      67.4000    0.00789108
      67.5000    0.00775936
      67.6000    0.00762952
      67.7000    0.00750165
      67.8000    0.00737530
      67.9000    0.00725058
      68.0000    0.00712853
      68.1000    0.00700902
      68.2000    0.00689133
      68.3000    0.00677535
      68.4000    0.00666126
      68.5000    0.00654903
      68.6000    0.00643829
      68.7000    0.00632927
      68.8000    0.00622186
      68.9000    0.00611761
      69.0000    0.00602374
      69.1000    0.00593920
      69.2000    0.00585727
      69.3000    0.00577765
      69.4000    0.00570110
      69.5000    0.00562292
      69.6000    0.00554217
      69.7000    0.00546460
      69.8000    0.00539096
      69.9000    0.00531837
      70.0000    0.00524646
      70.1000    0.00517403
      70.2000    0.00510517
      70.3000    0.00503991
      70.4000    0.00497488
      70.5000    0.00491136
      70.6000    0.00484935
      70.7000    0.00478820
      70.8000    0.00472762
      70.9000    0.00466559
      71.0000    0.00460228
      71.1000    0.00454185
      71.2000    0.00448446
      71.3000    0.00442353
      71.4000    0.00435813
      71.5000    0.00429792
      71.6000    0.00424522
      71.7000    0.00419203
      71.8000    0.00413713
      71.9000    0.00408413
      72.0000    0.00403513
      72.1000    0.00398515
      72.2000    0.00392762
      72.3000    0.00387103
      72.4000    0.00382151
      72.5000    0.00377261
      72.6000    0.00372426
      72.7000    0.00367661
      72.8000    0.00362951
      72.9000    0.00358299
      73.0000    0.00353823
      73.1000    0.00349454
      73.2000    0.00345136
      73.3000    0.00340878
      73.4000    0.00336709
      73.5000    0.00332655
      73.6000    0.00328655
      73.7000    0.00324702
      73.8000    0.00320788
      73.9000    0.00316919
      74.0000    0.00313117
      74.1000    0.00309666
      74.2000    0.00306350
      74.3000    0.00302764
      74.4000    0.00298978
      74.5000    0.00295300
      74.6000    0.00291804
      74.7000    0.00288344
      74.8000    0.00284922
      74.9000    0.00281539
      75.0000    0.00278154
      75.1000    0.00274794
      75.2000    0.00271477
      75.3000    0.00268196
      75.4000    0.00264978
      75.5000    0.00261868
      75.6000    0.00258792
      75.7000    0.00255746
      75.8000    0.00252743
      75.9000    0.00249815
      76.0000    0.00246927
      76.1000    0.00244072
      76.2000    0.00241249
      76.3000    0.00238460
      76.4000    0.00235748
      76.5000    0.00233074
      76.6000    0.00230424
      76.7000    0.00227797
      76.8000    0.00225200
      76.9000    0.00222634
      77.0000    0.00220093
      77.1000    0.00217578
      77.2000    0.00215093
      77.3000    0.00212631
      77.4000    0.00210195
      77.5000    0.00207788
      77.6000    0.00205361
      77.7000    0.00202953
      77.8000    0.00200571
      77.9000    0.00198213
      78.0000    0.00195848
      78.1000    0.00193423
      78.2000    0.00191032
      78.3000    0.00188853
      78.4000    0.00186760
      78.5000    0.00184671
      78.6000    0.00182553
      78.7000    0.00180458
      78.8000    0.00178311
      78.9000    0.00176171
      79.0000    0.00174053
      79.1000    0.00171954
      79.2000    0.00169886
      79.3000    0.00167901
      79.4000    0.00165957
      79.5000    0.00164012
      79.6000    0.00162029
      79.7000    0.00160066
      79.8000    0.00158093
      79.9000    0.00156129
      80.0000    0.00154185
      80.1000    0.00152192
      80.2000    0.00150216
      80.3000    0.00148192
      80.4000    0.00146124
      80.5000    0.00144078
      80.6000    0.00142057
      80.7000    0.00140061
      80.8000    0.00138100
      80.9000    0.00136186
      81.0000    0.00134297
      81.1000    0.00132439
      81.2000    0.00130605
      81.3000    0.00128796
      81.4000    0.00127140
      81.5000    0.00125512
      81.6000    0.00123940
      81.7000    0.00122461
      81.8000    0.00121005
      81.9000    0.00119618
      82.0000    0.00118269
      82.1000    0.00116938
      82.2000    0.00115582
      82.3000    0.00114242
      82.4000    0.00112944
      82.5000    0.00111701
      82.6000    0.00110471
      82.7000    0.00109219
      82.8000    0.00107938
      82.9000    0.00106669
      83.0000    0.00105428
      83.1000    0.00104205
      83.2000    0.00102995
      83.3000    0.00101796
      83.4000    0.00100614
      83.5000   0.000994483
      83.6000   0.000983201
      83.7000   0.000972049
      83.8000   0.000960959
      83.9000   0.000949814
      84.0000   0.000938766
      84.1000   0.000927992
      84.2000   0.000917589
      84.3000   0.000907278
      84.4000   0.000896943
      84.5000   0.000886624
      84.6000   0.000876419
      84.7000   0.000866489
      84.8000   0.000856741
      84.9000   0.000847116
      85.0000   0.000837376
      85.1000   0.000827674
      85.2000   0.000818078
      85.3000   0.000808949
      85.4000   0.000799990
      85.5000   0.000791136
      85.6000   0.000782175
      85.7000   0.000773295
      85.8000   0.000764506
      85.9000   0.000755803
      86.0000   0.000747174
      86.1000   0.000738628
      86.2000   0.000730422
      86.3000   0.000722312
      86.4000   0.000714276
      86.5000   0.000706310
      86.6000   0.000698422
      86.7000   0.000690622
      86.8000   0.000682367
      86.9000   0.000674179
      87.0000   0.000666099
      87.1000   0.000658236
      87.2000   0.000650477
      87.3000   0.000642794
      87.4000   0.000635006
      87.5000   0.000627272
      87.6000   0.000619615
      87.7000   0.000612145
      87.8000   0.000604771
      87.9000   0.000597476
      88.0000   0.000590267
      88.1000   0.000583126
      88.2000   0.000576066
      88.3000   0.000569224
      88.4000   0.000562601
      88.5000   0.000556077
      88.6000   0.000549570
      88.7000   0.000543056
      88.8000   0.000536616
      88.9000   0.000530239
      89.0000   0.000523904
      89.1000   0.000517638
      89.2000   0.000511437
      89.3000   0.000505295
      89.4000   0.000499204
      89.5000   0.000493173
      89.6000   0.000487204
      89.7000   0.000481300
      89.8000   0.000475458
      89.9000   0.000469675
      90.0000   0.000463950
      90.1000   0.000458299
      90.2000   0.000452602
      90.3000   0.000446717
      90.4000   0.000440891
      90.5000   0.000435135
      90.6000   0.000429548
      90.7000   0.000423925
      90.8000   0.000418245
      90.9000   0.000412488
      91.0000   0.000406774
      91.1000   0.000401136
      91.2000   0.000395504
      91.3000   0.000389840
      91.4000   0.000384232
      91.5000   0.000378709
      91.6000   0.000373270
      91.7000   0.000368293
      91.8000   0.000363978
      91.9000   0.000360418
      92.0000   0.000356450
      92.1000   0.000352430
      92.2000   0.000348210
      92.3000   0.000343821
      92.4000   0.000339358
      92.5000   0.000334963
      92.6000   0.000330623
      92.7000   0.000326335
      92.8000   0.000322094
      92.9000   0.000317948
      93.0000   0.000313956
      93.1000   0.000310011
      93.2000   0.000306116
      93.3000   0.000302386
      93.4000   0.000298741
      93.5000   0.000295133
      93.6000   0.000291564
      93.7000   0.000288034
      93.8000   0.000284562
      93.9000   0.000281128
      94.0000   0.000277732
      94.1000   0.000274375
      94.2000   0.000271063
      94.3000   0.000267810
      94.4000   0.000264669
      94.5000   0.000261571
      94.6000   0.000258511
      94.7000   0.000255489
      94.8000   0.000252498
      94.9000   0.000249538
      95.0000   0.000246611
      95.1000   0.000243727
      95.2000   0.000240865
      95.3000   0.000238026
      95.4000   0.000235220
      95.5000   0.000232487
      95.6000   0.000229783
      95.7000   0.000227108
      95.8000   0.000224430
      95.9000   0.000221769
      96.0000   0.000219134
      96.1000   0.000216525
      96.2000   0.000213940
      96.3000   0.000211389
      96.4000   0.000208863
      96.5000   0.000206367
      96.6000   0.000203909
      96.7000   0.000201491
      96.8000   0.000199091
      96.9000   0.000196712
      97.0000   0.000194357
      97.1000   0.000192039
      97.2000   0.000189743
      97.3000   0.000187442
      97.4000   0.000185140
      97.5000   0.000182872
      97.6000   0.000180630
      97.7000   0.000178426
      97.8000   0.000176256
      97.9000   0.000174112
      98.0000   0.000171989
      98.1000   0.000169886
      98.2000   0.000167810
      98.3000   0.000165888
      98.4000   0.000164045
      98.5000   0.000162260
      98.6000   0.000160495
      98.7000   0.000158748
      98.8000   0.000157016
      98.9000   0.000155300
      99.0000   0.000153605
      99.1000   0.000151925
      99.2000   0.000150253
      99.3000   0.000148553
      99.4000   0.000146875
      99.5000   0.000145214
      99.6000   0.000143579
      99.7000   0.000142027
      99.8000   0.000140524
      99.9000   0.000139302
      100.000   0.000138503
      100.100   0.000137659
      100.200   0.000136817
      100.300   0.000135977
      100.400   0.000135142
      100.500   0.000134331
      100.600   0.000133521
      100.700   0.000132712
      100.800   0.000131905
      100.900   0.000131100
      101.000   0.000130301
      101.100   0.000129506
      101.200   0.000128715
      101.300   0.000127927
      101.400   0.000127141
      101.500   0.000126359
      101.600   0.000125583
      101.700   0.000124822
      101.800   0.000124069
      101.900   0.000123318
      102.000   0.000122573
      102.100   0.000121851
      102.200   0.000121143
      102.300   0.000120439
      102.400   0.000119737
      102.500   0.000119037
      102.600   0.000118337
      102.700   0.000117640
      102.800   0.000116945
      102.900   0.000116253
      103.000   0.000115561
      103.100   0.000114871
      103.200   0.000114183
      103.300   0.000113498
      103.400   0.000112817
      103.500   0.000112138
      103.600   0.000111461
      103.700   0.000110784
      103.800   0.000110084
      103.900   0.000109357
      104.000   0.000108634
      104.100   0.000107917
      104.200   0.000107216
      104.300   0.000106596
      104.400   0.000105981
      104.500   0.000105369
      104.600   0.000104759
      104.700   0.000104127
      104.800   0.000103486
      104.900   0.000102847
      105.000   0.000102211
      105.100   0.000101595
      105.200   0.000101025
      105.300   0.000100458
      105.400   9.98930e-05
      105.500   9.93283e-05
      105.600   9.87741e-05
      105.700   9.82233e-05
      105.800   9.76739e-05
      105.900   9.71273e-05
      106.000   9.65970e-05
      106.100   9.60982e-05
      106.200   9.56027e-05
      106.300   9.51086e-05
      106.400   9.46163e-05
      106.500   9.41260e-05
      106.600   9.36375e-05
      106.700   9.31502e-05
      106.800   9.26636e-05
      106.900   9.21790e-05
      107.000   9.16965e-05
      107.100   9.12167e-05
      107.200   9.07394e-05
      107.300   9.02642e-05
      107.400   8.97884e-05
      107.500   8.93121e-05
      107.600   8.88369e-05
      107.700   8.83631e-05
      107.800   8.78913e-05
      107.900   8.74149e-05
      108.000   8.69394e-05
      108.100   8.64644e-05
      108.200   8.59902e-05
      108.300   8.55168e-05
      108.400   8.50387e-05
      108.500   8.45625e-05
      108.600   8.40877e-05
      108.700   8.36131e-05
      108.800   8.31185e-05
      108.900   8.25952e-05
      109.000   8.20736e-05
      109.100   8.15544e-05
      109.200   8.10375e-05
      109.300   8.05229e-05
      109.400   8.00104e-05
      109.500   7.95002e-05
      109.600   7.89926e-05
      109.700   7.84877e-05
      109.800   7.79862e-05
      109.900   7.74873e-05
      110.000   7.69906e-05
      110.100   7.64958e-05
      110.200   7.60028e-05
      110.300   7.55247e-05
      110.400   7.50501e-05
      110.500   7.45783e-05
      110.600   7.41089e-05
      110.700   7.36412e-05
      110.800   7.31748e-05
      110.900   7.27098e-05
      111.000   7.22461e-05
      111.100   7.17840e-05
      111.200   7.13246e-05
      111.300   7.08913e-05
      111.400   7.04594e-05
      111.500   7.00285e-05
      111.600   6.95992e-05
      111.700   6.91729e-05
      111.800   6.87641e-05
      111.900   6.83580e-05
      112.000   6.79538e-05
      112.100   6.75510e-05
      112.200   6.71495e-05
      112.300   6.67342e-05
      112.400   6.63199e-05
      112.500   6.59079e-05
      112.600   6.54981e-05
      112.700   6.50927e-05
      112.800   6.47037e-05
      112.900   6.42807e-05
      113.000   6.38718e-05
      113.100   6.34702e-05
      113.200   6.30637e-05
      113.300   6.26670e-05
      113.400   6.21926e-05
      113.500   6.17007e-05
      113.600   6.12798e-05
      113.700   6.08398e-05
      113.800   6.03557e-05
      113.900   5.99414e-05
      114.000   5.95292e-05
      114.100   5.90717e-05
      114.200   5.86404e-05
      114.300   5.82490e-05
      114.400   5.78490e-05
      114.500   5.74405e-05
      114.600   5.70825e-05
      114.700   5.66893e-05
      114.800   5.63222e-05
      114.900   5.60135e-05
      115.000   5.56643e-05
      115.100   5.52919e-05
      115.200   5.49186e-05
      115.300   5.45981e-05
      115.400   5.42304e-05
      115.500   5.38888e-05
      115.600   5.35287e-05
      115.700   5.31400e-05
      115.800   5.27937e-05
      115.900   5.24274e-05
      116.000   5.20977e-05
      116.100   5.18230e-05
      116.200   5.15450e-05
      116.300   5.12583e-05
      116.400   5.09555e-05
      116.500   5.06914e-05
      116.600   5.04160e-05
      116.700   5.01508e-05
      116.800   4.98751e-05
      116.900   4.95545e-05
      117.000   4.92869e-05
      117.100   4.91681e-05
      117.200   4.91530e-05
      117.300   4.90347e-05
      117.400   4.89091e-05
      117.500   4.87847e-05
      117.600   4.86008e-05
      117.700   4.83941e-05
      117.800   4.81570e-05
      117.900   4.79050e-05
      118.000   4.76242e-05
      118.100   4.73162e-05
      118.200   4.70316e-05
      118.300   4.67576e-05
      118.400   4.63743e-05
      118.500   4.60020e-05
      118.600   4.56819e-05
      118.700   4.53456e-05
      118.800   4.49866e-05
      118.900   4.46459e-05
      119.000   4.42483e-05
      119.100   4.37860e-05
      119.200   4.33827e-05
      119.300   4.30292e-05
      119.400   4.27048e-05
      119.500   4.23942e-05
      119.600   4.20471e-05
      119.700   4.16574e-05
      119.800   4.11820e-05
      119.900   4.05936e-05
      120.000   4.00464e-05
      120.100   3.95326e-05
      120.200   3.91642e-05
      120.300   3.88794e-05
      120.400   3.85948e-05
      120.500   3.81969e-05
      120.600   3.77143e-05
      120.700   3.72072e-05
      120.800   3.67218e-05
      120.900   3.63875e-05
      121.000   3.62855e-05
      121.100   3.61424e-05
      121.200   3.58848e-05
      121.300   3.55470e-05
      121.400   3.51492e-05
      121.500   3.47074e-05
      121.600   3.40886e-05
      121.700   3.35463e-05
      121.800   3.29451e-05
      121.900   3.23407e-05
      122.000   3.16985e-05
      122.100   3.10936e-05
      122.200   3.04992e-05
      122.300   3.00589e-05
      122.400   2.97832e-05
      122.500   2.95433e-05
      122.600   2.92841e-05
      122.700   2.90248e-05
      122.800   2.87307e-05
      122.900   2.84590e-05
      123.000   2.83743e-05
      123.100   2.86111e-05
      123.200   2.88679e-05
      123.300   2.92880e-05
      123.400   2.98419e-05
      123.500   3.05873e-05
      123.600   3.12183e-05
      123.700   3.15198e-05
      123.800   3.17269e-05
      123.900   3.20257e-05
      124.000   3.24732e-05
      124.100   3.34075e-05
      124.200   3.53773e-05
      124.300   3.83501e-05
      124.400   4.12044e-05
      124.500   4.19781e-05
      124.600   4.17918e-05
      124.700   4.14964e-05
      124.800   4.12137e-05
      124.900   4.09316e-05
      125.000   4.06495e-05
      125.100   4.03598e-05
      125.200   4.00704e-05
      125.300   3.97825e-05
      125.400   3.94961e-05
      125.500   3.92112e-05
      125.600   3.89277e-05
      125.700   3.86459e-05
      125.800   3.83656e-05
      125.900   3.80871e-05
      126.000   3.78103e-05
      126.100   3.75353e-05
      126.200   3.72622e-05
      126.300   3.69907e-05
      126.400   3.67208e-05
      126.500   3.64525e-05
      126.600   3.61857e-05
      126.700   3.59204e-05
      126.800   3.56565e-05
      126.900   3.53941e-05
      127.000   3.51323e-05
      127.100   3.48688e-05
      127.200   3.46052e-05
      127.300   3.43426e-05
      127.400   3.40816e-05
      127.500   3.38220e-05
      127.600   3.35641e-05
      127.700   3.33077e-05
      127.800   3.30529e-05
      127.900   3.27997e-05
      128.000   3.25481e-05
      128.100   3.22980e-05
      128.200   3.20493e-05
      128.300   3.18019e-05
      128.400   3.15560e-05
      128.500   3.13114e-05
      128.600   3.10681e-05
      128.700   3.08264e-05
      128.800   3.05861e-05
      128.900   3.03472e-05
      129.000   3.01098e-05
      129.100   2.98733e-05
      129.200   2.96365e-05
      129.300   2.94009e-05
      129.400   2.91670e-05
      129.500   2.89346e-05
      129.600   2.87038e-05
      129.700   2.84746e-05
      129.800   2.82469e-05
      129.900   2.80208e-05
      130.000   2.77964e-05
      130.100   2.75734e-05
      130.200   2.73519e-05
      130.300   2.71321e-05
      130.400   2.69138e-05
      130.500   2.66971e-05
      130.600   2.64819e-05
      130.700   2.62684e-05
      130.800   2.60565e-05
      130.900   2.58461e-05
      131.000   2.56371e-05
      131.100   2.54295e-05
      131.200   2.52231e-05
      131.300   2.50175e-05
      131.400   2.48133e-05
      131.500   2.46103e-05
      131.600   2.44086e-05
      131.700   2.42082e-05
      131.800   2.40090e-05
      131.900   2.38111e-05
      132.000   2.36145e-05
      132.100   2.34190e-05
      132.200   2.32249e-05
      132.300   2.30320e-05
      132.400   2.28403e-05
      132.500   2.26501e-05
      132.600   2.24612e-05
      132.700   2.22737e-05
      132.800   2.20874e-05
      132.900   2.19024e-05
      133.000   2.17187e-05
      133.100   2.15362e-05
      133.200   2.13549e-05
      133.300   2.11748e-05
      133.400   2.09957e-05
      133.500   2.08179e-05
      133.600   2.06413e-05
      133.700   2.04661e-05
      133.800   2.02921e-05
      133.900   2.01195e-05
      134.000   1.99482e-05
      134.100   1.97782e-05
      134.200   1.96094e-05
      134.300   1.94419e-05
      134.400   1.92756e-05
      134.500   1.91106e-05
      134.600   1.89469e-05
      134.700   1.87843e-05
      134.800   1.86231e-05
      134.900   1.84630e-05
      135.000   1.83041e-05
      135.100   1.81465e-05
      135.200   1.79900e-05
      135.300   1.78347e-05
      135.400   1.76806e-05
      135.500   1.75271e-05
      135.600   1.73744e-05
      135.700   1.72229e-05
      135.800   1.70725e-05
      135.900   1.69232e-05
      136.000   1.67749e-05
      136.100   1.66277e-05
      136.200   1.64817e-05
      136.300   1.63366e-05
      136.400   1.61926e-05
      136.500   1.60496e-05
      136.600   1.59076e-05
      136.700   1.57666e-05
      136.800   1.56266e-05
      136.900   1.54876e-05
      137.000   1.53496e-05
      137.100   1.52125e-05
      137.200   1.50765e-05
      137.300   1.49416e-05
      137.400   1.48078e-05
      137.500   1.46750e-05
      137.600   1.45431e-05
      137.700   1.44121e-05
      137.800   1.42820e-05
      137.900   1.41530e-05
      138.000   1.40249e-05
      138.100   1.38979e-05
      138.200   1.37720e-05
      138.300   1.36471e-05
      138.400   1.35232e-05
      138.500   1.34003e-05
      138.600   1.32784e-05
      138.700   1.31575e-05
      138.800   1.30376e-05
      138.900   1.29186e-05
      139.000   1.28007e-05
      139.100   1.26838e-05
      139.200   1.25678e-05
      139.300   1.24528e-05
      139.400   1.23388e-05
      139.500   1.22256e-05
      139.600   1.21133e-05
      139.700   1.20020e-05
      139.800   1.18915e-05
      139.900   1.17819e-05
      140.000   1.16731e-05
      140.100   1.15652e-05
      140.200   1.14582e-05
      140.300   1.13520e-05
      140.400   1.12466e-05
      140.500   1.11420e-05
      140.600   1.10382e-05
      140.700   1.09353e-05
      140.800   1.08333e-05
      140.900   1.07322e-05
      141.000   1.06318e-05
      141.100   1.05322e-05
      141.200   1.04335e-05
      141.300   1.03355e-05
      141.400   1.02383e-05
      141.500   1.01418e-05
      141.600   1.00462e-05
      141.700   9.95131e-06
      141.800   9.85720e-06
      141.900   9.76383e-06
      142.000   9.67121e-06
      142.100   9.58314e-06
      142.200   9.50673e-06
      142.300   9.44022e-06
      142.400   9.37405e-06
      142.500   9.30819e-06
      142.600   9.24263e-06
      142.700   9.17739e-06
      142.800   9.11249e-06
      142.900   9.04793e-06
      143.000   8.98371e-06
      143.100   8.91983e-06
      143.200   8.85634e-06
      143.300   8.79317e-06
      143.400   8.73037e-06
      143.500   8.66789e-06
      143.600   8.60574e-06
      143.700   8.54389e-06
      143.800   8.48241e-06
      143.900   8.42127e-06
      144.000   8.36044e-06
      144.100   8.29993e-06
      144.200   8.23975e-06
      144.300   8.17986e-06
      144.400   8.12118e-06
      144.500   8.07492e-06
      144.600   8.03260e-06
      144.700   7.99076e-06
      144.800   7.94894e-06
      144.900   7.90715e-06
      145.000   7.86538e-06
      145.100   7.82366e-06
      145.200   7.78195e-06
      145.300   7.74029e-06
      145.400   7.69865e-06
      145.500   7.65703e-06
      145.600   7.61544e-06
      145.700   7.57388e-06
      145.800   7.53236e-06
      145.900   7.49089e-06
      146.000   7.44944e-06
      146.100   7.40803e-06
      146.200   7.36667e-06
      146.300   7.32537e-06
      146.400   7.28409e-06
      146.500   7.24292e-06
      146.600   7.20180e-06
      146.700   7.16076e-06
      146.800   7.11935e-06
      146.900   7.07740e-06
      147.000   7.03554e-06
      147.100   6.99377e-06
      147.200   6.95211e-06
      147.300   6.91053e-06
      147.400   6.86906e-06
      147.500   6.82768e-06
      147.600   6.78639e-06
      147.700   6.74522e-06
      147.800   6.70416e-06
      147.900   6.66320e-06
      148.000   6.62235e-06
      148.100   6.58162e-06
      148.200   6.54102e-06
      148.300   6.50054e-06
      148.400   6.46020e-06
      148.500   6.41998e-06
      148.600   6.37990e-06
      148.700   6.33994e-06
      148.800   6.30010e-06
      148.900   6.26043e-06
      149.000   6.22091e-06
      149.100   6.18151e-06
      149.200   6.14221e-06
      149.300   6.10303e-06
      149.400   6.06398e-06
      149.500   6.02508e-06
      149.600   5.98629e-06
      149.700   5.94764e-06
      149.800   5.90912e-06
      149.900   5.87072e-06
      150.000   5.83244e-06
      150.100   5.79429e-06
      150.200   5.75625e-06
      150.300   5.71836e-06
      150.400   5.68059e-06
      150.500   5.64294e-06
      150.600   5.60541e-06
      150.700   5.56799e-06
      150.800   5.53072e-06
      150.900   5.49356e-06
      151.000   5.45652e-06
      151.100   5.41960e-06
      151.200   5.38280e-06
      151.300   5.34613e-06
      151.400   5.30958e-06
      151.500   5.27318e-06
      151.600   5.23697e-06
      151.700   5.20098e-06
      151.800   5.16512e-06
      151.900   5.12937e-06
      152.000   5.09376e-06
      152.100   5.05830e-06
      152.200   5.02299e-06
      152.300   4.98780e-06
      152.400   4.95277e-06
      152.500   4.91789e-06
      152.600   4.88315e-06
      152.700   4.84857e-06
      152.800   4.81414e-06
      152.900   4.77989e-06
      153.000   4.74578e-06
      153.100   4.71185e-06
      153.200   4.67806e-06
      153.300   4.64444e-06
      153.400   4.61099e-06
      153.500   4.57768e-06
      153.600   4.54454e-06
      153.700   4.51156e-06
      153.800   4.47874e-06
      153.900   4.44607e-06
      154.000   4.41408e-06
      154.100   4.38341e-06
      154.200   4.35327e-06
      154.300   4.32324e-06
      154.400   4.29334e-06
      154.500   4.26357e-06
      154.600   4.23393e-06
      154.700   4.20441e-06
      154.800   4.17500e-06
      154.900   4.14573e-06
      155.000   4.11657e-06
      155.100   4.08755e-06
      155.200   4.05863e-06
      155.300   4.02986e-06
      155.400   4.00122e-06
      155.500   3.97269e-06
      155.600   3.94428e-06
      155.700   3.91600e-06
      155.800   3.88784e-06
      155.900   3.85980e-06
      156.000   3.83188e-06
      156.100   3.80408e-06
      156.200   3.77641e-06
      156.300   3.74884e-06
      156.400   3.72139e-06
      156.500   3.69392e-06
      156.600   3.66572e-06
      156.700   3.63765e-06
      156.800   3.60971e-06
      156.900   3.58190e-06
      157.000   3.55424e-06
      157.100   3.52670e-06
      157.200   3.49931e-06
      157.300   3.47205e-06
      157.400   3.44492e-06
      157.500   3.41793e-06
      157.600   3.39107e-06
      157.700   3.36435e-06
      157.800   3.33777e-06
      157.900   3.31133e-06
      158.000   3.28503e-06
      158.100   3.25888e-06
      158.200   3.23286e-06
      158.300   3.20699e-06
      158.400   3.18126e-06
      158.500   3.15567e-06
      158.600   3.13023e-06
      158.700   3.10493e-06
      158.800   3.07978e-06
      158.900   3.05477e-06
      159.000   3.02992e-06
      159.100   3.00519e-06
      159.200   2.98061e-06
      159.300   2.95617e-06
      159.400   2.93188e-06
      159.500   2.90775e-06
      159.600   2.88376e-06
      159.700   2.85992e-06
      159.800   2.83622e-06
      159.900   2.81267e-06
      160.000   2.78927e-06
      160.100   2.76602e-06
      160.200   2.74291e-06
      160.300   2.71994e-06
      160.400   2.69712e-06
      160.500   2.67443e-06
      160.600   2.65188e-06
      160.700   2.62948e-06
      160.800   2.60721e-06
      160.900   2.58507e-06
      161.000   2.56307e-06
      161.100   2.54121e-06
      161.200   2.51948e-06
      161.300   2.49789e-06
      161.400   2.47644e-06
      161.500   2.45512e-06
      161.600   2.43392e-06
      161.700   2.41284e-06
      161.800   2.39188e-06
      161.900   2.37106e-06
      162.000   2.35036e-06
      162.100   2.32980e-06
      162.200   2.30937e-06
      162.300   2.28907e-06
      162.400   2.26890e-06
      162.500   2.24886e-06
      162.600   2.22896e-06
      162.700   2.20919e-06
      162.800   2.18954e-06
      162.900   2.17003e-06
      163.000   2.15064e-06
      163.100   2.13138e-06
      163.200   2.11225e-06
      163.300   2.09324e-06
      163.400   2.07436e-06
      163.500   2.05561e-06
      163.600   2.03699e-06
      163.700   2.01849e-06
      163.800   2.00013e-06
      163.900   1.98189e-06
      164.000   1.96378e-06
      164.100   1.94580e-06
      164.200   1.92795e-06
      164.300   1.91034e-06
      164.400   1.89286e-06
      164.500   1.87551e-06
      164.600   1.85829e-06
      164.700   1.84119e-06
      164.800   1.82421e-06
      164.900   1.80735e-06
      165.000   1.79062e-06
      165.100   1.77402e-06
      165.200   1.75754e-06
      165.300   1.74118e-06
      165.400   1.72495e-06
      165.500   1.70884e-06
      165.600   1.69286e-06
      165.700   1.67699e-06
      165.800   1.66125e-06
      165.900   1.64563e-06
      166.000   1.63014e-06
      166.100   1.61476e-06
      166.200   1.59951e-06
      166.300   1.58438e-06
      166.400   1.56936e-06
      166.500   1.55446e-06
      166.600   1.53968e-06
      166.700   1.52502e-06
      166.800   1.51045e-06
      166.900   1.49601e-06
      167.000   1.48170e-06
      167.100   1.46749e-06
      167.200   1.45338e-06
      167.300   1.43939e-06
      167.400   1.42551e-06
      167.500   1.41173e-06
      167.600   1.39807e-06
      167.700   1.38451e-06
      167.800   1.37106e-06
      167.900   1.35771e-06
      168.000   1.34447e-06
      168.100   1.33133e-06
      168.200   1.31830e-06
      168.300   1.30536e-06
      168.400   1.29253e-06
      168.500   1.27981e-06
      168.600   1.26717e-06
      168.700   1.25464e-06
      168.800   1.24221e-06
      168.900   1.22989e-06
      169.000   1.21766e-06
      169.100   1.20552e-06
      169.200   1.19349e-06
      169.300   1.18155e-06
      169.400   1.16970e-06
      169.500   1.15789e-06
      169.600   1.14591e-06
      169.700   1.13372e-06
      169.800   1.12155e-06
      169.900   1.10948e-06
      170.000   1.09750e-06
      170.100   1.08563e-06
      170.200   1.07386e-06
      170.300   1.40881e-06
      170.400   3.04577e-06
      170.500   5.80263e-06
      170.600   8.58756e-06
      170.700   1.08432e-05
      170.800   1.19254e-05
      170.900   1.20140e-05
      171.000   1.18567e-05
      171.100   1.17007e-05
      171.200   1.15458e-05
      171.300   1.13922e-05
      171.400   1.12399e-05
      171.500   1.10889e-05
      171.600   1.09392e-05
      171.700   1.07909e-05
      171.800   1.06440e-05
      171.900   1.04988e-05
      172.000   1.03553e-05
      172.100   1.02135e-05
      172.200   1.00735e-05
      172.300   9.93509e-06
      172.400   9.79655e-06
      172.500   9.65951e-06
      172.600   9.52440e-06
      172.700   9.39125e-06
      172.800   9.25999e-06
      172.900   9.13058e-06
      173.000   9.00313e-06
      173.100   8.87753e-06
      173.200   8.75373e-06
      173.300   8.63179e-06
      173.400   8.51156e-06
      173.500   8.39313e-06
      173.600   8.27646e-06
      173.700   8.16145e-06
      173.800   8.04808e-06
      173.900   7.93641e-06
      174.000   7.82629e-06
      174.100   7.71771e-06
      174.200   7.61071e-06
      174.300   7.50520e-06
      174.400   7.40116e-06
      174.500   7.29855e-06
      174.600   7.19727e-06
      174.700   7.09743e-06
      174.800   6.99894e-06
      174.900   6.90173e-06
      175.000   6.80575e-06
      175.100   6.71104e-06
      175.200   6.61784e-06
      175.300   6.52581e-06
      175.400   6.43495e-06
      175.500   6.34531e-06
      175.600   6.25682e-06
      175.700   6.16950e-06
      175.800   6.08329e-06
      175.900   5.99822e-06
      176.000   5.91426e-06
      176.100   5.83143e-06
      176.200   5.74966e-06
      176.300   5.66894e-06
      176.400   5.58933e-06
      176.500   5.51074e-06
      176.600   5.43317e-06
      176.700   5.35662e-06
      176.800   5.28109e-06
      176.900   5.20657e-06
      177.000   5.13302e-06
      177.100   5.06041e-06
      177.200   4.98880e-06
      177.300   4.91812e-06
      177.400   4.84834e-06
      177.500   4.77947e-06
      177.600   4.71152e-06
      177.700   4.64446e-06
      177.800   4.57828e-06
      177.900   4.51290e-06
      178.000   4.44869e-06
      178.100   4.38535e-06
      178.200   4.32280e-06
      178.300   4.26107e-06
      178.400   4.20018e-06
      178.500   4.14007e-06
      178.600   4.08074e-06
      178.700   4.02218e-06
      178.800   3.96440e-06
      178.900   3.90740e-06
      179.000   3.85114e-06
      179.100   3.79562e-06
      179.200   3.74085e-06
      179.300   3.68682e-06
      179.400   3.63352e-06
      179.500   3.58097e-06
      179.600   3.52914e-06
      179.700   3.47805e-06
      179.800   3.42764e-06
      179.900   3.37795e-06
      180.000   3.32895e-06
      180.100   3.28065e-06
      180.200   3.23305e-06
      180.300   3.18614e-06
      180.400   3.13988e-06
      180.500   3.09431e-06
      180.600   3.04940e-06
      180.700   3.00515e-06
      180.800   2.96155e-06
      180.900   2.91857e-06
      181.000   2.87621e-06
      181.100   2.83449e-06
      181.200   2.79337e-06
      181.300   2.75285e-06
      181.400   2.71294e-06
      181.500   2.67360e-06
      181.600   2.63484e-06
      181.700   2.59663e-06
      181.800   2.55899e-06
      181.900   2.52188e-06
      182.000   2.48533e-06
      182.100   2.44929e-06
      182.200   2.41379e-06
      182.300   2.37879e-06
      182.400   2.34430e-06
      182.500   2.31029e-06
      182.600   2.27676e-06
      182.700   2.24371e-06
      182.800   2.21113e-06
      182.900   2.17899e-06
      183.000   2.14732e-06
      183.100   2.11609e-06
      183.200   2.08530e-06
      183.300   2.05494e-06
      183.400   2.02499e-06
      183.500   1.99548e-06
      183.600   1.96638e-06
      183.700   1.93768e-06
      183.800   1.90941e-06
      183.900   1.88154e-06
      184.000   1.85407e-06
      184.100   1.82699e-06
      184.200   1.80030e-06
      184.300   1.77398e-06
      184.400   1.74803e-06
      184.500   1.72245e-06
      184.600   1.69723e-06
      184.700   1.67237e-06
      184.800   1.64785e-06
      184.900   1.62368e-06
      185.000   1.59985e-06
      185.100   1.57635e-06
      185.200   1.55318e-06
      185.300   1.53035e-06
      185.400   1.50783e-06
      185.500   1.48563e-06
      185.600   1.46373e-06
      185.700   1.44213e-06
      185.800   1.42086e-06
      185.900   1.39989e-06
      186.000   1.37920e-06
      186.100   1.35879e-06
      186.200   1.33867e-06
      186.300   1.31883e-06
      186.400   1.29926e-06
      186.500   1.27995e-06
      186.600   1.26091e-06
      186.700   1.24213e-06
      186.800   1.22360e-06
      186.900   1.20532e-06
      187.000   1.18729e-06
      187.100   1.16950e-06
      187.200   1.15197e-06
      187.300   1.13468e-06
      187.400   1.11762e-06
      187.500   1.10081e-06
      187.600   1.08422e-06
      187.700   1.06787e-06
      187.800   1.05173e-06
      187.900   1.03582e-06
      188.000   1.02014e-06
      188.100   1.00467e-06
      188.200   9.89417e-07
      188.300   9.74375e-07
      188.400   9.59546e-07
      188.500   9.44933e-07
      188.600   9.30533e-07
      188.700   9.16346e-07
      188.800   9.02366e-07
      188.900   8.88595e-07
      189.000   8.75019e-07
      189.100   8.61637e-07
      189.200   8.48453e-07
      189.300   8.35466e-07
      189.400   8.22673e-07
      189.500   8.10067e-07
      189.600   7.97643e-07
      189.700   7.85410e-07
      189.800   7.73425e-07
      189.900   7.61637e-07
      190.000   7.50021e-07
      190.100   7.38584e-07
      190.200   7.27316e-07
      190.300   7.16218e-07
      190.400   7.05281e-07
      190.500   6.94509e-07
      190.600   6.83902e-07
      190.700   6.73451e-07
      190.800   6.63156e-07
      190.900   6.53018e-07
      191.000   6.43034e-07
      191.100   6.33209e-07
      191.200   6.23527e-07
      191.300   6.13990e-07
      191.400   6.04597e-07
      191.500   5.95340e-07
      191.600   5.86223e-07
      191.700   5.77242e-07
      191.800   5.68390e-07
      191.900   5.59672e-07
      192.000   5.51088e-07
      192.100   5.42636e-07
      192.200   5.34316e-07
      192.300   5.26118e-07
      192.400   5.18040e-07
      192.500   5.10082e-07
      192.600   5.02243e-07
      192.700   4.94522e-07
      192.800   4.86914e-07
      192.900   4.79414e-07
      193.000   4.72029e-07
      193.100   4.64758e-07
      193.200   4.57600e-07
      193.300   4.50551e-07
      193.400   4.43610e-07
      193.500   4.36773e-07
      193.600   4.30036e-07
      193.700   4.23400e-07
      193.800   4.16867e-07
      193.900   4.10434e-07
      194.000   4.04096e-07
      194.100   3.97858e-07
      194.200   3.91721e-07
      194.300   3.85677e-07
      194.400   3.79722e-07
      194.500   3.73857e-07
      194.600   3.68079e-07
      194.700   3.62390e-07
      194.800   3.56788e-07
      194.900   3.51267e-07
      195.000   3.45829e-07
      195.100   3.40479e-07
      195.200   3.35210e-07
      195.300   3.30021e-07
      195.400   3.24906e-07
      195.500   3.19867e-07
      195.600   3.14902e-07
      195.700   3.10010e-07
      195.800   3.05189e-07
      195.900   3.00438e-07
      196.000   2.95704e-07
      196.100   2.91039e-07
      196.200   2.86443e-07
      196.300   2.81915e-07
      196.400   2.77452e-07
      196.500   2.73054e-07
      196.600   2.68721e-07
      196.700   2.64451e-07
      196.800   2.60246e-07
      196.900   2.56105e-07
      197.000   2.52026e-07
      197.100   2.48007e-07
      197.200   2.44046e-07
      197.300   2.40142e-07
      197.400   2.36293e-07
      197.500   2.32503e-07
      197.600   2.28768e-07
      197.700   2.25093e-07
      197.800   2.21474e-07
      197.900   2.17907e-07
      198.000   2.14393e-07
      198.100   2.10932e-07
      198.200   2.07521e-07
      198.300   2.04160e-07
      198.400   2.00851e-07
      198.500   1.97596e-07
      198.600   1.94392e-07
      198.700   1.91235e-07
      198.800   1.88126e-07
      198.900   1.85066e-07
      199.000   1.82050e-07
      199.100   1.79081e-07
      199.200   1.76158e-07
      199.300   1.73284e-07
      199.400   1.70456e-07
      199.500   1.67672e-07
      199.600   1.64930e-07
      199.700   1.62231e-07
      199.800   1.59574e-07
      199.900   1.56958e-07
      200.000   1.54383e-07
      200.100   1.51859e-07
      200.200   1.49368e-07
      200.300   1.46918e-07
      200.400   1.44506e-07
      200.500   1.42132e-07
      200.600   1.39796e-07
      200.700   1.37497e-07
      200.800   1.35234e-07
      200.900   1.33007e-07
      201.000   1.30818e-07
      201.100   1.28664e-07
      201.200   1.26544e-07
      201.300   1.24458e-07
      201.400   1.22406e-07
      201.500   1.20386e-07
      201.600   1.18398e-07
      201.700   1.16443e-07
      201.800   1.14518e-07
      201.900   1.12625e-07
      202.000   1.10765e-07
      202.100   1.08933e-07
      202.200   1.07131e-07
      202.300   1.05421e-07
      202.400   1.03853e-07
      202.500   1.02341e-07
      202.600   1.00850e-07
      202.700   9.93802e-08
      202.800   9.79324e-08
      202.900   9.65059e-08
      203.000   9.51003e-08
      203.100   9.37157e-08
      203.200   9.23506e-08
      203.300   9.10049e-08
      203.400   8.96788e-08
      203.500   8.83724e-08
      203.600   8.70848e-08
      203.700   8.58161e-08
      203.800   8.45668e-08
      203.900   8.33365e-08
      204.000   8.21239e-08
      204.100   8.09293e-08
      204.200   7.97526e-08
      204.300   7.85927e-08
      204.400   7.74502e-08
      204.500   7.63244e-08
      204.600   7.52150e-08
      204.700   7.41220e-08
      204.800   7.30462e-08
      204.900   7.19862e-08
      205.000   7.09418e-08
      205.100   6.99130e-08
      205.200   6.88988e-08
      205.300   6.79000e-08
      205.400   6.69157e-08
      205.500   6.59454e-08
      205.600   6.50147e-08
      205.700   6.41203e-08
      205.800   6.32411e-08
      205.900   6.23746e-08
      206.000   6.15205e-08
      206.100   6.06777e-08
      206.200   5.98462e-08
      206.300   5.90263e-08
      206.400   5.82176e-08
      206.500   5.74193e-08
      206.600   5.66321e-08
      206.700   5.58554e-08
      206.800   5.50886e-08
      206.900   5.43322e-08
      207.000   5.35861e-08
      207.100   5.28498e-08
      207.200   5.21237e-08
      207.300   5.14071e-08
      207.400   5.06996e-08
      207.500   5.00014e-08
      207.600   4.93124e-08
      207.700   4.86321e-08
      207.800   4.79607e-08
      207.900   4.72980e-08
      208.000   4.66439e-08
      208.100   4.59983e-08
      208.200   4.53612e-08
      208.300   4.47322e-08
      208.400   4.41116e-08
      208.500   4.34993e-08
      208.600   4.28946e-08
      208.700   4.22977e-08
      208.800   4.17086e-08
      208.900   4.11264e-08
      209.000   4.05479e-08
      209.100   3.99769e-08
      209.200   3.94135e-08
      209.300   3.88572e-08
      209.400   3.83086e-08
      209.500   3.77671e-08
      209.600   3.72328e-08
      209.700   3.67057e-08
      209.800   3.61861e-08
      209.900   3.56731e-08
      210.000   3.51672e-08
      210.100   3.46680e-08
      210.200   3.41755e-08
      210.300   3.36897e-08
      210.400   3.32104e-08
      210.500   3.27375e-08
      210.600   3.22710e-08
      210.700   3.18110e-08
      210.800   3.13571e-08
      210.900   3.09094e-08
      211.000   3.04678e-08
      211.100   3.00322e-08
      211.200   2.96026e-08
      211.300   2.91791e-08
      211.400   2.87617e-08
      211.500   2.83497e-08
      211.600   2.79434e-08
      211.700   2.75428e-08
      211.800   2.71475e-08
      211.900   2.67577e-08
      212.000   2.63735e-08
      212.100   2.59944e-08
      212.200   2.56204e-08
      212.300   2.52519e-08
      212.400   2.48885e-08
      212.500   2.45302e-08
      212.600   2.41769e-08
      212.700   2.38284e-08
      212.800   2.34848e-08
      212.900   2.31461e-08
      213.000   2.28119e-08
      213.100   2.24826e-08
      213.200   2.21580e-08
      213.300   2.18378e-08
      213.400   2.15221e-08
      213.500   2.12109e-08
      213.600   2.09039e-08
      213.700   2.06014e-08
      213.800   2.03030e-08
      213.900   2.00091e-08
      214.000   1.97191e-08
      214.100   1.94333e-08
      214.200   1.91517e-08
      214.300   1.88739e-08
      214.400   1.86002e-08
      214.500   1.83303e-08
      214.600   1.80644e-08
      214.700   1.78023e-08
      214.800   1.75440e-08
      214.900   1.72895e-08
      215.000   1.70386e-08
      215.100   1.67914e-08
      215.200   1.65478e-08
      215.300   1.63079e-08
      215.400   1.60714e-08
      215.500   1.58384e-08
      215.600   1.56090e-08
      215.700   1.53828e-08
      215.800   1.51598e-08
      215.900   1.49402e-08
      216.000   1.47238e-08
      216.100   1.45106e-08
      216.200   1.43005e-08
      216.300   1.40936e-08
      216.400   1.38898e-08
      216.500   1.36889e-08
      216.600   1.34910e-08
      216.700   1.32961e-08
      216.800   1.31040e-08
      216.900   1.29149e-08
      217.000   1.27285e-08
      217.100   1.25448e-08
      217.200   1.23638e-08
      217.300   1.21856e-08
      217.400   1.20099e-08
      217.500   1.18369e-08
      217.600   1.16664e-08
      217.700   1.14983e-08
      217.800   1.13327e-08
      217.900   1.11696e-08
      218.000   1.10089e-08
      218.100   1.08505e-08
      218.200   1.06944e-08
      218.300   1.05406e-08
      218.400   1.03891e-08
      218.500   1.02396e-08
      218.600   1.00923e-08
      218.700   9.94717e-09
      218.800   9.80408e-09
      218.900   9.66308e-09
      219.000   9.52403e-09
      219.100   9.38694e-09
      219.200   9.25183e-09
      219.300   9.11861e-09
      219.400   8.98724e-09
      219.500   8.85774e-09
      219.600   8.73006e-09
      219.700   8.60417e-09
      219.800   8.48009e-09
      219.900   8.35771e-09
      220.000   8.23703e-09
      220.100   8.11804e-09
      220.200   8.00070e-09
      220.300   7.88503e-09
      220.400   7.77096e-09
      220.500   7.65850e-09
      220.600   7.54762e-09
      220.700   7.43824e-09
      220.800   7.33037e-09
      220.900   7.22406e-09
      221.000   7.11919e-09
      221.100   7.01576e-09
      221.200   6.91383e-09
      221.300   6.81329e-09
      221.400   6.71415e-09
      221.500   6.61641e-09
      221.600   6.52003e-09
      221.700   6.42497e-09
      221.800   6.33121e-09
      221.900   6.23879e-09
      222.000   6.14770e-09
      222.100   6.05783e-09
      222.200   5.96925e-09
      222.300   5.88188e-09
      222.400   5.79575e-09
      222.500   5.71080e-09
      222.600   5.62708e-09
      222.700   5.54451e-09
      222.800   5.46307e-09
      222.900   5.38279e-09
      223.000   5.30362e-09
      223.100   5.22555e-09
      223.200   5.14858e-09
      223.300   5.07269e-09
      223.400   4.99790e-09
      223.500   4.92410e-09
      223.600   4.85140e-09
      223.700   4.77969e-09
      223.800   4.70898e-09
      223.900   4.63933e-09
      224.000   4.57060e-09
      224.100   4.50284e-09
      224.200   4.43604e-09
      224.300   4.37020e-09
      224.400   4.30527e-09
      224.500   4.24127e-09
      224.600   4.17814e-09
      224.700   4.11596e-09
      224.800   4.05463e-09
      224.900   3.99415e-09
      225.000   3.93454e-09
      225.100   3.87577e-09
      225.200   3.81782e-09
      225.300   3.76072e-09
      225.400   3.70441e-09
      225.500   3.64890e-09
      225.600   3.59418e-09
      225.700   3.54025e-09
      225.800   3.48707e-09
      225.900   3.43466e-09
      226.000   3.38301e-09
      226.100   3.33209e-09
      226.200   3.28191e-09
      226.300   3.23268e-09
      226.400   3.18436e-09
      226.500   3.13668e-09
      226.600   3.08962e-09
      226.700   3.04322e-09
      226.800   2.99743e-09
      226.900   2.95229e-09
      227.000   2.90780e-09
      227.100   2.86394e-09
      227.200   2.82073e-09
      227.300   2.77816e-09
      227.400   2.73620e-09
      227.500   2.69486e-09
      227.600   2.65413e-09
      227.700   2.61400e-09
      227.800   2.57446e-09
      227.900   2.53551e-09
      228.000   2.49714e-09
      228.100   2.45934e-09
      228.200   2.42209e-09
      228.300   2.38540e-09
      228.400   2.34928e-09
      228.500   2.31368e-09
      228.600   2.27862e-09
      228.700   2.24409e-09
      228.800   2.21007e-09
      228.900   2.17659e-09
      229.000   2.14360e-09
      229.100   2.11111e-09
      229.200   2.07912e-09
      229.300   2.04761e-09
      229.400   2.01658e-09
      229.500   1.98603e-09
      229.600   1.95594e-09
      229.700   1.92631e-09
      229.800   1.89714e-09
      229.900   1.86841e-09
      230.000   1.83997e-09
      230.100   1.81096e-09
      230.200   1.78237e-09
      230.300   1.75425e-09
      230.400   1.72657e-09
      230.500   1.69934e-09
      230.600   1.67254e-09
      230.700   1.64616e-09
      230.800   1.62021e-09
      230.900   1.59467e-09
      231.000   1.56954e-09
      231.100   1.54480e-09
      231.200   1.52045e-09
      231.300   1.49650e-09
      231.400   1.47293e-09
      231.500   1.44972e-09
      231.600   1.42688e-09
      231.700   1.40440e-09
      231.800   1.38229e-09
      231.900   1.36051e-09
      232.000   1.33909e-09
      232.100   1.31799e-09
      232.200   1.29724e-09
      232.300   1.27681e-09
      232.400   1.25670e-09
      232.500   1.23690e-09
      232.600   1.21741e-09
      232.700   1.19824e-09
      232.800   1.17936e-09
      232.900   1.16078e-09
      233.000   1.14249e-09
      233.100   1.12449e-09
      233.200   1.10676e-09
      233.300   1.08932e-09
      233.400   1.07215e-09
      233.500   1.05525e-09
      233.600   1.03861e-09
      233.700   1.02224e-09
      233.800   1.00439e-09
      233.900   9.86628e-10
      234.000   9.69166e-10
      234.100   9.52012e-10
      234.200   9.35160e-10
      234.300   9.18600e-10
      234.400   9.02326e-10
      234.500   8.86336e-10
      234.600   8.70621e-10
      234.700   8.55183e-10
      234.800   8.40016e-10
      234.900   8.25108e-10
      235.000   8.10457e-10
      235.100   7.96063e-10
      235.200   7.81921e-10
      235.300   7.68023e-10
      235.400   7.54367e-10
      235.500   7.40948e-10
      235.600   7.27767e-10
      235.700   7.14810e-10
      235.800   7.02090e-10
      235.900   6.89592e-10
      236.000   6.77310e-10
      236.100   6.65239e-10
      236.200   6.53379e-10
      236.300   6.41724e-10
      236.400   6.30275e-10
      236.500   6.19022e-10
      236.600   6.07965e-10
      236.700   5.97099e-10
      236.800   5.86422e-10
      236.900   5.75931e-10
      237.000   5.65621e-10
      237.100   5.55489e-10
      237.200   5.45535e-10
      237.300   5.35753e-10
      237.400   5.26140e-10
      237.500   5.16692e-10
      237.600   5.07403e-10
      237.700   4.98283e-10
      237.800   4.89320e-10
      237.900   4.80512e-10
      238.000   4.71859e-10
      238.100   4.63353e-10
      238.200   4.54996e-10
      238.300   4.46782e-10
      238.400   4.38710e-10
      238.500   4.30777e-10
      238.600   4.22984e-10
      238.700   4.15326e-10
      238.800   4.07799e-10
      238.900   4.00403e-10
      239.000   3.93133e-10
      239.100   3.85991e-10
      239.200   3.78974e-10
      239.300   3.72079e-10
      239.400   3.65310e-10
      239.500   3.58658e-10
      239.600   3.52119e-10
      239.700   3.45698e-10
      239.800   3.39385e-10
      239.900   3.33183e-10
      240.000   3.27089e-10
      240.100   3.21099e-10
      240.200   3.15214e-10
      240.300   3.09431e-10
      240.400   3.03748e-10
      240.500   2.98168e-10
      240.600   2.92684e-10
      240.700   2.87296e-10
      240.800   2.82005e-10
      240.900   2.76809e-10
      241.000   2.71705e-10
      241.100   2.66690e-10
      241.200   2.61765e-10
      241.300   2.56924e-10
      241.400   2.52171e-10
      241.500   2.47500e-10
      241.600   2.42912e-10
      241.700   2.38406e-10
      241.800   2.33979e-10
      241.900   2.29630e-10
      242.000   2.25359e-10
      242.100   2.21166e-10
      242.200   2.17050e-10
      242.300   2.13009e-10
      242.400   2.09041e-10
      242.500   2.05143e-10
      242.600   2.01316e-10
      242.700   1.97557e-10
      242.800   1.93867e-10
      242.900   1.90243e-10
      243.000   1.86684e-10
      243.100   1.83190e-10
      243.200   1.79758e-10
      243.300   1.76389e-10
      243.400   1.73083e-10
      243.500   1.69837e-10
      243.600   1.66654e-10
      243.700   1.63528e-10
      243.800   1.60459e-10
      243.900   1.57447e-10
      244.000   1.54490e-10
      244.100   1.51587e-10
      244.200   1.48737e-10
      244.300   1.45939e-10
      244.400   1.43193e-10
      244.500   1.40497e-10
      244.600   1.37851e-10
      244.700   1.35255e-10
      244.800   1.32710e-10
      244.900   1.30212e-10
      245.000   1.27758e-10
      245.100   1.25351e-10
      245.200   1.22989e-10
      245.300   1.20671e-10
      245.400   1.18394e-10
      245.500   1.16161e-10
      245.600   1.13969e-10
      245.700   1.11817e-10
      245.800   1.09705e-10
      245.900   1.07635e-10
      246.000   1.05605e-10
      246.100   1.03612e-10
      246.200   1.01656e-10
      246.300   9.97368e-11
      246.400   9.78535e-11
      246.500   9.60048e-11
      246.600   9.41906e-11
      246.700   9.24106e-11
      246.800   9.06629e-11
      246.900   8.89480e-11
      247.000   8.72674e-11
      247.100   8.56186e-11
      247.200   8.40009e-11
      247.300   8.24134e-11
      247.400   8.08553e-11
      247.500   7.93263e-11
      247.600   7.78258e-11
      247.700   7.63533e-11
      247.800   7.49082e-11
      247.900   7.34899e-11
      248.000   7.20983e-11
      248.100   7.07359e-11
      248.200   6.93985e-11
      248.300   6.80858e-11
      248.400   6.67977e-11
      248.500   6.55334e-11
      248.600   6.42927e-11
      248.700   6.30754e-11
      248.800   6.18808e-11
      248.900   6.07086e-11
      249.000   5.95583e-11
      249.100   5.84310e-11
      249.200   5.73256e-11
      249.300   5.62404e-11
      249.400   5.51755e-11
      249.500   5.41306e-11
      249.600   5.31050e-11
      249.700   5.20985e-11
      249.800   5.11109e-11
      249.900   5.01416e-11
      250.000   4.91907e-11
      250.100   4.82588e-11
      250.200   4.73442e-11
      250.300   4.64475e-11
      250.400   4.55674e-11
      250.500   4.47039e-11
      250.600   4.38567e-11
      250.700   4.30251e-11
      250.800   4.22092e-11
      250.900   4.14086e-11
      251.000   4.06229e-11
      251.100   3.98520e-11
      251.200   3.90960e-11
      251.300   3.83549e-11
      251.400   3.76277e-11
      251.500   3.69138e-11
      251.600   3.62134e-11
      251.700   3.55264e-11
      251.800   3.48521e-11
      251.900   3.41903e-11
      252.000   3.35409e-11
      252.100   3.29040e-11
      252.200   3.22785e-11
      252.300   3.16655e-11
      252.400   3.10639e-11
      252.500   3.04740e-11
      252.600   2.98949e-11
      252.700   2.93267e-11
      252.800   2.87691e-11
      252.900   2.82219e-11
      253.000   2.76849e-11
      253.100   2.71581e-11
      253.200   2.66410e-11
      253.300   2.61434e-11
      253.400   2.56595e-11
      253.500   2.51847e-11
      253.600   2.47187e-11
      253.700   2.42611e-11
      253.800   2.38120e-11
      253.900   2.33710e-11
      254.000   2.29379e-11
      254.100   2.25125e-11
      254.200   2.20948e-11
      254.300   2.16848e-11
      254.400   2.12821e-11
      254.500   2.08866e-11
      254.600   2.04983e-11
      254.700   2.01172e-11
      254.800   1.97432e-11
      254.900   1.93759e-11
      255.000   1.90153e-11
      255.100   1.86610e-11
      255.200   1.83132e-11
      255.300   1.79716e-11
      255.400   1.76362e-11
      255.500   1.73070e-11
      255.600   1.69836e-11
      255.700   1.66661e-11
      255.800   1.63542e-11
      255.900   1.60479e-11
      256.000   1.57472e-11
      256.100   1.54521e-11
      256.200   1.51623e-11
      256.300   1.48778e-11
      256.400   1.45986e-11
      256.500   1.43242e-11
      256.600   1.40549e-11
      256.700   1.37905e-11
      256.800   1.35308e-11
      256.900   1.32758e-11
      257.000   1.30254e-11
      257.100   1.27795e-11
      257.200   1.25382e-11
      257.300   1.23012e-11
      257.400   1.20711e-11
      257.500   1.18461e-11
      257.600   1.16254e-11
      257.700   1.14087e-11
      257.800   1.11958e-11
      257.900   1.09868e-11
      258.000   1.07815e-11
      258.100   1.05798e-11
      258.200   1.03818e-11
      258.300   1.01875e-11
      258.400   9.99649e-12
      258.500   9.80893e-12
      258.600   9.62483e-12
      258.700   9.44403e-12
      258.800   9.26644e-12
      258.900   9.09219e-12
      259.000   8.92095e-12
      259.100   8.75292e-12
      259.200   8.58788e-12
      259.300   8.42601e-12
      259.400   8.26704e-12
      259.500   8.11092e-12
      259.600   7.95771e-12
      259.700   7.80730e-12
      259.800   7.65957e-12
      259.900   7.51449e-12
      260.000   7.37213e-12
      260.100   7.23239e-12
      260.200   7.09519e-12
      260.300   6.96050e-12
      260.400   6.82830e-12
      260.500   6.69856e-12
      260.600   6.57115e-12
      260.700   6.44608e-12
      260.800   6.32342e-12
      260.900   6.20292e-12
      261.000   6.08472e-12
      261.100   5.96875e-12
      261.200   5.85490e-12
      261.300   5.74316e-12
      261.400   5.63355e-12
      261.500   5.52610e-12
      261.600   5.42107e-12
      261.700   5.31806e-12
      261.800   5.21698e-12
      261.900   5.11772e-12
      262.000   5.02032e-12
      262.100   4.92472e-12
      262.200   4.83094e-12
      262.300   4.73886e-12
      262.400   4.64852e-12
      262.500   4.55985e-12
      262.600   4.47281e-12
      262.700   4.38741e-12
      262.800   4.30361e-12
      262.900   4.22134e-12
      263.000   4.14069e-12
      263.100   4.06150e-12
      263.200   3.98385e-12
      263.300   3.90763e-12
      263.400   3.83285e-12
      263.500   3.75949e-12
      263.600   3.68751e-12
      263.700   3.61687e-12
      263.800   3.54755e-12
      263.900   3.47958e-12
      264.000   3.41287e-12
      264.100   3.34740e-12
      264.200   3.28315e-12
      264.300   3.22016e-12
      264.400   3.15835e-12
      264.500   3.09770e-12
      264.600   3.03818e-12
      264.700   2.97982e-12
      264.800   2.92253e-12
      264.900   2.86635e-12
      265.000   2.81125e-12
      265.100   2.75716e-12
      265.200   2.70412e-12
      265.300   2.65208e-12
      265.400   2.60104e-12
      265.500   2.55096e-12
      265.600   2.50186e-12
      265.700   2.45366e-12
      265.800   2.40647e-12
      265.900   2.36016e-12
      266.000   2.31477e-12
      266.100   2.27024e-12
      266.200   2.22656e-12
      266.300   2.18370e-12
      266.400   2.14168e-12
      266.500   2.10044e-12
      266.600   2.06001e-12
      266.700   2.02034e-12
      266.800   1.98145e-12
      266.900   1.94329e-12
      267.000   1.90585e-12
      267.100   1.86913e-12
      267.200   1.83315e-12
      267.300   1.79784e-12
      267.400   1.76319e-12
      267.500   1.72922e-12
      267.600   1.69590e-12
      267.700   1.66322e-12
      267.800   1.63116e-12
      267.900   1.59972e-12
      268.000   1.56889e-12
      268.100   1.53865e-12
      268.200   1.50899e-12
      268.300   1.47992e-12
      268.400   1.45139e-12
      268.500   1.42341e-12
      268.600   1.39596e-12
      268.700   1.36906e-12
      268.800   1.34266e-12
      268.900   1.31678e-12
      269.000   1.29140e-12
      269.100   1.26650e-12
      269.200   1.24210e-12
      269.300   1.21816e-12
      269.400   1.19466e-12
      269.500   1.17162e-12
      269.600   1.14904e-12
      269.700   1.12689e-12
      269.800   1.10517e-12
      269.900   1.08386e-12
      270.000   1.06297e-12
      270.100   1.04251e-12
      270.200   1.02247e-12
      270.300   1.00281e-12
      270.400   9.83520e-13
      270.500   9.64608e-13
      270.600   9.46055e-13
      270.700   9.27860e-13
      270.800   9.10020e-13
      270.900   8.92509e-13
      271.000   8.75344e-13
      271.100   8.58506e-13
      271.200   8.41984e-13
      271.300   8.25787e-13
      271.400   8.09895e-13
      271.500   7.94311e-13
      271.600   7.79017e-13
      271.700   7.64021e-13
      271.800   7.49315e-13
      271.900   7.34888e-13
      272.000   7.20740e-13
      272.100   7.06856e-13
      272.200   6.93243e-13
      272.300   6.79884e-13
      272.400   6.66780e-13
      272.500   6.53930e-13
      272.600   6.41323e-13
      272.700   6.28955e-13
      272.800   6.16824e-13
      272.900   6.04925e-13
      273.000   5.93256e-13
      273.100   5.81805e-13
      273.200   5.70570e-13
      273.300   5.59556e-13
      273.400   5.48746e-13
      273.500   5.38144e-13
      273.600   5.27743e-13
      273.700   5.17538e-13
      273.800   5.07527e-13
      273.900   4.97712e-13
      274.000   4.88080e-13
      274.100   4.78629e-13
      274.200   4.69359e-13
      274.300   4.60266e-13
      274.400   4.50971e-13
      274.500   4.41027e-13
      274.600   4.31125e-13
      274.700   4.21444e-13
      274.800   4.11971e-13
      274.900   4.02705e-13
      275.000   3.93644e-13
      275.100   3.84782e-13
      275.200   3.76115e-13
      275.300   3.67637e-13
      275.400   3.59348e-13
      275.500   3.51242e-13
      275.600   3.43308e-13
      275.700   3.35554e-13
      275.800   3.27972e-13
      275.900   3.20554e-13
      276.000   3.13300e-13
      276.100   3.06206e-13
      276.200   2.99268e-13
      276.300   2.92481e-13
      276.400   2.85846e-13
      276.500   2.79354e-13
      276.600   2.73009e-13
      276.700   2.66802e-13
      276.800   2.60735e-13
      276.900   2.54800e-13
      277.000   2.48996e-13
      277.100   2.43320e-13
      277.200   2.37770e-13
      277.300   2.32344e-13
      277.400   2.27037e-13
      277.500   2.21847e-13
      277.600   2.16774e-13
      277.700   2.11812e-13
      277.800   2.06960e-13
      277.900   2.02217e-13
      278.000   1.97580e-13
      278.100   1.93046e-13
      278.200   1.88612e-13
      278.300   1.84278e-13
      278.400   1.80041e-13
      278.500   1.75896e-13
      278.600   1.71844e-13
      278.700   1.67885e-13
      278.800   1.64013e-13
      278.900   1.60190e-13
      279.000   1.56442e-13
      279.100   1.52779e-13
      279.200   1.49199e-13
      279.300   1.45701e-13
      279.400   1.42281e-13
      279.500   1.38940e-13
      279.600   1.35675e-13
      279.700   1.32486e-13
      279.800   1.29368e-13
      279.900   1.26320e-13
      280.000   1.23343e-13
      280.100   1.20433e-13
      280.200   1.17592e-13
      280.300   1.14814e-13
      280.400   1.12099e-13
      280.500   1.09449e-13
      280.600   1.06859e-13
      280.700   1.04328e-13
      280.800   1.01855e-13
      280.900   9.94391e-14
      281.000   9.70787e-14
      281.100   9.47726e-14
      281.200   9.25195e-14
      281.300   9.03186e-14
      281.400   8.81692e-14
      281.500   8.60685e-14
      281.600   8.40165e-14
      281.700   8.20120e-14
      281.800   8.00550e-14
      281.900   7.81425e-14
      282.000   7.62741e-14
      282.100   7.44491e-14
      282.200   7.26682e-14
      282.300   7.09276e-14
      282.400   6.92273e-14
      282.500   6.75664e-14
      282.600   6.59450e-14
      282.700   6.43609e-14
      282.800   6.28133e-14
      282.900   6.13036e-14
      283.000   5.98282e-14
      283.100   5.83885e-14
      283.200   5.69822e-14
      283.300   5.56094e-14
      283.400   5.42686e-14
      283.500   5.29594e-14
      283.600   5.16805e-14
      283.700   5.04314e-14
      283.800   4.92121e-14
      283.900   4.80221e-14
      284.000   4.68596e-14
      284.100   4.57246e-14
      284.200   4.46164e-14
      284.300   4.35347e-14
      284.400   4.24784e-14
      284.500   4.14471e-14
      284.600   4.04403e-14
      284.700   3.94578e-14
      284.800   3.84983e-14
      284.900   3.75616e-14
      285.000   3.66470e-14
      285.100   3.57542e-14
      285.200   3.48831e-14
      285.300   3.40324e-14
      285.400   3.32019e-14
      285.500   3.23913e-14
      285.600   3.16005e-14
      285.700   3.08282e-14
      285.800   3.00749e-14
      285.900   2.93396e-14
      286.000   2.86223e-14
      286.100   2.79224e-14
      286.200   2.72388e-14
      286.300   2.65720e-14
      286.400   2.59213e-14
      286.500   2.52860e-14
      286.600   2.46661e-14
      286.700   2.40609e-14
      286.800   2.34705e-14
      286.900   2.28943e-14
      287.000   2.23320e-14
      287.100   2.17833e-14
      287.200   2.12479e-14
      287.300   2.07254e-14
      287.400   2.02155e-14
      287.500   1.97179e-14
      287.600   1.92325e-14
      287.700   1.87587e-14
      287.800   1.82965e-14
      287.900   1.78456e-14
      288.000   1.74057e-14
      288.100   1.69765e-14
      288.200   1.65581e-14
      288.300   1.61500e-14
      288.400   1.57516e-14
      288.500   1.53631e-14
      288.600   1.49838e-14
      288.700   1.46139e-14
      288.800   1.42529e-14
      288.900   1.39010e-14
      289.000   1.35574e-14
      289.100   1.32222e-14
      289.200   1.28953e-14
      289.300   1.25764e-14
      289.400   1.22651e-14
      289.500   1.19616e-14
      289.600   1.16654e-14
      289.700   1.13767e-14
      289.800   1.10948e-14
      289.900   1.08198e-14
      290.000   1.05516e-14
      290.100   1.02901e-14
      290.200   1.00352e-14
      290.300   9.78656e-15
      290.400   9.54400e-15
      290.500   9.30747e-15
      290.600   9.07661e-15
      290.700   8.85145e-15
      290.800   8.63193e-15
      290.900   8.41769e-15
      291.000   8.20863e-15
      291.100   8.00471e-15
      291.200   7.80588e-15
      291.300   7.61188e-15
      291.400   7.42271e-15
      291.500   7.23816e-15
      291.600   7.05810e-15
      291.700   6.88260e-15
      291.800   6.71137e-15
      291.900   6.54458e-15
      292.000   6.38188e-15
      292.100   6.22314e-15
      292.200   6.06839e-15
      292.300   5.91735e-15
      292.400   5.77006e-15
      292.500   5.62634e-15
      292.600   5.48617e-15
      292.700   5.34951e-15
      292.800   5.21621e-15
      292.900   5.08621e-15
      293.000   4.95940e-15
      293.100   4.83566e-15
      293.200   4.71500e-15
      293.300   4.59732e-15
      293.400   4.48262e-15
      293.500   4.37082e-15
      293.600   4.26178e-15
      293.700   4.15541e-15
      293.800   4.05168e-15
      293.900   3.95053e-15
      294.000   3.85184e-15
      294.100   3.75559e-15
      294.200   3.66173e-15
      294.300   3.57019e-15
      294.400   3.48084e-15
      294.500   3.39375e-15
      294.600   3.30878e-15
      294.700   3.22591e-15
      294.800   3.14510e-15
      294.900   3.06633e-15
      295.000   2.98955e-15
      295.100   2.91471e-15
      295.200   2.84170e-15
      295.300   2.77047e-15
      295.400   2.70102e-15
      295.500   2.63330e-15
      295.600   2.56722e-15
      295.700   2.50278e-15
      295.800   2.43994e-15
      295.900   2.37862e-15
      296.000   2.31882e-15
      296.100   2.26049e-15
      296.200   2.20362e-15
      296.300   2.14821e-15
      296.400   2.09423e-15
      296.500   2.04155e-15
      296.600   1.99018e-15
      296.700   1.94008e-15
      296.800   1.89122e-15
      296.900   1.84356e-15
      297.000   1.79708e-15
      297.100   1.75175e-15
      297.200   1.70754e-15
      297.300   1.66442e-15
      297.400   1.62236e-15
      297.500   1.58134e-15
      297.600   1.54137e-15
      297.700   1.50242e-15
      297.800   1.46444e-15
      297.900   1.42740e-15
      298.000   1.39129e-15
      298.100   1.35607e-15
      298.200   1.32171e-15
      298.300   1.28822e-15
      298.400   1.25554e-15
      298.500   1.22367e-15
      298.600   1.19259e-15
      298.700   1.16229e-15
      298.800   1.13272e-15
      298.900   1.10396e-15
      299.000   1.07592e-15
      299.100   1.04857e-15
      299.200   1.02189e-15
      299.300   9.95879e-16
      299.400   9.70507e-16
      299.500   9.45766e-16
      299.600   9.21646e-16
      299.700   8.98124e-16
      299.800   8.75169e-16
      299.900   8.52809e-16
      300.000   8.30999e-16
      300.100   8.09745e-16
      300.192   7.90670e-16
      300.285   7.71828e-16
      300.377   7.53628e-16
      300.470   7.35664e-16
      300.562   7.18303e-16
      300.654   7.01338e-16
      300.747   6.84584e-16
      300.839   6.68407e-16
      300.932   6.52421e-16
      301.025   6.36814e-16
      301.117   6.21739e-16
      301.210   6.06848e-16
      301.303   5.92309e-16
      301.395   5.78275e-16
      301.488   5.64394e-16
      301.581   5.50861e-16
      301.674   5.37630e-16
      301.766   5.24854e-16
      301.859   5.12236e-16
      301.952   4.99921e-16
      302.045   4.87886e-16
      302.138   4.76149e-16
      302.231   4.64695e-16
      302.324   4.53514e-16
      302.417   4.42593e-16
      302.510   4.31923e-16
      302.603   4.21519e-16
      302.696   4.11351e-16
      302.789   4.01421e-16
      302.882   3.91724e-16
      302.976   3.82161e-16
      303.069   3.72921e-16
      303.162   3.63901e-16
      303.255   3.55090e-16
      303.349   3.46397e-16
      303.442   3.37998e-16
      303.535   3.29807e-16
      303.629   3.21720e-16
      303.722   3.13912e-16
      303.816   3.06204e-16
      303.909   2.98762e-16
      304.003   2.91419e-16
      304.096   2.84325e-16
      304.190   2.77326e-16
      304.283   2.70569e-16
      304.377   2.63906e-16
      304.471   2.57397e-16
      304.564   2.51114e-16
      304.658   2.44919e-16
      304.752   2.38865e-16
      304.846   2.32963e-16
      304.939   2.27263e-16
      305.033   2.21638e-16
      305.127   2.16151e-16
      305.221   2.10796e-16
      305.315   2.05571e-16
      305.409   2.00472e-16
      305.503   1.95497e-16
      305.597   1.90643e-16
      305.691   1.85905e-16
      305.785   1.81281e-16
      305.879   1.76771e-16
      305.973   1.72371e-16
      306.067   1.68076e-16
      306.161   1.63888e-16
      306.255   1.59801e-16
      306.350   1.55771e-16
      306.444   1.51881e-16
      306.538   1.48085e-16
      306.633   1.44346e-16
      306.727   1.40734e-16
      306.821   1.37211e-16
      306.916   1.33739e-16
      307.010   1.30389e-16
      307.105   1.27086e-16
      307.199   1.23900e-16
      307.294   1.20757e-16
      307.388   1.17725e-16
      307.483   1.14737e-16
      307.577   1.11853e-16
      307.672   1.09011e-16
      307.767   1.06239e-16
      307.861   1.03565e-16
      307.956   1.00927e-16
      308.051   9.83560e-17
      308.146   9.58501e-17
      308.240   9.34320e-17
      308.335   9.10484e-17
      308.430   8.87230e-17
      308.525   8.64563e-17
      308.620   8.42474e-17
      308.715   8.20931e-17
      308.810   7.99929e-17
      308.905   7.79452e-17
      309.000   7.59492e-17
      309.095   7.40032e-17
      309.190   7.21068e-17
      309.285   7.02570e-17
      309.380   6.84539e-17
      309.476   6.66787e-17
      309.571   6.49657e-17
      309.666   6.32954e-17
      309.761   6.16680e-17
      309.857   6.00651e-17
      309.952   5.85189e-17
      310.047   5.70126e-17
      310.143   5.55283e-17
      310.238   5.40972e-17
      310.334   5.26877e-17
      310.429   5.13278e-17
      310.525   4.99894e-17
      310.620   4.86986e-17
      310.716   4.74270e-17
      310.811   4.62013e-17
      310.907   4.49947e-17
      311.003   4.38188e-17
      311.098   4.26846e-17
      311.194   4.15677e-17
      311.290   4.04799e-17
      311.386   3.94202e-17
      311.481   3.83982e-17
      311.577   3.73924e-17
      311.673   3.64121e-17
      311.769   3.54570e-17
      311.865   3.45271e-17
      311.961   3.36274e-17
      312.057   3.27779e-17
      312.153   3.19586e-17
      312.249   3.11593e-17
      312.345   3.03798e-17
      312.441   2.96193e-17
      312.537   2.88778e-17
      312.633   2.81548e-17
      312.730   2.74418e-17
      312.826   2.67542e-17
      312.922   2.60838e-17
      313.018   2.54298e-17
      313.115   2.47854e-17
      313.211   2.41633e-17
      313.307   2.35569e-17
      313.404   2.29595e-17
      313.500   2.23827e-17
      313.597   2.18150e-17
      313.693   2.12671e-17
      313.790   2.07271e-17
      313.886   2.02061e-17
      313.983   1.96926e-17
      314.079   1.91972e-17
      314.176   1.87094e-17
      314.273   1.82336e-17
      314.369   1.77749e-17
      314.466   1.73228e-17
      314.563   1.68820e-17
      314.660   1.64526e-17
      314.756   1.60380e-17
      314.853   1.56297e-17
      314.950   1.52317e-17
      315.047   1.48438e-17
      315.144   1.44656e-17
      315.241   1.40970e-17
      315.338   1.37377e-17
      315.435   1.33875e-17
      315.532   1.30462e-17
      315.629   1.27136e-17
      315.726   1.23893e-17
      315.823   1.20731e-17
      315.921   1.17620e-17
      316.018   1.14618e-17
      316.115   1.11692e-17
      316.212   1.08840e-17
      316.310   1.06033e-17
      316.407   1.03325e-17
      316.504   1.00684e-17
      316.602   9.80856e-18
      316.699   9.55795e-18
      316.796   9.31371e-18
      316.894   9.07324e-18
      316.991   8.84256e-18
      317.089   8.62297e-18
      317.187   8.41267e-18
      317.284   8.20955e-18
      317.382   8.00927e-18
      317.479   7.81575e-18
      317.577   7.62506e-18
      317.675   7.43903e-18
      317.773   7.25747e-18
      317.870   7.08215e-18
      317.968   6.90919e-18
      318.066   6.74048e-18
      318.164   6.57587e-18
      318.262   6.41530e-18
      318.360   6.25857e-18
      318.458   6.10573e-18
      318.556   5.95666e-18
      318.654   5.81116e-18
      318.752   5.66919e-18
      318.850   5.53069e-18
      318.948   5.39553e-18
      319.046   5.26367e-18
      319.144   5.13498e-18
      319.242   5.00948e-18
      319.341   4.88578e-18
      319.439   4.76632e-18
      319.537   4.64981e-18
      319.635   4.53611e-18
      319.734   4.42406e-18
      319.832   4.31587e-18
      319.930   4.21029e-18
      320.029   4.10626e-18
      320.127   4.00582e-18
      320.226   3.90682e-18
      320.324   3.81119e-18
      320.423   3.71693e-18
      320.522   3.62507e-18
      320.620   3.53636e-18
      320.719   3.44890e-18
      320.818   3.36361e-18
      320.916   3.28125e-18
      321.015   3.20007e-18
      321.114   3.12088e-18
      321.213   3.04365e-18
      321.311   2.96909e-18
      321.410   2.89564e-18
      321.509   2.82395e-18
      321.608   2.75406e-18
      321.707   2.68588e-18
      321.806   2.61935e-18
      321.905   2.55450e-18
      322.004   2.49121e-18
      322.103   2.42952e-18
      322.202   2.36932e-18
      322.301   2.31062e-18
      322.401   2.25281e-18
      322.500   2.19698e-18
      322.599   2.14253e-18
      322.698   2.08943e-18
      322.798   2.03711e-18
      322.897   1.98658e-18
      322.996   1.93732e-18
      323.096   1.88877e-18
      323.195   1.84190e-18
      323.294   1.79619e-18
      323.394   1.75118e-18
      323.493   1.70771e-18
      323.593   1.66489e-18
      323.692   1.62354e-18
      323.792   1.58282e-18
      323.892   1.54311e-18
      323.991   1.50474e-18
      324.091   1.46699e-18
      324.191   1.43015e-18
      324.291   1.39423e-18
      324.390   1.35957e-18
      324.490   1.32540e-18
      324.590   1.29211e-18
      324.690   1.25964e-18
      324.790   1.22797e-18
      324.890   1.19710e-18
      324.990   1.16699e-18
      325.090   1.13762e-18
      325.190   1.10899e-18
      325.290   1.08109e-18
      325.390   1.05386e-18
      325.490   1.02733e-18
      325.590   1.00146e-18
      325.690   9.76213e-19
      325.790   9.51608e-19
      325.891   9.27381e-19
      325.991   9.03994e-19
      326.091   8.81182e-19
      326.192   8.58726e-19
      326.292   8.37048e-19
      326.392   8.15917e-19
      326.493   7.95104e-19
      326.593   7.75011e-19
      326.694   7.55241e-19
      326.794   7.36145e-19
      326.895   7.17343e-19
      326.995   6.99191e-19
      327.096   6.81326e-19
      327.197   6.63907e-19
      327.297   6.47090e-19
      327.398   6.30534e-19
      327.499   6.14397e-19
      327.599   5.98815e-19
      327.700   5.83472e-19
      327.801   5.68519e-19
      327.902   5.53952e-19
      328.003   5.39743e-19
      328.104   5.25894e-19
      328.205   5.12397e-19
      328.306   4.99241e-19
      328.407   4.86419e-19
      328.508   4.73916e-19
      328.609   4.61731e-19
      328.710   4.49857e-19
      328.811   4.38283e-19
      328.912   4.27002e-19
      329.013   4.16004e-19
      329.115   4.05185e-19
      329.216   3.94741e-19
      329.317   3.84562e-19
      329.419   3.74550e-19
      329.520   3.64882e-19
      329.621   3.55456e-19
      329.723   3.46182e-19
      329.824   3.37241e-19
      329.926   3.28438e-19
      330.027   3.19941e-19
      330.129   3.11579e-19
      330.230   3.03515e-19
      330.332   2.95574e-19
      330.434   2.87840e-19
      330.535   2.80376e-19
      330.637   2.73030e-19
      330.739   2.65877e-19
      330.840   2.58973e-19
      330.942   2.52178e-19
      331.044   2.45560e-19
      331.146   2.39112e-19
      331.248   2.32829e-19
      331.350   2.26711e-19
      331.452   2.20755e-19
      331.554   2.15090e-19
      331.656   2.09781e-19
      331.758   2.04602e-19
      331.860   1.99544e-19
      331.962   1.94610e-19
      332.064   1.89795e-19
      332.166   1.85100e-19
      332.268   1.80514e-19
      332.371   1.76000e-19
      332.473   1.71635e-19
      332.575   1.67374e-19
      332.677   1.63221e-19
      332.780   1.59129e-19
      332.882   1.55175e-19
      332.985   1.51280e-19
      333.087   1.47515e-19
      333.190   1.43807e-19
      333.292   1.40175e-19
      333.395   1.36469e-19
      333.497   1.32844e-19
      333.600   1.29280e-19
      333.702   1.25841e-19
      333.805   1.22463e-19
      333.908   1.19170e-19
      334.011   1.15965e-19
      334.113   1.12875e-19
      334.216   1.09835e-19
      334.319   1.06877e-19
      334.422   1.03995e-19
      334.525   1.01191e-19
      334.628   9.84596e-20
      334.731   9.58025e-20
      334.834   9.32149e-20
      334.937   9.06950e-20
      335.040   8.82412e-20
      335.143   8.58542e-20
      335.246   8.35297e-20
      335.349   8.12670e-20
      335.452   7.90645e-20
      335.555   7.69208e-20
      335.659   7.48133e-20
      335.762   7.27819e-20
      335.865   7.08056e-20
      335.969   6.88626e-20
      336.072   6.69890e-20
      336.175   6.51671e-20
      336.279   6.33767e-20
      336.382   6.16506e-20
      336.486   5.99540e-20
      336.589   5.83189e-20
      336.693   5.67134e-20
      336.796   5.51658e-20
      336.900   5.36448e-20
      337.004   5.21643e-20
      337.107   5.07390e-20
      337.211   4.93375e-20
      337.315   4.79753e-20
      337.419   4.66490e-20
      337.523   4.53585e-20
      337.626   4.41155e-20
      337.730   4.28945e-20
      337.834   4.17063e-20
      337.938   4.05510e-20
      338.042   3.94288e-20
      338.146   3.83454e-20
      338.250   3.72923e-20
      338.354   3.62675e-20
      338.458   3.52700e-20
      338.562   3.42995e-20
      338.667   3.33468e-20
      338.771   3.24283e-20
      338.875   3.15349e-20
      338.979   3.06654e-20
      339.084   2.98122e-20
      339.188   2.89898e-20
      339.292   2.81899e-20
      339.397   2.74039e-20
      339.501   2.66472e-20
      339.606   2.59034e-20
      339.710   2.51872e-20
      339.815   2.44838e-20
      339.919   2.38065e-20
      340.024   2.31409e-20
      340.128   2.25003e-20
      340.233   2.18707e-20
      340.338   2.12590e-20
      340.442   2.06693e-20
      340.547   2.00905e-20
      340.652   1.95276e-20
      340.757   1.89803e-20
      340.862   1.84480e-20
      340.966   1.79355e-20
      341.071   1.74322e-20
      341.176   1.69429e-20
      341.281   1.64670e-20
      341.386   1.60046e-20
      341.491   1.55547e-20
      341.596   1.51175e-20
      341.702   1.46884e-20
      341.807   1.42751e-20
      341.912   1.38734e-20
      342.017   1.34828e-20
      342.122   1.31029e-20
      342.228   1.27305e-20
      342.333   1.23717e-20
      342.438   1.20229e-20
      342.544   1.16808e-20
      342.649   1.13513e-20
      342.754   1.10311e-20
      342.860   1.07168e-20
      342.965   1.04140e-20
      343.071   1.01173e-20
      343.176   9.83150e-21
      343.282   9.55098e-21
      343.388   9.27853e-21
      343.493   9.01714e-21
      343.599   8.76878e-21
      343.705   8.52808e-21
      343.810   8.29591e-21
      343.916   8.06806e-21
      344.022   7.84640e-21
      344.128   7.63077e-21
      344.234   7.42089e-21
      344.340   7.21685e-21
      344.446   7.01826e-21
      344.552   6.82512e-21
      344.658   6.63731e-21
      344.764   6.45468e-21
      344.870   6.27689e-21
      344.976   6.10408e-21
      345.082   5.93589e-21
      345.188   5.77243e-21
      345.294   5.61327e-21
      345.401   5.45711e-21
      345.507   5.30665e-21
      345.613   5.16034e-21
      345.719   5.01800e-21
      345.826   4.87829e-21
      345.932   4.74366e-21
      346.039   4.61154e-21
      346.145   4.48423e-21
      346.252   4.35930e-21
      346.358   4.23890e-21
      346.465   4.12081e-21
      346.571   4.00698e-21
      346.678   3.89522e-21
      346.785   3.78656e-21
      346.891   3.68192e-21
      346.998   3.57925e-21
      347.105   3.47940e-21
      347.212   3.38230e-21
      347.319   3.28788e-21
      347.425   3.19690e-21
      347.532   3.10763e-21
      347.639   3.02088e-21
      347.746   2.93650e-21
      347.853   2.85443e-21
      347.960   2.77470e-21
      348.067   2.69719e-21
      348.174   2.62184e-21
      348.281   2.54855e-21
      348.389   2.47667e-21
      348.496   2.40739e-21
      348.603   2.34014e-21
      348.710   2.27469e-21
      348.818   2.21050e-21
      348.925   2.14865e-21
      349.032   2.08855e-21
      349.140   2.02928e-21
      349.247   1.97217e-21
      349.355   1.91619e-21
      349.462   1.86226e-21
      349.570   1.80932e-21
      349.677   1.75839e-21
      349.785   1.70839e-21
      349.892   1.66029e-21
      350.000   1.61310e-21
      350.100   1.57060e-21
      350.193   1.53208e-21
      350.287   1.49407e-21
      350.380   1.45743e-21
      350.473   1.42167e-21
      350.567   1.38638e-21
      350.660   1.35236e-21
      350.754   1.31881e-21
      350.847   1.28645e-21
      350.941   1.25453e-21
      351.034   1.22373e-21
      351.128   1.19336e-21
      351.221   1.16407e-21
      351.315   1.13517e-21
      351.409   1.10697e-21
      351.502   1.07979e-21
      351.596   1.05299e-21
      351.690   1.02682e-21
      351.783   1.00161e-21
      351.877   9.76734e-22
      351.971   9.52468e-22
      352.065   9.28807e-22
      352.159   9.05731e-22
      352.252   8.83464e-22
      352.346   8.61502e-22
      352.440   8.40097e-22
      352.534   8.19232e-22
      352.628   7.98859e-22
      352.722   7.78993e-22
      352.816   7.59630e-22
      352.910   7.40750e-22
      353.004   7.22337e-22
      353.098   7.04367e-22
      353.192   6.86845e-22
      353.287   6.69579e-22
      353.381   6.52913e-22
      353.475   6.36678e-22
      353.569   6.20826e-22
      353.663   6.05382e-22
      353.758   5.90161e-22
      353.852   5.75474e-22
      353.946   5.61146e-22
      354.041   5.47027e-22
      354.135   5.33407e-22
      354.229   5.20119e-22
      354.324   5.07028e-22
      354.418   4.94398e-22
      354.513   4.81948e-22
      354.607   4.69949e-22
      354.702   4.58040e-22
      354.796   4.46272e-22
      354.891   4.34655e-22
      354.985   4.23461e-22
      355.080   4.12438e-22
      355.175   4.01694e-22
      355.269   3.91343e-22
      355.364   3.81146e-22
      355.459   3.71219e-22
      355.553   3.61643e-22
      355.648   3.52220e-22
      355.743   3.43044e-22
      355.838   3.34092e-22
      355.933   3.25385e-22
      356.027   3.16987e-22
      356.122   3.08714e-22
      356.217   3.00659e-22
      356.312   2.92818e-22
      356.407   2.85173e-22
      356.502   2.77729e-22
      356.597   2.70475e-22
      356.692   2.63412e-22
      356.787   2.56532e-22
      356.882   2.49825e-22
      356.977   2.43300e-22
      357.073   2.36876e-22
      357.168   2.30679e-22
      357.263   2.24648e-22
      357.358   2.18771e-22
      357.453   2.13048e-22
      357.549   2.07416e-22
      357.644   2.01987e-22
      357.739   1.96703e-22
      357.835   1.91495e-22
      357.930   1.86480e-22
      358.025   1.81594e-22
      358.121   1.76787e-22
      358.216   1.72153e-22
      358.312   1.67592e-22
      358.407   1.63198e-22
      358.503   1.58873e-22
      358.598   1.54707e-22
      358.694   1.50605e-22
      358.790   1.46609e-22
      358.885   1.42759e-22
      358.981   1.38970e-22
      359.076   1.35321e-22
      359.172   1.31729e-22
      359.268   1.28228e-22
      359.364   1.24821e-22
      359.459   1.21541e-22
      359.555   1.18310e-22
      359.651   1.15164e-22
      359.747   1.12101e-22
      359.843   1.09118e-22
      359.939   1.06214e-22
      360.035   1.03387e-22
      360.131   1.00636e-22
      360.227   9.79532e-23
      360.323   9.53440e-23
      360.419   9.28036e-23
      360.515   9.03303e-23
      360.611   8.79207e-23
      360.707   8.55728e-23
      360.803   8.32913e-23
      360.899   8.10668e-23
      360.995   7.89031e-23
      361.092   7.67737e-23
      361.188   7.47215e-23
      361.284   7.27241e-23
      361.380   7.07799e-23
      361.477   6.88668e-23
      361.573   6.70235e-23
      361.669   6.52297e-23
      361.766   6.34644e-23
      361.862   6.17649e-23
      361.959   6.00932e-23
      362.055   5.84807e-23
      362.152   5.68971e-23
      362.248   5.53708e-23
      362.345   5.38685e-23
      362.441   5.24231e-23
      362.538   5.10010e-23
      362.635   4.96169e-23
      362.731   4.82829e-23
      362.828   4.69711e-23
      362.925   4.56949e-23
      363.021   4.44651e-23
      363.118   4.32564e-23
      363.215   4.20792e-23
      363.312   4.09335e-23
      363.409   3.98194e-23
      363.505   3.87458e-23
      363.602   3.76895e-23
      363.699   3.66622e-23
      363.796   3.56623e-23
      363.893   3.46892e-23
      363.990   3.37424e-23
      364.087   3.28211e-23
      364.184   3.19245e-23
      364.281   3.10517e-23
      364.378   3.02029e-23
      364.475   2.93767e-23
      364.573   2.85645e-23
      364.670   2.77824e-23
      364.767   2.70215e-23
      364.864   2.62809e-23
      364.961   2.55605e-23
      365.059   2.48524e-23
      365.156   2.41707e-23
      365.253   2.35072e-23
      365.351   2.28550e-23
      365.448   2.22269e-23
      365.545   2.16161e-23
      365.643   2.10156e-23
      365.740   2.04372e-23
      365.838   1.98689e-23
      365.935   1.93220e-23
      366.033   1.87843e-23
      366.130   1.82665e-23
      366.228   1.77578e-23
      366.326   1.72630e-23
      366.423   1.67867e-23
      366.521   1.63186e-23
      366.618   1.58676e-23
      366.716   1.54246e-23
      366.814   1.49940e-23
      366.912   1.45752e-23
      367.010   1.41675e-23
      367.107   1.37753e-23
      367.205   1.33897e-23
      367.303   1.30149e-23
      367.401   1.26504e-23
      367.499   1.22958e-23
      367.597   1.19511e-23
      367.695   1.16159e-23
      367.793   1.12900e-23
      367.891   1.09731e-23
      367.989   1.06647e-23
      368.087   1.03651e-23
      368.185   1.00737e-23
      368.283   9.79023e-24
      368.381   9.51456e-24
      368.480   9.24399e-24
      368.578   8.98351e-24
      368.676   8.73037e-24
      368.774   8.48424e-24
      368.873   8.24247e-24
      368.971   8.00982e-24
      369.069   7.78358e-24
      369.168   7.56132e-24
      369.266   7.34757e-24
      369.364   7.13974e-24
      369.463   6.93565e-24
      369.561   6.73932e-24
      369.660   6.54649e-24
      369.758   6.36096e-24
      369.857   6.17883e-24
      369.955   6.00359e-24
      370.054   5.83144e-24
      370.153   5.66416e-24
      370.251   5.50327e-24
      370.350   5.34530e-24
      370.449   5.19183e-24
      370.547   5.04412e-24
      370.646   4.89900e-24
      370.745   4.75814e-24
      370.844   4.62121e-24
      370.943   4.48815e-24
      371.041   4.36017e-24
      371.140   4.23447e-24
      371.239   4.11233e-24
      371.338   3.99371e-24
      371.437   3.87846e-24
      371.536   3.76649e-24
      371.635   3.65763e-24
      371.734   3.55192e-24
      371.833   3.44922e-24
      371.932   3.34943e-24
      372.032   3.25151e-24
      372.131   3.15731e-24
      372.230   3.06587e-24
      372.329   2.97700e-24
      372.428   2.89065e-24
      372.528   2.80596e-24
      372.627   2.72455e-24
      372.726   2.64544e-24
      372.826   2.56783e-24
      372.925   2.49318e-24
      373.024   2.42066e-24
      373.124   2.34950e-24
      373.223   2.28115e-24
      373.323   2.21408e-24
      373.422   2.14956e-24
      373.522   2.08627e-24
      373.621   2.02547e-24
      373.721   1.96579e-24
      373.820   1.90843e-24
      373.920   1.85216e-24
      374.020   1.79748e-24
      374.119   1.74497e-24
      374.219   1.69342e-24
      374.319   1.64342e-24
      374.419   1.59488e-24
      374.518   1.54818e-24
      374.618   1.50238e-24
      374.718   1.45789e-24
      374.818   1.41475e-24
      374.918   1.37287e-24
      375.018   1.33219e-24
      375.118   1.29271e-24
      375.218   1.25436e-24
      375.318   1.21715e-24
      375.418   1.18101e-24
      375.518   1.14596e-24
      375.618   1.11193e-24
      375.718   1.07888e-24
      375.818   1.04681e-24
      375.918   1.01568e-24
      376.019   9.85173e-25
      376.119   9.55845e-25
      376.219   9.27389e-25
      376.319   8.99756e-25
      376.420   8.72689e-25
      376.520   8.46674e-25
      376.620   8.21435e-25
      376.721   7.96684e-25
      376.821   7.72912e-25
      376.922   7.49610e-25
      377.022   7.27217e-25
      377.122   7.05497e-25
      377.223   6.84205e-25
      377.323   6.63756e-25
      377.424   6.43704e-25
      377.525   6.24258e-25
      377.625   6.05575e-25
      377.726   5.87269e-25
      377.827   5.69509e-25
      377.927   5.52442e-25
      378.028   5.35729e-25
      378.129   5.19507e-25
      378.230   5.03768e-25
      378.330   4.88651e-25
      378.431   4.73841e-25
      378.532   4.59485e-25
      378.633   4.45545e-25
      378.734   4.32025e-25
      378.835   4.18915e-25
      378.936   4.06200e-25
      379.037   3.93866e-25
      379.138   3.81900e-25
      379.239   3.70292e-25
      379.340   3.59043e-25
      379.441   3.48127e-25
      379.542   3.37536e-25
      379.643   3.27270e-25
      379.745   3.17214e-25
      379.846   3.07555e-25
      379.947   2.98188e-25
      380.048   2.89108e-25
      380.150   2.80212e-25
      380.251   2.71670e-25
      380.352   2.63390e-25
      380.454   2.55282e-25
      380.555   2.47494e-25
      380.656   2.39941e-25
      380.758   2.32545e-25
      380.859   2.25446e-25
      380.961   2.18498e-25
      381.062   2.11824e-25
      381.164   2.05288e-25
      381.266   1.98953e-25
      381.367   1.92871e-25
      381.469   1.86918e-25
      381.570   1.81202e-25
      381.672   1.75606e-25
      381.774   1.70179e-25
      381.876   1.64919e-25
      381.977   1.59871e-25
      382.079   1.54929e-25
      382.181   1.50136e-25
      382.283   1.45495e-25
      382.385   1.40993e-25
      382.487   1.36627e-25
      382.589   1.32399e-25
      382.691   1.28300e-25
      382.793   1.24328e-25
      382.895   1.20477e-25
      382.997   1.16743e-25
      383.099   1.13125e-25
      383.201   1.09620e-25
      383.303   1.06221e-25
      383.405   1.02927e-25
      383.507   9.97337e-26
      383.610   9.66110e-26
      383.712   9.36124e-26
      383.814   9.07086e-26
      383.916   8.78937e-26
      384.019   8.51384e-26
      384.121   8.24941e-26
      384.223   7.99322e-26
      384.326   7.74260e-26
      384.428   7.50186e-26
      384.531   7.26628e-26
      384.633   7.04025e-26
      384.736   6.81905e-26
      384.838   6.60679e-26
      384.941   6.39916e-26
      385.043   6.19987e-26
      385.146   6.00500e-26
      385.249   5.81621e-26
      385.351   5.63503e-26
      385.454   5.45775e-26
      385.557   5.28611e-26
      385.660   5.11975e-26
      385.762   4.96021e-26
      385.865   4.80410e-26
      385.968   4.65283e-26
      386.071   4.50628e-26
      386.174   4.36437e-26
      386.277   4.22695e-26
      386.380   4.09380e-26
      386.483   3.96480e-26
      386.586   3.83993e-26
      386.689   3.71891e-26
      386.792   3.60168e-26
      386.895   3.48814e-26
      386.998   3.37816e-26
      387.101   3.27166e-26
      387.204   3.16841e-26
      387.308   3.06752e-26
      387.411   2.97073e-26
      387.514   2.87699e-26
      387.617   2.78621e-26
      387.721   2.69746e-26
      387.824   2.61231e-26
      387.927   2.52978e-26
      388.031   2.44914e-26
      388.134   2.37179e-26
      388.238   2.29620e-26
      388.341   2.22364e-26
      388.445   2.15272e-26
      388.548   2.08467e-26
      388.652   2.01817e-26
      388.755   1.95439e-26
      388.859   1.89202e-26
      388.962   1.83221e-26
      389.066   1.77370e-26
      389.170   1.71711e-26
      389.274   1.66227e-26
      389.377   1.60968e-26
      389.481   1.55824e-26
      389.585   1.50848e-26
      389.689   1.46029e-26
      389.793   1.41361e-26
      389.897   1.36845e-26
      390.000   1.32511e-26
      390.104   1.28277e-26
      390.208   1.24174e-26
      390.312   1.20204e-26
      390.416   1.16360e-26
      390.520   1.12636e-26
      390.625   1.08995e-26
      390.729   1.05509e-26
      390.833   1.02130e-26
      390.937   9.88603e-27
      391.041   9.56957e-27
      391.145   9.26319e-27
      391.250   8.96361e-27
      391.354   8.67658e-27
      391.458   8.39865e-27
      391.563   8.12695e-27
      391.667   7.86655e-27
      391.771   7.61447e-27
      391.876   7.36805e-27
      391.980   7.13176e-27
      392.085   6.90094e-27
      392.189   6.67965e-27
      392.294   6.46333e-27
      392.398   6.25602e-27
      392.503   6.05341e-27
      392.607   5.85917e-27
      392.712   5.66941e-27
      392.817   5.48561e-27
      392.921   5.30958e-27
      393.026   5.13746e-27
      393.131   4.97097e-27
      393.236   4.80970e-27
      393.340   4.65522e-27
      393.445   4.50428e-27
      393.550   4.35818e-27
      393.655   4.21676e-27
      393.760   4.07996e-27
      393.865   3.94753e-27
      393.970   3.81947e-27
      394.075   3.69543e-27
      394.180   3.57548e-27
      394.285   3.45936e-27
      394.390   3.34704e-27
      394.495   3.23826e-27
      394.600   3.13306e-27
      394.706   3.03031e-27
      394.811   2.93185e-27
      394.916   2.83648e-27
      395.021   2.74425e-27
      395.126   2.65506e-27
      395.232   2.56786e-27
      395.337   2.48430e-27
      395.443   2.40273e-27
      395.548   2.32454e-27
      395.653   2.24890e-27
      395.759   2.17497e-27
      395.864   2.10416e-27
      395.970   2.03500e-27
      396.075   1.96871e-27
      396.181   1.90396e-27
      396.286   1.84188e-27
      396.392   1.78132e-27
      396.498   1.72272e-27
      396.603   1.66651e-27
      396.709   1.61167e-27
      396.815   1.55859e-27
      396.921   1.50724e-27
      397.026   1.45805e-27
      397.132   1.40999e-27
      397.238   1.36353e-27
      397.344   1.31854e-27
      397.450   1.27511e-27
      397.556   1.23303e-27
      397.662   1.19235e-27
      397.768   1.15302e-27
      397.874   1.11495e-27
      397.980   1.07815e-27
      398.086   1.04253e-27
      398.192   1.00811e-27
      398.298   9.74797e-28
      398.404   9.42581e-28
      398.510   9.11421e-28
      398.617   8.81027e-28
      398.723   8.51892e-28
      398.829   8.23699e-28
      398.935   7.96439e-28
      399.042   7.69846e-28
      399.148   7.44346e-28
      399.255   7.19485e-28
      399.361   6.95656e-28
      399.467   6.72589e-28
      399.574   6.50104e-28
      399.680   6.28546e-28
      399.787   6.07508e-28
      399.893       0.00000
      400.000       0.00000
