Filter C-poly
observation_date 22-Sept-2015 22:40:45
wavelength effective area
      1.00000   2.78570e-10
      1.10000   7.95343e-10
      1.20000   2.06791e-09
      1.30000   4.94567e-09
      1.40000   1.12244e-08
      1.50000   2.39516e-08
      1.60000   4.85004e-08
      1.70000   9.41852e-08
      1.80000   1.75406e-07
      1.90000   3.15376e-07
      2.00000   5.48503e-07
      2.10000   9.26865e-07
      2.20000   1.52905e-06
      2.30000   2.45928e-06
      2.40000   3.86317e-06
      2.50000   5.90759e-06
      2.60000   9.02154e-06
      2.70000   1.34599e-05
      2.80000   1.96986e-05
      2.90000   2.85344e-05
      3.00000   4.06905e-05
      3.10000   5.72827e-05
      3.20000   7.97649e-05
      3.30000   0.000109948
      3.40000   0.000149981
      3.50000   0.000202622
      3.60000   0.000272498
      3.70000   0.000362600
      3.80000   0.000480530
      3.90000   0.000633323
      4.00000   0.000829556
      4.10000    0.00108163
      4.20000    0.00140535
      4.30000    0.00182089
      4.40000    0.00235318
      4.50000    0.00303292
      4.60000    0.00389614
      4.70000    0.00500523
      4.80000    0.00642400
      4.90000    0.00813929
      5.00000     0.0105852
      5.10000     0.0135725
      5.20000     0.0174564
      5.30000     0.0222626
      5.40000     0.0283493
      5.50000     0.0361656
      5.60000     0.0447242
      5.70000     0.0582720
      5.80000     0.0684829
      5.90000      0.104823
      6.00000      0.141265
      6.10000      0.181017
      6.20000      0.222872
      6.30000      0.263047
      6.40000      0.297825
      6.50000      0.323807
      6.60000      0.336148
      6.70000      0.347679
      6.80000      0.349191
      6.90000      0.459530
      7.00000      0.501315
      7.10000      0.531892
      7.20000      0.556712
      7.30000      0.577439
      7.40000      0.593849
      7.50000      0.607434
      7.60000      0.618291
      7.70000      0.624755
      7.80000      0.625557
      7.90000      0.627151
      8.00000      0.910195
      8.10000      0.999827
      8.20000       1.01968
      8.30000       1.03504
      8.40000       1.04646
      8.50000       1.05631
      8.60000       1.06426
      8.70000       1.07100
      8.80000       1.07618
      8.90000       1.08031
      9.00000       1.08331
      9.10000       1.08522
      9.20000       1.08626
      9.30000       1.08630
      9.40000       1.08551
      9.50000       1.08395
      9.60000       1.08155
      9.70000       1.07842
      9.80000       1.07472
      9.90000       1.07047
      10.0000       1.06572
      10.1000       1.06051
      10.2000       1.05484
      10.3000       1.04865
      10.4000       1.04198
      10.5000       1.03485
      10.6000       1.02730
      10.7000       1.01934
      10.8000       1.01100
      10.9000       1.00230
      11.0000      0.993244
      11.1000      0.983879
      11.2000      0.974202
      11.3000      0.964254
      11.4000      0.954023
      11.5000      0.943502
      11.6000      0.932713
      11.7000      0.921572
      11.8000      0.910183
      11.9000      0.898403
      12.0000      0.885299
      12.1000      0.875311
      12.2000      0.880601
      12.3000      0.876625
      12.4000      0.866124
      12.5000      0.854972
      12.6000      0.843509
      12.7000      0.831868
      12.8000      0.820098
      12.9000      0.808212
      13.0000      0.796261
      13.1000      0.784274
      13.2000      0.772277
      13.3000      0.760285
      13.4000      0.748322
      13.5000      0.736521
      13.6000      0.724861
      13.7000      0.713248
      13.8000      0.701676
      13.9000      0.690174
      14.0000      0.678741
      14.1000      0.667355
      14.2000      0.656018
      14.3000      0.644726
      14.4000      0.633462
      14.5000      0.622240
      14.6000      0.611055
      14.7000      0.599910
      14.8000      0.588813
      14.9000      0.577769
      15.0000      0.566787
      15.1000      0.555879
      15.2000      0.545062
      15.3000      0.534331
      15.4000      0.523685
      15.5000      0.513131
      15.6000      0.502703
      15.7000      0.492379
      15.8000      0.482201
      15.9000      0.472151
      16.0000      0.462226
      16.1000      0.452433
      16.2000      0.442803
      16.3000      0.433293
      16.4000      0.423896
      16.5000      0.414609
      16.6000      0.405439
      16.7000      0.396391
      16.8000      0.387446
      16.9000      0.378603
      17.0000      0.369883
      17.1000      0.361284
      17.2000      0.352783
      17.3000      0.344393
      17.4000      0.336283
      17.5000      0.328433
      17.6000      0.320806
      17.7000      0.313439
      17.8000      0.306478
      17.9000      0.299626
      18.0000      0.292829
      18.1000      0.286133
      18.2000      0.279472
      18.3000      0.272834
      18.4000      0.266201
      18.5000      0.259592
      18.6000      0.252992
      18.7000      0.246376
      18.8000      0.239870
      18.9000      0.233448
      19.0000      0.227141
      19.1000      0.220959
      19.2000      0.214871
      19.3000      0.208926
      19.4000      0.203108
      19.5000      0.197389
      19.6000      0.191844
      19.7000      0.186402
      19.8000      0.181055
      19.9000      0.175869
      20.0000      0.170761
      20.1000      0.165757
      20.2000      0.160860
      20.3000      0.156031
      20.4000      0.151328
      20.5000      0.146699
      20.6000      0.142140
      20.7000      0.137702
      20.8000      0.133321
      20.9000      0.129031
      21.0000      0.124825
      21.1000      0.120691
      21.2000      0.116640
      21.3000      0.112638
      21.4000      0.108742
      21.5000      0.104891
      21.6000      0.101080
      21.7000     0.0973436
      21.8000     0.0936417
      21.9000     0.0899265
      22.0000     0.0862283
      22.1000     0.0825424
      22.2000     0.0787335
      22.3000     0.0748213
      22.4000     0.0698155
      22.5000     0.0644855
      22.6000     0.0545289
      22.7000     0.0487437
      22.8000     0.0640538
      22.9000     0.0829014
      23.0000      0.104522
      23.1000      0.117949
      23.2000      0.123595
      23.3000      0.123851
      23.4000      0.121397
      23.5000      0.118824
      23.6000      0.116231
      23.7000      0.113382
      23.8000      0.110527
      23.9000      0.107702
      24.0000      0.104887
      24.1000      0.102066
      24.2000     0.0992722
      24.3000     0.0965391
      24.4000     0.0938319
      24.5000     0.0911720
      24.6000     0.0885499
      24.7000     0.0859947
      24.8000     0.0834771
      24.9000     0.0810190
      25.0000     0.0786036
      25.1000     0.0762543
      25.2000     0.0739452
      25.3000     0.0716985
      25.4000     0.0694942
      25.5000     0.0673611
      25.6000     0.0652713
      25.7000     0.0632637
      25.8000     0.0612874
      25.9000     0.0593815
      26.0000     0.0575004
      26.1000     0.0556913
      26.2000     0.0539001
      26.3000     0.0521875
      26.4000     0.0504846
      26.5000     0.0488616
      26.6000     0.0472474
      26.7000     0.0457075
      26.8000     0.0441858
      26.9000     0.0427217
      27.0000     0.0412808
      27.1000     0.0398802
      27.2000     0.0385081
      27.3000     0.0372533
      27.4000     0.0361422
      27.5000     0.0350200
      27.6000     0.0338555
      27.7000     0.0326993
      27.8000     0.0315837
      27.9000     0.0304740
      28.0000     0.0294198
      28.1000     0.0283810
      28.2000     0.0273823
      28.3000     0.0264120
      28.4000     0.0254660
      28.5000     0.0245613
      28.6000     0.0236655
      28.7000     0.0228267
      28.8000     0.0219925
      28.9000     0.0212010
      29.0000     0.0204248
      29.1000     0.0196746
      29.2000     0.0189531
      29.3000     0.0182419
      29.4000     0.0175727
      29.5000     0.0169072
      29.6000     0.0162787
      29.7000     0.0156624
      29.8000     0.0150665
      29.9000     0.0144968
      30.0000     0.0139319
      30.1000     0.0134058
      30.2000     0.0128828
      30.3000     0.0129616
      30.4000     0.0133823
      30.5000     0.0136034
      30.6000     0.0130924
      30.7000     0.0125843
      30.8000     0.0121056
      30.9000     0.0116376
      31.0000     0.0111823
      31.1000     0.0107520
      31.2000     0.0103241
      31.3000    0.00992380
      31.4000    0.00953115
      31.5000    0.00914993
      31.6000    0.00879018
      31.7000    0.00843257
      31.8000    0.00809825
      31.9000    0.00777124
      32.0000    0.00745252
      32.1000    0.00715404
      32.2000    0.00685735
      32.3000    0.00657862
      32.4000    0.00630870
      32.5000    0.00604360
      32.6000    0.00580576
      32.7000    0.00556947
      32.8000    0.00534411
      32.9000    0.00512931
      33.0000    0.00491580
      33.1000    0.00472748
      33.2000    0.00454362
      33.3000    0.00436423
      33.4000    0.00419660
      33.5000    0.00403003
      33.6000    0.00387196
      33.7000    0.00372046
      33.8000    0.00356984
      33.9000    0.00343076
      34.0000    0.00329396
      34.1000    0.00316030
      34.2000    0.00303647
      34.3000    0.00291331
      34.4000    0.00279534
      34.5000    0.00268383
      34.6000    0.00257294
      34.7000    0.00246850
      34.8000    0.00236735
      34.9000    0.00226676
      35.0000    0.00217477
      35.1000    0.00208413
      35.2000    0.00199487
      35.3000    0.00191334
      35.4000    0.00183227
      35.5000    0.00175379
      35.6000    0.00168101
      35.7000    0.00160865
      35.8000    0.00153969
      35.9000    0.00147487
      36.0000    0.00141041
      36.1000    0.00134987
      36.2000    0.00129226
      36.3000    0.00123497
      36.4000    0.00118183
      36.5000    0.00113071
      36.6000    0.00107988
      36.7000    0.00103325
      36.8000   0.000988009
      36.9000   0.000943027
      37.0000   0.000902120
      37.1000   0.000862167
      37.2000   0.000822443
      37.3000   0.000786555
      37.4000   0.000751353
      37.5000   0.000716355
      37.6000   0.000684861
      37.7000   0.000653915
      37.8000   0.000623150
      37.9000   0.000595500
      38.0000   0.000568363
      38.1000   0.000541384
      38.2000   0.000517090
      38.3000   0.000493342
      38.4000   0.000469732
      38.5000   0.000448373
      38.6000   0.000427644
      38.7000   0.000407036
      38.8000   0.000388242
      38.9000   0.000370192
      39.0000   0.000352247
      39.1000   0.000335697
      39.2000   0.000320020
      39.3000   0.000304435
      39.4000   0.000289846
      39.5000   0.000276265
      39.6000   0.000262765
      39.7000   0.000249892
      39.8000   0.000238160
      39.9000   0.000226496
      40.0000   0.000215129
      40.1000   0.000205019
      40.2000   0.000194969
      40.3000   0.000184980
      40.4000   0.000176233
      40.5000   0.000167595
      40.6000   0.000159009
      40.7000   0.000151258
      40.8000   0.000143852
      40.9000   0.000136489
      41.0000   0.000129614
      41.1000   0.000123282
      41.2000   0.000116988
      41.3000   0.000110887
      41.4000   0.000105495
      41.5000   0.000100134
      41.6000   9.48058e-05
      41.7000   9.01331e-05
      41.8000   8.55766e-05
      41.9000   8.10475e-05
      42.0000   7.68809e-05
      42.1000   7.30210e-05
      42.2000   6.91843e-05
      42.3000   6.54651e-05
      42.4000   6.22037e-05
      42.5000   5.89617e-05
      42.6000   5.57392e-05
      42.7000   5.28947e-05
      42.8000   5.01629e-05
      42.9000   4.74473e-05
      43.0000   4.48938e-05
      43.1000   4.25995e-05
      43.2000   4.03191e-05
      43.3000   3.80524e-05
      43.4000     0.0382716
      43.5000     0.0839795
      43.6000      0.140563
      43.7000      0.187665
      43.8000      0.205926
      43.9000      0.208389
      44.0000      0.204969
      44.1000      0.195959
      44.2000      0.193123
      44.3000      0.190830
      44.4000      0.188562
      44.5000      0.186328
      44.6000      0.184100
      44.7000      0.181878
      44.8000      0.179705
      44.9000      0.177544
      45.0000      0.175388
      45.1000      0.173252
      45.2000      0.171155
      45.3000      0.169064
      45.4000      0.166978
      45.5000      0.164930
      45.6000      0.162904
      45.7000      0.160882
      45.8000      0.158868
      45.9000      0.156905
      46.0000      0.154946
      46.1000      0.152993
      46.2000      0.151130
      46.3000      0.149420
      46.4000      0.147715
      46.5000      0.146013
      46.6000      0.144367
      46.7000      0.142751
      46.8000      0.141139
      46.9000      0.139531
      47.0000      0.138000
      47.1000      0.136477
      47.2000      0.134959
      47.3000      0.133452
      47.4000      0.131985
      47.5000      0.130521
      47.6000      0.129061
      47.7000      0.127618
      47.8000      0.126199
      47.9000      0.124784
      48.0000      0.123373
      48.1000      0.121985
      48.2000      0.120615
      48.3000      0.119249
      48.4000      0.117886
      48.5000      0.116549
      48.6000      0.115226
      48.7000      0.113905
      48.8000      0.112588
      48.9000      0.111303
      49.0000      0.110026
      49.1000      0.108753
      49.2000      0.107483
      49.3000      0.106247
      49.4000      0.105017
      49.5000      0.103790
      49.6000      0.102565
      49.7000      0.101376
      49.8000      0.100191
      49.9000     0.0990078
      50.0000     0.0978295
      50.1000     0.0966885
      50.2000     0.0956085
      50.3000     0.0945374
      50.4000     0.0934767
      50.5000     0.0924255
      50.6000     0.0913846
      50.7000     0.0903551
      50.8000     0.0893338
      50.9000     0.0883239
      51.0000     0.0873325
      51.1000     0.0863540
      51.2000     0.0853843
      51.3000     0.0844242
      51.4000     0.0834749
      51.5000     0.0825327
      51.6000     0.0815988
      51.7000     0.0806736
      51.8000     0.0797496
      51.9000     0.0788337
      52.0000     0.0779263
      52.1000     0.0770277
      52.2000     0.0761379
      52.3000     0.0752556
      52.4000     0.0743821
      52.5000     0.0735173
      52.6000     0.0726597
      52.7000     0.0718088
      52.8000     0.0709655
      52.9000     0.0701303
      53.0000     0.0693035
      53.1000     0.0684845
      53.2000     0.0676749
      53.3000     0.0668735
      53.4000     0.0660793
      53.5000     0.0652922
      53.6000     0.0645121
      53.7000     0.0637394
      53.8000     0.0629759
      53.9000     0.0622198
      54.0000     0.0614719
      54.1000     0.0607327
      54.2000     0.0599994
      54.3000     0.0592732
      54.4000     0.0585544
      54.5000     0.0578425
      54.6000     0.0571390
      54.7000     0.0564427
      54.8000     0.0557539
      54.9000     0.0550723
      55.0000     0.0543975
      55.1000     0.0537286
      55.2000     0.0530420
      55.3000     0.0523407
      55.4000     0.0516465
      55.5000     0.0509601
      55.6000     0.0502813
      55.7000     0.0496104
      55.8000     0.0489466
      55.9000     0.0482894
      56.0000     0.0476469
      56.1000     0.0470004
      56.2000     0.0463510
      56.3000     0.0457090
      56.4000     0.0450744
      56.5000     0.0444465
      56.6000     0.0438256
      56.7000     0.0432127
      56.8000     0.0426065
      56.9000     0.0420095
      57.0000     0.0414188
      57.1000     0.0408341
      57.2000     0.0402552
      57.3000     0.0396832
      57.4000     0.0391176
      57.5000     0.0385593
      57.6000     0.0380073
      57.7000     0.0374619
      57.8000     0.0369241
      57.9000     0.0363935
      58.0000     0.0358690
      58.1000     0.0353497
      58.2000     0.0348373
      58.3000     0.0343311
      58.4000     0.0338311
      58.5000     0.0333370
      58.6000     0.0328497
      58.7000     0.0323681
      58.8000     0.0318928
      58.9000     0.0314230
      59.0000     0.0309590
      59.1000     0.0305005
      59.2000     0.0300482
      59.3000     0.0296014
      59.4000     0.0291608
      59.5000     0.0287257
      59.6000     0.0282963
      59.7000     0.0278718
      59.8000     0.0274528
      59.9000     0.0270389
      60.0000     0.0266308
      60.1000     0.0262276
      60.2000     0.0258301
      60.3000     0.0254380
      60.4000     0.0250509
      60.5000     0.0246693
      60.6000     0.0242921
      60.7000     0.0239190
      60.8000     0.0235505
      60.9000     0.0231871
      61.0000     0.0228284
      61.1000     0.0224749
      61.2000     0.0221259
      61.3000     0.0217821
      61.4000     0.0214425
      61.5000     0.0211077
      61.6000     0.0207767
      61.7000     0.0204501
      61.8000     0.0201288
      61.9000     0.0198127
      62.0000     0.0195010
      62.1000     0.0191934
      62.2000     0.0188905
      62.3000     0.0185914
      62.4000     0.0182968
      62.5000     0.0180058
      62.6000     0.0177188
      62.7000     0.0174353
      62.8000     0.0171572
      62.9000     0.0168830
      63.0000     0.0166128
      63.1000     0.0163465
      63.2000     0.0160838
      63.3000     0.0158246
      63.4000     0.0155686
      63.5000     0.0153169
      63.6000     0.0150684
      63.7000     0.0148235
      63.8000     0.0145822
      63.9000     0.0143447
      64.0000     0.0141107
      64.1000     0.0138798
      64.2000     0.0136529
      64.3000     0.0134289
      64.4000     0.0132080
      64.5000     0.0129901
      64.6000     0.0127752
      64.7000     0.0125636
      64.8000     0.0123549
      64.9000     0.0121494
      65.0000     0.0119468
      65.1000     0.0117476
      65.2000     0.0115514
      65.3000     0.0113578
      65.4000     0.0111672
      65.5000     0.0109793
      65.6000     0.0107939
      65.7000     0.0106114
      65.8000     0.0104317
      65.9000     0.0102551
      66.0000     0.0100811
      66.1000    0.00990988
      66.2000    0.00974131
      66.3000    0.00957516
      66.4000    0.00941161
      66.5000    0.00925028
      66.6000    0.00909141
      66.7000    0.00893503
      66.8000    0.00878102
      66.9000    0.00863262
      67.0000    0.00848929
      67.1000    0.00834875
      67.2000    0.00821050
      67.3000    0.00807416
      67.4000    0.00793993
      67.5000    0.00780758
      67.6000    0.00767712
      67.7000    0.00754863
      67.8000    0.00742168
      67.9000    0.00729637
      68.0000    0.00717372
      68.1000    0.00705363
      68.2000    0.00693536
      68.3000    0.00681881
      68.4000    0.00670416
      68.5000    0.00659137
      68.6000    0.00648008
      68.7000    0.00637051
      68.8000    0.00626255
      68.9000    0.00615777
      69.0000    0.00606343
      69.1000    0.00597847
      69.2000    0.00589613
      69.3000    0.00581611
      69.4000    0.00573918
      69.5000    0.00566059
      69.6000    0.00557941
      69.7000    0.00550144
      69.8000    0.00542741
      69.9000    0.00535443
      70.0000    0.00528214
      70.1000    0.00520932
      70.2000    0.00514008
      70.3000    0.00507448
      70.4000    0.00500908
      70.5000    0.00494522
      70.6000    0.00488287
      70.7000    0.00482140
      70.8000    0.00476049
      70.9000    0.00469811
      71.0000    0.00463446
      71.1000    0.00457370
      71.2000    0.00451599
      71.3000    0.00445473
      71.4000    0.00438896
      71.5000    0.00432842
      71.6000    0.00427544
      71.7000    0.00422197
      71.8000    0.00416677
      71.9000    0.00411349
      72.0000    0.00406423
      72.1000    0.00401398
      72.2000    0.00395614
      72.3000    0.00389923
      72.4000    0.00384945
      72.5000    0.00380029
      72.6000    0.00375167
      72.7000    0.00370376
      72.8000    0.00365641
      72.9000    0.00360963
      73.0000    0.00356462
      73.1000    0.00352070
      73.2000    0.00347729
      73.3000    0.00343447
      73.4000    0.00339254
      73.5000    0.00335178
      73.6000    0.00331155
      73.7000    0.00327180
      73.8000    0.00323244
      73.9000    0.00319352
      74.0000    0.00315529
      74.1000    0.00312058
      74.2000    0.00308724
      74.3000    0.00305116
      74.4000    0.00301307
      74.5000    0.00297607
      74.6000    0.00294090
      74.7000    0.00290609
      74.8000    0.00287167
      74.9000    0.00283763
      75.0000    0.00280358
      75.1000    0.00276977
      75.2000    0.00273639
      75.3000    0.00270339
      75.4000    0.00267101
      75.5000    0.00263971
      75.6000    0.00260877
      75.7000    0.00257812
      75.8000    0.00254791
      75.9000    0.00251845
      76.0000    0.00248939
      76.1000    0.00246067
      76.2000    0.00243226
      76.3000    0.00240420
      76.4000    0.00237692
      76.5000    0.00235002
      76.6000    0.00232335
      76.7000    0.00229692
      76.8000    0.00227079
      76.9000    0.00224497
      77.0000    0.00221941
      77.1000    0.00219410
      77.2000    0.00216909
      77.3000    0.00214433
      77.4000    0.00211981
      77.5000    0.00209559
      77.6000    0.00207116
      77.7000    0.00204693
      77.8000    0.00202296
      77.9000    0.00199923
      78.0000    0.00197542
      78.1000    0.00195101
      78.2000    0.00192694
      78.3000    0.00190500
      78.4000    0.00188394
      78.5000    0.00186292
      78.6000    0.00184160
      78.7000    0.00182050
      78.8000    0.00179889
      78.9000    0.00177735
      79.0000    0.00175602
      79.1000    0.00173489
      79.2000    0.00171407
      79.3000    0.00169408
      79.4000    0.00167450
      79.5000    0.00165492
      79.6000    0.00163495
      79.7000    0.00161519
      79.8000    0.00159532
      79.9000    0.00157554
      80.0000    0.00155596
      80.1000    0.00153589
      80.2000    0.00151599
      80.3000    0.00149559
      80.4000    0.00147477
      80.5000    0.00145415
      80.6000    0.00143379
      80.7000    0.00141368
      80.8000    0.00139393
      80.9000    0.00137464
      81.0000    0.00135562
      81.1000    0.00133689
      81.2000    0.00131842
      81.3000    0.00130019
      81.4000    0.00128351
      81.5000    0.00126711
      81.6000    0.00125126
      81.7000    0.00123637
      81.8000    0.00122170
      81.9000    0.00120773
      82.0000    0.00119415
      82.1000    0.00118074
      82.2000    0.00116707
      82.3000    0.00115357
      82.4000    0.00114049
      82.5000    0.00112798
      82.6000    0.00111558
      82.7000    0.00110296
      82.8000    0.00109006
      82.9000    0.00107727
      83.0000    0.00106476
      83.1000    0.00105244
      83.2000    0.00104024
      83.3000    0.00102817
      83.4000    0.00101625
      83.5000    0.00100450
      83.6000   0.000993129
      83.7000   0.000981888
      83.8000   0.000970710
      83.9000   0.000959476
      84.0000   0.000948340
      84.1000   0.000937480
      84.2000   0.000926993
      84.3000   0.000916600
      84.4000   0.000906182
      84.5000   0.000895781
      84.6000   0.000885493
      84.7000   0.000875483
      84.8000   0.000865657
      84.9000   0.000855955
      85.0000   0.000846137
      85.1000   0.000836356
      85.2000   0.000826682
      85.3000   0.000817481
      85.4000   0.000808450
      85.5000   0.000799525
      85.6000   0.000790492
      85.7000   0.000781540
      85.8000   0.000772681
      85.9000   0.000763908
      86.0000   0.000755209
      86.1000   0.000746594
      86.2000   0.000738322
      86.3000   0.000730147
      86.4000   0.000722046
      86.5000   0.000714016
      86.6000   0.000706064
      86.7000   0.000698201
      86.8000   0.000689876
      86.9000   0.000681620
      87.0000   0.000673472
      87.1000   0.000665543
      87.2000   0.000657718
      87.3000   0.000649970
      87.4000   0.000642114
      87.5000   0.000634313
      87.6000   0.000626590
      87.7000   0.000619054
      87.8000   0.000611616
      87.9000   0.000604257
      88.0000   0.000596983
      88.1000   0.000589778
      88.2000   0.000582654
      88.3000   0.000575751
      88.4000   0.000569068
      88.5000   0.000562485
      88.6000   0.000555918
      88.7000   0.000549344
      88.8000   0.000542844
      88.9000   0.000536407
      89.0000   0.000530012
      89.1000   0.000523687
      89.2000   0.000517427
      89.3000   0.000511226
      89.4000   0.000505076
      89.5000   0.000498986
      89.6000   0.000492960
      89.7000   0.000486998
      89.8000   0.000481099
      89.9000   0.000475258
      90.0000   0.000469478
      90.1000   0.000463770
      90.2000   0.000458017
      90.3000   0.000452073
      90.4000   0.000446188
      90.5000   0.000440374
      90.6000   0.000434731
      90.7000   0.000429051
      90.8000   0.000423313
      90.9000   0.000417497
      91.0000   0.000411725
      91.1000   0.000406030
      91.2000   0.000400340
      91.3000   0.000394618
      91.4000   0.000388952
      91.5000   0.000383372
      91.6000   0.000377877
      91.7000   0.000372850
      91.8000   0.000368492
      91.9000   0.000364900
      92.0000   0.000360894
      92.1000   0.000356836
      92.2000   0.000352574
      92.3000   0.000348141
      92.4000   0.000343634
      92.5000   0.000339196
      92.6000   0.000334812
      92.7000   0.000330481
      92.8000   0.000326198
      92.9000   0.000322011
      93.0000   0.000317979
      93.1000   0.000313995
      93.2000   0.000310061
      93.3000   0.000306295
      93.4000   0.000302614
      93.5000   0.000298971
      93.6000   0.000295366
      93.7000   0.000291801
      93.8000   0.000288294
      93.9000   0.000284825
      94.0000   0.000281394
      94.1000   0.000278004
      94.2000   0.000274657
      94.3000   0.000271371
      94.4000   0.000268198
      94.5000   0.000265068
      94.6000   0.000261976
      94.7000   0.000258923
      94.8000   0.000255900
      94.9000   0.000252909
      95.0000   0.000249951
      95.1000   0.000247036
      95.2000   0.000244143
      95.3000   0.000241273
      95.4000   0.000238436
      95.5000   0.000235673
      95.6000   0.000232939
      95.7000   0.000230234
      95.8000   0.000227526
      95.9000   0.000224834
      96.0000   0.000222169
      96.1000   0.000219530
      96.2000   0.000216916
      96.3000   0.000214335
      96.4000   0.000211780
      96.5000   0.000209254
      96.6000   0.000206767
      96.7000   0.000204320
      96.8000   0.000201891
      96.9000   0.000199484
      97.0000   0.000197100
      97.1000   0.000194754
      97.2000   0.000192430
      97.3000   0.000190101
      97.4000   0.000187772
      97.5000   0.000185475
      97.6000   0.000183206
      97.7000   0.000180975
      97.8000   0.000178778
      97.9000   0.000176608
      98.0000   0.000174459
      98.1000   0.000172330
      98.2000   0.000170229
      98.3000   0.000168283
      98.4000   0.000166418
      98.5000   0.000164612
      98.6000   0.000162825
      98.7000   0.000161057
      98.8000   0.000159304
      98.9000   0.000157567
      99.0000   0.000155852
      99.1000   0.000154152
      99.2000   0.000152460
      99.3000   0.000150739
      99.4000   0.000149042
      99.5000   0.000147361
      99.6000   0.000145706
      99.7000   0.000144136
      99.8000   0.000142616
      99.9000   0.000141380
      100.000   0.000140574
      100.100   0.000139722
      100.200   0.000138872
      100.300   0.000138025
      100.400   0.000137183
      100.500   0.000136364
      100.600   0.000135547
      100.700   0.000134731
      100.800   0.000133917
      100.900   0.000133106
      101.000   0.000132299
      101.100   0.000131498
      101.200   0.000130700
      101.300   0.000129904
      101.400   0.000129112
      101.500   0.000128324
      101.600   0.000127540
      101.700   0.000126773
      101.800   0.000126013
      101.900   0.000125256
      102.000   0.000124504
      102.100   0.000123776
      102.200   0.000123063
      102.300   0.000122352
      102.400   0.000121644
      102.500   0.000120938
      102.600   0.000120232
      102.700   0.000119528
      102.800   0.000118827
      102.900   0.000118128
      103.000   0.000117430
      103.100   0.000116734
      103.200   0.000116039
      103.300   0.000115348
      103.400   0.000114659
      103.500   0.000113973
      103.600   0.000113289
      103.700   0.000112606
      103.800   0.000111898
      103.900   0.000111163
      104.000   0.000110432
      104.100   0.000109706
      104.200   0.000108998
      104.300   0.000108371
      104.400   0.000107750
      104.500   0.000107131
      104.600   0.000106514
      104.700   0.000105874
      104.800   0.000105226
      104.900   0.000104579
      105.000   0.000103935
      105.100   0.000103312
      105.200   0.000102735
      105.300   0.000102162
      105.400   0.000101590
      105.500   0.000101018
      105.600   0.000100457
      105.700   9.98996e-05
      105.800   9.93435e-05
      105.900   9.87901e-05
      106.000   9.82532e-05
      106.100   9.77483e-05
      106.200   9.72468e-05
      106.300   9.67466e-05
      106.400   9.62483e-05
      106.500   9.57520e-05
      106.600   9.52575e-05
      106.700   9.47642e-05
      106.800   9.42716e-05
      106.900   9.37809e-05
      107.000   9.32925e-05
      107.100   9.28068e-05
      107.200   9.23236e-05
      107.300   9.18426e-05
      107.400   9.13610e-05
      107.500   9.08787e-05
      107.600   9.03978e-05
      107.700   8.99182e-05
      107.800   8.94407e-05
      107.900   8.89586e-05
      108.000   8.84773e-05
      108.100   8.79966e-05
      108.200   8.75167e-05
      108.300   8.70376e-05
      108.400   8.65538e-05
      108.500   8.60720e-05
      108.600   8.55916e-05
      108.700   8.51114e-05
      108.800   8.46109e-05
      108.900   8.40812e-05
      109.000   8.35532e-05
      109.100   8.30277e-05
      109.200   8.25045e-05
      109.300   8.19837e-05
      109.400   8.14651e-05
      109.500   8.09488e-05
      109.600   8.04351e-05
      109.700   7.99243e-05
      109.800   7.94168e-05
      109.900   7.89121e-05
      110.000   7.84095e-05
      110.100   7.79089e-05
      110.200   7.74101e-05
      110.300   7.69266e-05
      110.400   7.64466e-05
      110.500   7.59694e-05
      110.600   7.54946e-05
      110.700   7.50216e-05
      110.800   7.45498e-05
      110.900   7.40795e-05
      111.000   7.36105e-05
      111.100   7.31430e-05
      111.200   7.26783e-05
      111.300   7.22401e-05
      111.400   7.18034e-05
      111.500   7.13677e-05
      111.600   7.09335e-05
      111.700   7.05024e-05
      111.800   7.00890e-05
      111.900   6.96783e-05
      112.000   6.92696e-05
      112.100   6.88622e-05
      112.200   6.84562e-05
      112.300   6.80359e-05
      112.400   6.76167e-05
      112.500   6.71997e-05
      112.600   6.67849e-05
      112.700   6.63746e-05
      112.800   6.59809e-05
      112.900   6.55526e-05
      113.000   6.51385e-05
      113.100   6.47317e-05
      113.200   6.43199e-05
      113.300   6.39181e-05
      113.400   6.34369e-05
      113.500   6.29379e-05
      113.600   6.25112e-05
      113.700   6.20649e-05
      113.800   6.15736e-05
      113.900   6.11534e-05
      114.000   6.07353e-05
      114.100   6.02709e-05
      114.200   5.98331e-05
      114.300   5.94360e-05
      114.400   5.90302e-05
      114.500   5.86154e-05
      114.600   5.82522e-05
      114.700   5.78531e-05
      114.800   5.74805e-05
      114.900   5.71674e-05
      115.000   5.68130e-05
      115.100   5.64349e-05
      115.200   5.60557e-05
      115.300   5.57304e-05
      115.400   5.53570e-05
      115.500   5.50100e-05
      115.600   5.46442e-05
      115.700   5.42491e-05
      115.800   5.38973e-05
      115.900   5.35250e-05
      116.000   5.31900e-05
      116.100   5.29112e-05
      116.200   5.26289e-05
      116.300   5.23378e-05
      116.400   5.20301e-05
      116.500   5.17619e-05
      116.600   5.14822e-05
      116.700   5.12129e-05
      116.800   5.09329e-05
      116.900   5.06069e-05
      117.000   5.03351e-05
      117.100   5.02153e-05
      117.200   5.02013e-05
      117.300   5.00820e-05
      117.400   4.99551e-05
      117.500   4.98295e-05
      117.600   4.96431e-05
      117.700   4.94335e-05
      117.800   4.91928e-05
      117.900   4.89368e-05
      118.000   4.86515e-05
      118.100   4.83382e-05
      118.200   4.80490e-05
      118.300   4.77705e-05
      118.400   4.73804e-05
      118.500   4.70015e-05
      118.600   4.66761e-05
      118.700   4.63339e-05
      118.800   4.59686e-05
      118.900   4.56221e-05
      119.000   4.52172e-05
      119.100   4.47463e-05
      119.200   4.43358e-05
      119.300   4.39761e-05
      119.400   4.36461e-05
      119.500   4.33303e-05
      119.600   4.29770e-05
      119.700   4.25803e-05
      119.800   4.20960e-05
      119.900   4.14962e-05
      120.000   4.09384e-05
      120.100   4.04147e-05
      120.200   4.00398e-05
      120.300   3.97502e-05
      120.400   3.94609e-05
      120.500   3.90556e-05
      120.600   3.85639e-05
      120.700   3.80469e-05
      120.800   3.75522e-05
      120.900   3.72121e-05
      121.000   3.71093e-05
      121.100   3.69647e-05
      121.200   3.67029e-05
      121.300   3.63590e-05
      121.400   3.59538e-05
      121.500   3.55036e-05
      121.600   3.48722e-05
      121.700   3.43191e-05
      121.800   3.37057e-05
      121.900   3.30889e-05
      122.000   3.24334e-05
      122.100   3.18160e-05
      122.200   3.12094e-05
      122.300   3.07604e-05
      122.400   3.04798e-05
      122.500   3.02358e-05
      122.600   2.99720e-05
      122.700   2.97081e-05
      122.800   2.94086e-05
      122.900   2.91320e-05
      123.000   2.90467e-05
      123.100   2.92906e-05
      123.200   2.95551e-05
      123.300   2.99866e-05
      123.400   3.05553e-05
      123.500   3.13202e-05
      123.600   3.19680e-05
      123.700   3.22784e-05
      123.800   3.24921e-05
      123.900   3.27997e-05
      124.000   3.32598e-05
      124.100   3.42184e-05
      124.200   3.62379e-05
      124.300   3.92850e-05
      124.400   4.22110e-05
      124.500   4.30058e-05
      124.600   4.28171e-05
      124.700   4.25166e-05
      124.800   4.22290e-05
      124.900   4.19420e-05
      125.000   4.16550e-05
      125.100   4.13600e-05
      125.200   4.10654e-05
      125.300   4.07722e-05
      125.400   4.04805e-05
      125.500   4.01904e-05
      125.600   3.99016e-05
      125.700   3.96145e-05
      125.800   3.93289e-05
      125.900   3.90450e-05
      126.000   3.87630e-05
      126.100   3.84828e-05
      126.200   3.82044e-05
      126.300   3.79276e-05
      126.400   3.76525e-05
      126.500   3.73789e-05
      126.600   3.71068e-05
      126.700   3.68362e-05
      126.800   3.65672e-05
      126.900   3.62995e-05
      127.000   3.60325e-05
      127.100   3.57635e-05
      127.200   3.54945e-05
      127.300   3.52266e-05
      127.400   3.49601e-05
      127.500   3.46951e-05
      127.600   3.44318e-05
      127.700   3.41700e-05
      127.800   3.39099e-05
      127.900   3.36513e-05
      128.000   3.33944e-05
      128.100   3.31389e-05
      128.200   3.28848e-05
      128.300   3.26322e-05
      128.400   3.23810e-05
      128.500   3.21311e-05
      128.600   3.18825e-05
      128.700   3.16355e-05
      128.800   3.13899e-05
      128.900   3.11458e-05
      129.000   3.09032e-05
      129.100   3.06615e-05
      129.200   3.04194e-05
      129.300   3.01787e-05
      129.400   2.99395e-05
      129.500   2.97020e-05
      129.600   2.94660e-05
      129.700   2.92316e-05
      129.800   2.89988e-05
      129.900   2.87677e-05
      130.000   2.85382e-05
      130.100   2.83102e-05
      130.200   2.80837e-05
      130.300   2.78589e-05
      130.400   2.76357e-05
      130.500   2.74140e-05
      130.600   2.71940e-05
      130.700   2.69756e-05
      130.800   2.67589e-05
      130.900   2.65437e-05
      131.000   2.63299e-05
      131.100   2.61177e-05
      131.200   2.59065e-05
      131.300   2.56963e-05
      131.400   2.54873e-05
      131.500   2.52797e-05
      131.600   2.50734e-05
      131.700   2.48684e-05
      131.800   2.46647e-05
      131.900   2.44622e-05
      132.000   2.42611e-05
      132.100   2.40612e-05
      132.200   2.38626e-05
      132.300   2.36652e-05
      132.400   2.34692e-05
      132.500   2.32746e-05
      132.600   2.30814e-05
      132.700   2.28895e-05
      132.800   2.26990e-05
      132.900   2.25098e-05
      133.000   2.23218e-05
      133.100   2.21351e-05
      133.200   2.19496e-05
      133.300   2.17653e-05
      133.400   2.15822e-05
      133.500   2.14002e-05
      133.600   2.12196e-05
      133.700   2.10403e-05
      133.800   2.08623e-05
      133.900   2.06858e-05
      134.000   2.05105e-05
      134.100   2.03365e-05
      134.200   2.01639e-05
      134.300   1.99925e-05
      134.400   1.98224e-05
      134.500   1.96536e-05
      134.600   1.94860e-05
      134.700   1.93198e-05
      134.800   1.91548e-05
      134.900   1.89910e-05
      135.000   1.88284e-05
      135.100   1.86671e-05
      135.200   1.85070e-05
      135.300   1.83481e-05
      135.400   1.81904e-05
      135.500   1.80334e-05
      135.600   1.78771e-05
      135.700   1.77220e-05
      135.800   1.75681e-05
      135.900   1.74153e-05
      136.000   1.72635e-05
      136.100   1.71129e-05
      136.200   1.69634e-05
      136.300   1.68149e-05
      136.400   1.66675e-05
      136.500   1.65211e-05
      136.600   1.63757e-05
      136.700   1.62313e-05
      136.800   1.60880e-05
      136.900   1.59457e-05
      137.000   1.58044e-05
      137.100   1.56641e-05
      137.200   1.55248e-05
      137.300   1.53867e-05
      137.400   1.52496e-05
      137.500   1.51135e-05
      137.600   1.49785e-05
      137.700   1.48443e-05
      137.800   1.47111e-05
      137.900   1.45788e-05
      138.000   1.44477e-05
      138.100   1.43175e-05
      138.200   1.41885e-05
      138.300   1.40605e-05
      138.400   1.39336e-05
      138.500   1.38076e-05
      138.600   1.36827e-05
      138.700   1.35588e-05
      138.800   1.34359e-05
      138.900   1.33140e-05
      139.000   1.31931e-05
      139.100   1.30732e-05
      139.200   1.29544e-05
      139.300   1.28364e-05
      139.400   1.27195e-05
      139.500   1.26035e-05
      139.600   1.24883e-05
      139.700   1.23741e-05
      139.800   1.22608e-05
      139.900   1.21484e-05
      140.000   1.20368e-05
      140.100   1.19261e-05
      140.200   1.18163e-05
      140.300   1.17073e-05
      140.400   1.15992e-05
      140.500   1.14919e-05
      140.600   1.13854e-05
      140.700   1.12798e-05
      140.800   1.11751e-05
      140.900   1.10712e-05
      141.000   1.09682e-05
      141.100   1.08660e-05
      141.200   1.07646e-05
      141.300   1.06640e-05
      141.400   1.05641e-05
      141.500   1.04651e-05
      141.600   1.03669e-05
      141.700   1.02695e-05
      141.800   1.01728e-05
      141.900   1.00769e-05
      142.000   9.98176e-06
      142.100   9.89131e-06
      142.200   9.81286e-06
      142.300   9.74465e-06
      142.400   9.67677e-06
      142.500   9.60921e-06
      142.600   9.54195e-06
      142.700   9.47501e-06
      142.800   9.40842e-06
      142.900   9.34217e-06
      143.000   9.27626e-06
      143.100   9.21070e-06
      143.200   9.14554e-06
      143.300   9.08069e-06
      143.400   9.01622e-06
      143.500   8.95208e-06
      143.600   8.88828e-06
      143.700   8.82477e-06
      143.800   8.76164e-06
      143.900   8.69886e-06
      144.000   8.63640e-06
      144.100   8.57425e-06
      144.200   8.51244e-06
      144.300   8.45093e-06
      144.400   8.39066e-06
      144.500   8.34322e-06
      144.600   8.29984e-06
      144.700   8.25696e-06
      144.800   8.21410e-06
      144.900   8.17126e-06
      145.000   8.12844e-06
      145.100   8.08567e-06
      145.200   8.04290e-06
      145.300   8.00018e-06
      145.400   7.95748e-06
      145.500   7.91480e-06
      145.600   7.87214e-06
      145.700   7.82951e-06
      145.800   7.78692e-06
      145.900   7.74438e-06
      146.000   7.70185e-06
      146.100   7.65937e-06
      146.200   7.61693e-06
      146.300   7.57455e-06
      146.400   7.53219e-06
      146.500   7.48994e-06
      146.600   7.44774e-06
      146.700   7.40562e-06
      146.800   7.36311e-06
      146.900   7.32004e-06
      147.000   7.27707e-06
      147.100   7.23418e-06
      147.200   7.19140e-06
      147.300   7.14870e-06
      147.400   7.10611e-06
      147.500   7.06361e-06
      147.600   7.02121e-06
      147.700   6.97892e-06
      147.800   6.93675e-06
      147.900   6.89468e-06
      148.000   6.85271e-06
      148.100   6.81087e-06
      148.200   6.76917e-06
      148.300   6.72758e-06
      148.400   6.68613e-06
      148.500   6.64480e-06
      148.600   6.60362e-06
      148.700   6.56256e-06
      148.800   6.52162e-06
      148.900   6.48085e-06
      149.000   6.44023e-06
      149.100   6.39974e-06
      149.200   6.35936e-06
      149.300   6.31908e-06
      149.400   6.27894e-06
      149.500   6.23895e-06
      149.600   6.19908e-06
      149.700   6.15935e-06
      149.800   6.11974e-06
      149.900   6.08026e-06
      150.000   6.04089e-06
      150.100   6.00167e-06
      150.200   5.96256e-06
      150.300   5.92359e-06
      150.400   5.88475e-06
      150.500   5.84602e-06
      150.600   5.80742e-06
      150.700   5.76893e-06
      150.800   5.73059e-06
      150.900   5.69237e-06
      151.000   5.65426e-06
      151.100   5.61628e-06
      151.200   5.57842e-06
      151.300   5.54068e-06
      151.400   5.50307e-06
      151.500   5.46561e-06
      151.600   5.42835e-06
      151.700   5.39131e-06
      151.800   5.35440e-06
      151.900   5.31760e-06
      152.000   5.28095e-06
      152.100   5.24445e-06
      152.200   5.20809e-06
      152.300   5.17186e-06
      152.400   5.13580e-06
      152.500   5.09987e-06
      152.600   5.06410e-06
      152.700   5.02849e-06
      152.800   4.99303e-06
      152.900   4.95776e-06
      153.000   4.92263e-06
      153.100   4.88768e-06
      153.200   4.85287e-06
      153.300   4.81824e-06
      153.400   4.78377e-06
      153.500   4.74945e-06
      153.600   4.71530e-06
      153.700   4.68132e-06
      153.800   4.64749e-06
      153.900   4.61383e-06
      154.000   4.58086e-06
      154.100   4.54925e-06
      154.200   4.51820e-06
      154.300   4.48726e-06
      154.400   4.45645e-06
      154.500   4.42577e-06
      154.600   4.39522e-06
      154.700   4.36479e-06
      154.800   4.33448e-06
      154.900   4.30430e-06
      155.000   4.27424e-06
      155.100   4.24432e-06
      155.200   4.21451e-06
      155.300   4.18484e-06
      155.400   4.15530e-06
      155.500   4.12588e-06
      155.600   4.09658e-06
      155.700   4.06740e-06
      155.800   4.03836e-06
      155.900   4.00943e-06
      156.000   3.98063e-06
      156.100   3.95195e-06
      156.200   3.92339e-06
      156.300   3.89494e-06
      156.400   3.86661e-06
      156.500   3.83827e-06
      156.600   3.80915e-06
      156.700   3.78017e-06
      156.800   3.75132e-06
      156.900   3.72260e-06
      157.000   3.69404e-06
      157.100   3.66560e-06
      157.200   3.63730e-06
      157.300   3.60914e-06
      157.400   3.58113e-06
      157.500   3.55323e-06
      157.600   3.52549e-06
      157.700   3.49788e-06
      157.800   3.47042e-06
      157.900   3.44310e-06
      158.000   3.41592e-06
      158.100   3.38889e-06
      158.200   3.36199e-06
      158.300   3.33525e-06
      158.400   3.30866e-06
      158.500   3.28221e-06
      158.600   3.25590e-06
      158.700   3.22974e-06
      158.800   3.20374e-06
      158.900   3.17788e-06
      159.000   3.15218e-06
      159.100   3.12661e-06
      159.200   3.10119e-06
      159.300   3.07591e-06
      159.400   3.05079e-06
      159.500   3.02583e-06
      159.600   3.00101e-06
      159.700   2.97635e-06
      159.800   2.95183e-06
      159.900   2.92746e-06
      160.000   2.90325e-06
      160.100   2.87919e-06
      160.200   2.85528e-06
      160.300   2.83151e-06
      160.400   2.80788e-06
      160.500   2.78440e-06
      160.600   2.76107e-06
      160.700   2.73788e-06
      160.800   2.71482e-06
      160.900   2.69191e-06
      161.000   2.66913e-06
      161.100   2.64649e-06
      161.200   2.62400e-06
      161.300   2.60164e-06
      161.400   2.57943e-06
      161.500   2.55735e-06
      161.600   2.53540e-06
      161.700   2.51356e-06
      161.800   2.49185e-06
      161.900   2.47029e-06
      162.000   2.44885e-06
      162.100   2.42755e-06
      162.200   2.40638e-06
      162.300   2.38536e-06
      162.400   2.36446e-06
      162.500   2.34370e-06
      162.600   2.32307e-06
      162.700   2.30258e-06
      162.800   2.28223e-06
      162.900   2.26201e-06
      163.000   2.24191e-06
      163.100   2.22195e-06
      163.200   2.20212e-06
      163.300   2.18242e-06
      163.400   2.16285e-06
      163.500   2.14342e-06
      163.600   2.12411e-06
      163.700   2.10493e-06
      163.800   2.08589e-06
      163.900   2.06699e-06
      164.000   2.04821e-06
      164.100   2.02956e-06
      164.200   2.01105e-06
      164.300   1.99279e-06
      164.400   1.97467e-06
      164.500   1.95667e-06
      164.600   1.93880e-06
      164.700   1.92107e-06
      164.800   1.90346e-06
      164.900   1.88597e-06
      165.000   1.86862e-06
      165.100   1.85139e-06
      165.200   1.83429e-06
      165.300   1.81733e-06
      165.400   1.80049e-06
      165.500   1.78377e-06
      165.600   1.76719e-06
      165.700   1.75072e-06
      165.800   1.73439e-06
      165.900   1.71817e-06
      166.000   1.70210e-06
      166.100   1.68614e-06
      166.200   1.67030e-06
      166.300   1.65460e-06
      166.400   1.63901e-06
      166.500   1.62354e-06
      166.600   1.60819e-06
      166.700   1.59297e-06
      166.800   1.57785e-06
      166.900   1.56285e-06
      167.000   1.54799e-06
      167.100   1.53323e-06
      167.200   1.51859e-06
      167.300   1.50405e-06
      167.400   1.48963e-06
      167.500   1.47533e-06
      167.600   1.46113e-06
      167.700   1.44704e-06
      167.800   1.43307e-06
      167.900   1.41921e-06
      168.000   1.40545e-06
      168.100   1.39179e-06
      168.200   1.37825e-06
      168.300   1.36481e-06
      168.400   1.35147e-06
      168.500   1.33825e-06
      168.600   1.32512e-06
      168.700   1.31209e-06
      168.800   1.29917e-06
      168.900   1.28636e-06
      169.000   1.27364e-06
      169.100   1.26102e-06
      169.200   1.24851e-06
      169.300   1.23609e-06
      169.400   1.22377e-06
      169.500   1.21149e-06
      169.600   1.19902e-06
      169.700   1.18634e-06
      169.800   1.17368e-06
      169.900   1.16111e-06
      170.000   1.14865e-06
      170.100   1.13629e-06
      170.200   1.12404e-06
      170.300   1.47473e-06
      170.400   3.18847e-06
      170.500   6.07486e-06
      170.600   8.99099e-06
      170.700   1.13533e-05
      170.800   1.24871e-05
      170.900   1.25806e-05
      171.000   1.24167e-05
      171.100   1.22540e-05
      171.200   1.20926e-05
      171.300   1.19324e-05
      171.400   1.17736e-05
      171.500   1.16161e-05
      171.600   1.14599e-05
      171.700   1.13052e-05
      171.800   1.11521e-05
      171.900   1.10005e-05
      172.000   1.08508e-05
      172.100   1.07028e-05
      172.200   1.05568e-05
      172.300   1.04124e-05
      172.400   1.02678e-05
      172.500   1.01247e-05
      172.600   9.98369e-06
      172.700   9.84470e-06
      172.800   9.70766e-06
      172.900   9.57256e-06
      173.000   9.43948e-06
      173.100   9.30834e-06
      173.200   9.17906e-06
      173.300   9.05171e-06
      173.400   8.92615e-06
      173.500   8.80245e-06
      173.600   8.68059e-06
      173.700   8.56045e-06
      173.800   8.44202e-06
      173.900   8.32535e-06
      174.000   8.21031e-06
      174.100   8.09686e-06
      174.200   7.98504e-06
      174.300   7.87478e-06
      174.400   7.76606e-06
      174.500   7.65881e-06
      174.600   7.55296e-06
      174.700   7.44859e-06
      174.800   7.34564e-06
      174.900   7.24402e-06
      175.000   7.14366e-06
      175.100   7.04464e-06
      175.200   6.94718e-06
      175.300   6.85095e-06
      175.400   6.75592e-06
      175.500   6.66217e-06
      175.600   6.56962e-06
      175.700   6.47828e-06
      175.800   6.38810e-06
      175.900   6.29911e-06
      176.000   6.21126e-06
      176.100   6.12460e-06
      176.200   6.03904e-06
      176.300   5.95457e-06
      176.400   5.87126e-06
      176.500   5.78900e-06
      176.600   5.70782e-06
      176.700   5.62770e-06
      176.800   5.54863e-06
      176.900   5.47062e-06
      177.000   5.39361e-06
      177.100   5.31759e-06
      177.200   5.24260e-06
      177.300   5.16860e-06
      177.400   5.09553e-06
      177.500   5.02340e-06
      177.600   4.95222e-06
      177.700   4.88198e-06
      177.800   4.81266e-06
      177.900   4.74418e-06
      178.000   4.67691e-06
      178.100   4.61055e-06
      178.200   4.54502e-06
      178.300   4.48034e-06
      178.400   4.41653e-06
      178.500   4.35354e-06
      178.600   4.29137e-06
      178.700   4.22998e-06
      178.800   4.16943e-06
      178.900   4.10968e-06
      179.000   4.05071e-06
      179.100   3.99250e-06
      179.200   3.93508e-06
      179.300   3.87844e-06
      179.400   3.82255e-06
      179.500   3.76746e-06
      179.600   3.71310e-06
      179.700   3.65952e-06
      179.800   3.60667e-06
      179.900   3.55455e-06
      180.000   3.50315e-06
      180.100   3.45250e-06
      180.200   3.40257e-06
      180.300   3.35335e-06
      180.400   3.30483e-06
      180.500   3.25702e-06
      180.600   3.20990e-06
      180.700   3.16347e-06
      180.800   3.11772e-06
      180.900   3.07262e-06
      181.000   3.02818e-06
      181.100   2.98440e-06
      181.200   2.94124e-06
      181.300   2.89872e-06
      181.400   2.85683e-06
      181.500   2.81554e-06
      181.600   2.77485e-06
      181.700   2.73475e-06
      181.800   2.69523e-06
      181.900   2.65628e-06
      182.000   2.61790e-06
      182.100   2.58006e-06
      182.200   2.54279e-06
      182.300   2.50604e-06
      182.400   2.46983e-06
      182.500   2.43412e-06
      182.600   2.39891e-06
      182.700   2.36420e-06
      182.800   2.32998e-06
      182.900   2.29623e-06
      183.000   2.26296e-06
      183.100   2.23017e-06
      183.200   2.19783e-06
      183.300   2.16593e-06
      183.400   2.13447e-06
      183.500   2.10347e-06
      183.600   2.07289e-06
      183.700   2.04275e-06
      183.800   2.01305e-06
      183.900   1.98376e-06
      184.000   1.95490e-06
      184.100   1.92644e-06
      184.200   1.89840e-06
      184.300   1.87073e-06
      184.400   1.84347e-06
      184.500   1.81659e-06
      184.600   1.79008e-06
      184.700   1.76395e-06
      184.800   1.73819e-06
      184.900   1.71278e-06
      185.000   1.68773e-06
      185.100   1.66303e-06
      185.200   1.63867e-06
      185.300   1.61467e-06
      185.400   1.59099e-06
      185.500   1.56765e-06
      185.600   1.54463e-06
      185.700   1.52192e-06
      185.800   1.49955e-06
      185.900   1.47750e-06
      186.000   1.45574e-06
      186.100   1.43429e-06
      186.200   1.41313e-06
      186.300   1.39226e-06
      186.400   1.37167e-06
      186.500   1.35137e-06
      186.600   1.33135e-06
      186.700   1.31159e-06
      186.800   1.29210e-06
      186.900   1.27287e-06
      187.000   1.25390e-06
      187.100   1.23519e-06
      187.200   1.21673e-06
      187.300   1.19854e-06
      187.400   1.18060e-06
      187.500   1.16291e-06
      187.600   1.14546e-06
      187.700   1.12824e-06
      187.800   1.11127e-06
      187.900   1.09452e-06
      188.000   1.07802e-06
      188.100   1.06174e-06
      188.200   1.04568e-06
      188.300   1.02985e-06
      188.400   1.01424e-06
      188.500   9.98855e-07
      188.600   9.83696e-07
      188.700   9.68760e-07
      188.800   9.54042e-07
      188.900   9.39542e-07
      189.000   9.25248e-07
      189.100   9.11158e-07
      189.200   8.97275e-07
      189.300   8.83598e-07
      189.400   8.70125e-07
      189.500   8.56849e-07
      189.600   8.43764e-07
      189.700   8.30879e-07
      189.800   8.18256e-07
      189.900   8.05839e-07
      190.000   7.93603e-07
      190.100   7.81555e-07
      190.200   7.69684e-07
      190.300   7.57992e-07
      190.400   7.46468e-07
      190.500   7.35119e-07
      190.600   7.23943e-07
      190.700   7.12929e-07
      190.800   7.02081e-07
      190.900   6.91396e-07
      191.000   6.80874e-07
      191.100   6.70519e-07
      191.200   6.60314e-07
      191.300   6.50261e-07
      191.400   6.40359e-07
      191.500   6.30601e-07
      191.600   6.20989e-07
      191.700   6.11520e-07
      191.800   6.02186e-07
      191.900   5.92994e-07
      192.000   5.83942e-07
      192.100   5.75028e-07
      192.200   5.66254e-07
      192.300   5.57608e-07
      192.400   5.49087e-07
      192.500   5.40693e-07
      192.600   5.32424e-07
      192.700   5.24279e-07
      192.800   5.16252e-07
      192.900   5.08339e-07
      193.000   5.00547e-07
      193.100   4.92875e-07
      193.200   4.85321e-07
      193.300   4.77881e-07
      193.400   4.70556e-07
      193.500   4.63339e-07
      193.600   4.56228e-07
      193.700   4.49223e-07
      193.800   4.42326e-07
      193.900   4.35534e-07
      194.000   4.28842e-07
      194.100   4.22255e-07
      194.200   4.15775e-07
      194.300   4.09391e-07
      194.400   4.03102e-07
      194.500   3.96908e-07
      194.600   3.90805e-07
      194.700   3.84794e-07
      194.800   3.78876e-07
      194.900   3.73043e-07
      195.000   3.67297e-07
      195.100   3.61644e-07
      195.200   3.56076e-07
      195.300   3.50592e-07
      195.400   3.45186e-07
      195.500   3.39860e-07
      195.600   3.34611e-07
      195.700   3.29440e-07
      195.800   3.24343e-07
      195.900   3.19319e-07
      196.000   3.14313e-07
      196.100   3.09379e-07
      196.200   3.04518e-07
      196.300   2.99728e-07
      196.400   2.95007e-07
      196.500   2.90354e-07
      196.600   2.85769e-07
      196.700   2.81251e-07
      196.800   2.76801e-07
      196.900   2.72419e-07
      197.000   2.68102e-07
      197.100   2.63847e-07
      197.200   2.59654e-07
      197.300   2.55521e-07
      197.400   2.51446e-07
      197.500   2.47432e-07
      197.600   2.43477e-07
      197.700   2.39585e-07
      197.800   2.35752e-07
      197.900   2.31974e-07
      198.000   2.28251e-07
      198.100   2.24584e-07
      198.200   2.20970e-07
      198.300   2.17408e-07
      198.400   2.13902e-07
      198.500   2.10452e-07
      198.600   2.07055e-07
      198.700   2.03709e-07
      198.800   2.00414e-07
      198.900   1.97168e-07
      199.000   1.93971e-07
      199.100   1.90823e-07
      199.200   1.87722e-07
      199.300   1.84674e-07
      199.400   1.81674e-07
      199.500   1.78721e-07
      199.600   1.75812e-07
      199.700   1.72948e-07
      199.800   1.70128e-07
      199.900   1.67353e-07
      200.000   1.64619e-07
      200.100   1.61941e-07
      200.200   1.59297e-07
      200.300   1.56695e-07
      200.400   1.54135e-07
      200.500   1.51614e-07
      200.600   1.49134e-07
      200.700   1.46692e-07
      200.800   1.44288e-07
      200.900   1.41923e-07
      201.000   1.39598e-07
      201.100   1.37309e-07
      201.200   1.35056e-07
      201.300   1.32840e-07
      201.400   1.30660e-07
      201.500   1.28513e-07
      201.600   1.26400e-07
      201.700   1.24322e-07
      201.800   1.22275e-07
      201.900   1.20263e-07
      202.000   1.18285e-07
      202.100   1.16337e-07
      202.200   1.14421e-07
      202.300   1.12603e-07
      202.400   1.10935e-07
      202.500   1.09327e-07
      202.600   1.07740e-07
      202.700   1.06177e-07
      202.800   1.04637e-07
      202.900   1.03119e-07
      203.000   1.01623e-07
      203.100   1.00150e-07
      203.200   9.86972e-08
      203.300   9.72649e-08
      203.400   9.58534e-08
      203.500   9.44628e-08
      203.600   9.30921e-08
      203.700   9.17414e-08
      203.800   9.04112e-08
      203.900   8.91011e-08
      204.000   8.78098e-08
      204.100   8.65376e-08
      204.200   8.52844e-08
      204.300   8.40488e-08
      204.400   8.28318e-08
      204.500   8.16325e-08
      204.600   8.04505e-08
      204.700   7.92859e-08
      204.800   7.81395e-08
      204.900   7.70099e-08
      205.000   7.58968e-08
      205.100   7.48003e-08
      205.200   7.37193e-08
      205.300   7.26546e-08
      205.400   7.16052e-08
      205.500   7.05707e-08
      205.600   6.95784e-08
      205.700   6.86247e-08
      205.800   6.76872e-08
      205.900   6.67630e-08
      206.000   6.58522e-08
      206.100   6.49533e-08
      206.200   6.40663e-08
      206.300   6.31916e-08
      206.400   6.23289e-08
      206.500   6.14772e-08
      206.600   6.06372e-08
      206.700   5.98084e-08
      206.800   5.89902e-08
      206.900   5.81829e-08
      207.000   5.73867e-08
      207.100   5.66007e-08
      207.200   5.58257e-08
      207.300   5.50607e-08
      207.400   5.43054e-08
      207.500   5.35599e-08
      207.600   5.28243e-08
      207.700   5.20979e-08
      207.800   5.13809e-08
      207.900   5.06732e-08
      208.000   4.99746e-08
      208.100   4.92850e-08
      208.200   4.86045e-08
      208.300   4.79327e-08
      208.400   4.72696e-08
      208.500   4.66155e-08
      208.600   4.59695e-08
      208.700   4.53317e-08
      208.800   4.47022e-08
      208.900   4.40800e-08
      209.000   4.34618e-08
      209.100   4.28515e-08
      209.200   4.22493e-08
      209.300   4.16547e-08
      209.400   4.10683e-08
      209.500   4.04894e-08
      209.600   3.99182e-08
      209.700   3.93547e-08
      209.800   3.87991e-08
      209.900   3.82506e-08
      210.000   3.77096e-08
      210.100   3.71758e-08
      210.200   3.66491e-08
      210.300   3.61295e-08
      210.400   3.56169e-08
      210.500   3.51111e-08
      210.600   3.46122e-08
      210.700   3.41200e-08
      210.800   3.36345e-08
      210.900   3.31555e-08
      211.000   3.26831e-08
      211.100   3.22171e-08
      211.200   3.17574e-08
      211.300   3.13043e-08
      211.400   3.08576e-08
      211.500   3.04167e-08
      211.600   2.99820e-08
      211.700   2.95533e-08
      211.800   2.91302e-08
      211.900   2.87130e-08
      212.000   2.83017e-08
      212.100   2.78959e-08
      212.200   2.74957e-08
      212.300   2.71012e-08
      212.400   2.67122e-08
      212.500   2.63286e-08
      212.600   2.59503e-08
      212.700   2.55772e-08
      212.800   2.52093e-08
      212.900   2.48466e-08
      213.000   2.44888e-08
      213.100   2.41363e-08
      213.200   2.37886e-08
      213.300   2.34458e-08
      213.400   2.31077e-08
      213.500   2.27744e-08
      213.600   2.24456e-08
      213.700   2.21216e-08
      213.800   2.18020e-08
      213.900   2.14871e-08
      214.000   2.11766e-08
      214.100   2.08704e-08
      214.200   2.05687e-08
      214.300   2.02712e-08
      214.400   1.99779e-08
      214.500   1.96889e-08
      214.600   1.94040e-08
      214.700   1.91232e-08
      214.800   1.88464e-08
      214.900   1.85738e-08
      215.000   1.83049e-08
      215.100   1.80400e-08
      215.200   1.77790e-08
      215.300   1.75220e-08
      215.400   1.72685e-08
      215.500   1.70188e-08
      215.600   1.67730e-08
      215.700   1.65305e-08
      215.800   1.62916e-08
      215.900   1.60562e-08
      216.000   1.58243e-08
      216.100   1.55957e-08
      216.200   1.53706e-08
      216.300   1.51488e-08
      216.400   1.49303e-08
      216.500   1.47150e-08
      216.600   1.45029e-08
      216.700   1.42940e-08
      216.800   1.40881e-08
      216.900   1.38853e-08
      217.000   1.36855e-08
      217.100   1.34885e-08
      217.200   1.32945e-08
      217.300   1.31034e-08
      217.400   1.29151e-08
      217.500   1.27296e-08
      217.600   1.25467e-08
      217.700   1.23665e-08
      217.800   1.21890e-08
      217.900   1.20141e-08
      218.000   1.18418e-08
      218.100   1.16719e-08
      218.200   1.15046e-08
      218.300   1.13396e-08
      218.400   1.11771e-08
      218.500   1.10168e-08
      218.600   1.08589e-08
      218.700   1.07032e-08
      218.800   1.05497e-08
      218.900   1.03985e-08
      219.000   1.02494e-08
      219.100   1.01023e-08
      219.200   9.95741e-09
      219.300   9.81452e-09
      219.400   9.67359e-09
      219.500   9.53469e-09
      219.600   9.39772e-09
      219.700   9.26268e-09
      219.800   9.12956e-09
      219.900   8.99828e-09
      220.000   8.86880e-09
      220.100   8.74114e-09
      220.200   8.61525e-09
      220.300   8.49115e-09
      220.400   8.36875e-09
      220.500   8.24809e-09
      220.600   8.12911e-09
      220.700   8.01173e-09
      220.800   7.89598e-09
      220.900   7.78190e-09
      221.000   7.66936e-09
      221.100   7.55836e-09
      221.200   7.44896e-09
      221.300   7.34106e-09
      221.400   7.23466e-09
      221.500   7.12974e-09
      221.600   7.02629e-09
      221.700   6.92425e-09
      221.800   6.82361e-09
      221.900   6.72440e-09
      222.000   6.62662e-09
      222.100   6.53014e-09
      222.200   6.43504e-09
      222.300   6.34124e-09
      222.400   6.24877e-09
      222.500   6.15755e-09
      222.600   6.06767e-09
      222.700   5.97900e-09
      222.800   5.89155e-09
      222.900   5.80534e-09
      223.000   5.72032e-09
      223.100   5.63648e-09
      223.200   5.55382e-09
      223.300   5.47232e-09
      223.400   5.39198e-09
      223.500   5.31272e-09
      223.600   5.23462e-09
      223.700   5.15759e-09
      223.800   5.08163e-09
      223.900   5.00681e-09
      224.000   4.93297e-09
      224.100   4.86018e-09
      224.200   4.78840e-09
      224.300   4.71766e-09
      224.400   4.64788e-09
      224.500   4.57911e-09
      224.600   4.51127e-09
      224.700   4.44444e-09
      224.800   4.37853e-09
      224.900   4.31353e-09
      225.000   4.24946e-09
      225.100   4.18629e-09
      225.200   4.12400e-09
      225.300   4.06262e-09
      225.400   4.00208e-09
      225.500   3.94240e-09
      225.600   3.88357e-09
      225.700   3.82559e-09
      225.800   3.76840e-09
      225.900   3.71204e-09
      226.000   3.65650e-09
      226.100   3.60174e-09
      226.200   3.54777e-09
      226.300   3.49482e-09
      226.400   3.44285e-09
      226.500   3.39156e-09
      226.600   3.34094e-09
      226.700   3.29102e-09
      226.800   3.24176e-09
      226.900   3.19319e-09
      227.000   3.14533e-09
      227.100   3.09813e-09
      227.200   3.05163e-09
      227.300   3.00581e-09
      227.400   2.96066e-09
      227.500   2.91617e-09
      227.600   2.87232e-09
      227.700   2.82912e-09
      227.800   2.78657e-09
      227.900   2.74463e-09
      228.000   2.70332e-09
      228.100   2.66262e-09
      228.200   2.62251e-09
      228.300   2.58301e-09
      228.400   2.54410e-09
      228.500   2.50576e-09
      228.600   2.46800e-09
      228.700   2.43081e-09
      228.800   2.39417e-09
      228.900   2.35809e-09
      229.000   2.32255e-09
      229.100   2.28755e-09
      229.200   2.25308e-09
      229.300   2.21912e-09
      229.400   2.18569e-09
      229.500   2.15276e-09
      229.600   2.12033e-09
      229.700   2.08840e-09
      229.800   2.05695e-09
      229.900   2.02598e-09
      230.000   1.99532e-09
      230.100   1.96404e-09
      230.200   1.93321e-09
      230.300   1.90289e-09
      230.400   1.87304e-09
      230.500   1.84367e-09
      230.600   1.81476e-09
      230.700   1.78631e-09
      230.800   1.75831e-09
      230.900   1.73076e-09
      231.000   1.70363e-09
      231.100   1.67694e-09
      231.200   1.65067e-09
      231.300   1.62481e-09
      231.400   1.59938e-09
      231.500   1.57433e-09
      231.600   1.54967e-09
      231.700   1.52540e-09
      231.800   1.50152e-09
      231.900   1.47801e-09
      232.000   1.45487e-09
      232.100   1.43209e-09
      232.200   1.40967e-09
      232.300   1.38761e-09
      232.400   1.36588e-09
      232.500   1.34449e-09
      232.600   1.32344e-09
      232.700   1.30272e-09
      232.800   1.28232e-09
      232.900   1.26224e-09
      233.000   1.24247e-09
      233.100   1.22301e-09
      233.200   1.20385e-09
      233.300   1.18499e-09
      233.400   1.16642e-09
      233.500   1.14814e-09
      233.600   1.13016e-09
      233.700   1.11244e-09
      233.800   1.09314e-09
      233.900   1.07391e-09
      234.000   1.05501e-09
      234.100   1.03644e-09
      234.200   1.01820e-09
      234.300   1.00027e-09
      234.400   9.82646e-10
      234.500   9.65330e-10
      234.600   9.48310e-10
      234.700   9.31589e-10
      234.800   9.15159e-10
      234.900   8.99008e-10
      235.000   8.83134e-10
      235.100   8.67537e-10
      235.200   8.52210e-10
      235.300   8.37148e-10
      235.400   8.22344e-10
      235.500   8.07798e-10
      235.600   7.93507e-10
      235.700   7.79458e-10
      235.800   7.65665e-10
      235.900   7.52110e-10
      236.000   7.38788e-10
      236.100   7.25694e-10
      236.200   7.12827e-10
      236.300   7.00181e-10
      236.400   6.87758e-10
      236.500   6.75546e-10
      236.600   6.63545e-10
      236.700   6.51751e-10
      236.800   6.40160e-10
      236.900   6.28770e-10
      237.000   6.17575e-10
      237.100   6.06572e-10
      237.200   5.95761e-10
      237.300   5.85136e-10
      237.400   5.74693e-10
      237.500   5.64429e-10
      237.600   5.54336e-10
      237.700   5.44424e-10
      237.800   5.34684e-10
      237.900   5.25110e-10
      238.000   5.15704e-10
      238.100   5.06457e-10
      238.200   4.97370e-10
      238.300   4.88438e-10
      238.400   4.79660e-10
      238.500   4.71032e-10
      238.600   4.62553e-10
      238.700   4.54223e-10
      238.800   4.46033e-10
      238.900   4.37986e-10
      239.000   4.30074e-10
      239.100   4.22300e-10
      239.200   4.14663e-10
      239.300   4.07156e-10
      239.400   3.99787e-10
      239.500   3.92543e-10
      239.600   3.85423e-10
      239.700   3.78429e-10
      239.800   3.71553e-10
      239.900   3.64796e-10
      240.000   3.58157e-10
      240.100   3.51631e-10
      240.200   3.45217e-10
      240.300   3.38915e-10
      240.400   3.32721e-10
      240.500   3.26637e-10
      240.600   3.20659e-10
      240.700   3.14784e-10
      240.800   3.09014e-10
      240.900   3.03348e-10
      241.000   2.97781e-10
      241.100   2.92311e-10
      241.200   2.86937e-10
      241.300   2.81656e-10
      241.400   2.76469e-10
      241.500   2.71372e-10
      241.600   2.66365e-10
      241.700   2.61446e-10
      241.800   2.56613e-10
      241.900   2.51866e-10
      242.000   2.47202e-10
      242.100   2.42623e-10
      242.200   2.38128e-10
      242.300   2.33715e-10
      242.400   2.29380e-10
      242.500   2.25122e-10
      242.600   2.20940e-10
      242.700   2.16833e-10
      242.800   2.12800e-10
      242.900   2.08839e-10
      243.000   2.04949e-10
      243.100   2.01130e-10
      243.200   1.97378e-10
      243.300   1.93694e-10
      243.400   1.90079e-10
      243.500   1.86530e-10
      243.600   1.83049e-10
      243.700   1.79629e-10
      243.800   1.76272e-10
      243.900   1.72977e-10
      244.000   1.69741e-10
      244.100   1.66564e-10
      244.200   1.63445e-10
      244.300   1.60383e-10
      244.400   1.57377e-10
      244.500   1.54426e-10
      244.600   1.51529e-10
      244.700   1.48687e-10
      244.800   1.45900e-10
      244.900   1.43164e-10
      245.000   1.40478e-10
      245.100   1.37841e-10
      245.200   1.35253e-10
      245.300   1.32713e-10
      245.400   1.30219e-10
      245.500   1.27772e-10
      245.600   1.25371e-10
      245.700   1.23012e-10
      245.800   1.20697e-10
      245.900   1.18428e-10
      246.000   1.16203e-10
      246.100   1.14018e-10
      246.200   1.11873e-10
      246.300   1.09769e-10
      246.400   1.07703e-10
      246.500   1.05676e-10
      246.600   1.03686e-10
      246.700   1.01733e-10
      246.800   9.98162e-11
      246.900   9.79347e-11
      247.000   9.60908e-11
      247.100   9.42815e-11
      247.200   9.25063e-11
      247.300   9.07640e-11
      247.400   8.90539e-11
      247.500   8.73755e-11
      247.600   8.57283e-11
      247.700   8.41117e-11
      247.800   8.25251e-11
      247.900   8.09678e-11
      248.000   7.94396e-11
      248.100   7.79435e-11
      248.200   7.64745e-11
      248.300   7.50327e-11
      248.400   7.36178e-11
      248.500   7.22288e-11
      248.600   7.08657e-11
      248.700   6.95282e-11
      248.800   6.82155e-11
      248.900   6.69274e-11
      249.000   6.56632e-11
      249.100   6.44242e-11
      249.200   6.32092e-11
      249.300   6.20162e-11
      249.400   6.08455e-11
      249.500   5.96967e-11
      249.600   5.85690e-11
      249.700   5.74623e-11
      249.800   5.63763e-11
      249.900   5.53103e-11
      250.000   5.42645e-11
      250.100   5.32395e-11
      250.200   5.22334e-11
      250.300   5.12470e-11
      250.400   5.02787e-11
      250.500   4.93287e-11
      250.600   4.83965e-11
      250.700   4.74815e-11
      250.800   4.65836e-11
      250.900   4.57025e-11
      251.000   4.48378e-11
      251.100   4.39893e-11
      251.200   4.31572e-11
      251.300   4.23413e-11
      251.400   4.15407e-11
      251.500   4.07547e-11
      251.600   3.99835e-11
      251.700   3.92271e-11
      251.800   3.84845e-11
      251.900   3.77558e-11
      252.000   3.70405e-11
      252.100   3.63390e-11
      252.200   3.56501e-11
      252.300   3.49749e-11
      252.400   3.43122e-11
      252.500   3.36623e-11
      252.600   3.30242e-11
      252.700   3.23981e-11
      252.800   3.17838e-11
      252.900   3.11808e-11
      253.000   3.05890e-11
      253.100   3.00084e-11
      253.200   2.94384e-11
      253.300   2.88900e-11
      253.400   2.83565e-11
      253.500   2.78331e-11
      253.600   2.73194e-11
      253.700   2.68148e-11
      253.800   2.63196e-11
      253.900   2.58333e-11
      254.000   2.53557e-11
      254.100   2.48866e-11
      254.200   2.44260e-11
      254.300   2.39737e-11
      254.400   2.35295e-11
      254.500   2.30933e-11
      254.600   2.26650e-11
      254.700   2.22445e-11
      254.800   2.18319e-11
      254.900   2.14267e-11
      255.000   2.10289e-11
      255.100   2.06379e-11
      255.200   2.02541e-11
      255.300   1.98773e-11
      255.400   1.95071e-11
      255.500   1.91437e-11
      255.600   1.87869e-11
      255.700   1.84364e-11
      255.800   1.80922e-11
      255.900   1.77541e-11
      256.000   1.74222e-11
      256.100   1.70964e-11
      256.200   1.67765e-11
      256.300   1.64624e-11
      256.400   1.61542e-11
      256.500   1.58512e-11
      256.600   1.55539e-11
      256.700   1.52619e-11
      256.800   1.49751e-11
      256.900   1.46935e-11
      257.000   1.44170e-11
      257.100   1.41454e-11
      257.200   1.38789e-11
      257.300   1.36171e-11
      257.400   1.33630e-11
      257.500   1.31145e-11
      257.600   1.28707e-11
      257.700   1.26312e-11
      257.800   1.23960e-11
      257.900   1.21651e-11
      258.000   1.19382e-11
      258.100   1.17154e-11
      258.200   1.14967e-11
      258.300   1.12819e-11
      258.400   1.10708e-11
      258.500   1.08636e-11
      258.600   1.06601e-11
      258.700   1.04603e-11
      258.800   1.02640e-11
      258.900   1.00714e-11
      259.000   9.88216e-12
      259.100   9.69642e-12
      259.200   9.51399e-12
      259.300   9.33506e-12
      259.400   9.15932e-12
      259.500   8.98673e-12
      259.600   8.81734e-12
      259.700   8.65105e-12
      259.800   8.48771e-12
      259.900   8.32730e-12
      260.000   8.16990e-12
      260.100   8.01537e-12
      260.200   7.86365e-12
      260.300   7.71471e-12
      260.400   7.56851e-12
      260.500   7.42503e-12
      260.600   7.28412e-12
      260.700   7.14579e-12
      260.800   7.01011e-12
      260.900   6.87683e-12
      261.000   6.74609e-12
      261.100   6.61781e-12
      261.200   6.49187e-12
      261.300   6.36826e-12
      261.400   6.24699e-12
      261.500   6.12812e-12
      261.600   6.01191e-12
      261.700   5.89794e-12
      261.800   5.78611e-12
      261.900   5.67628e-12
      262.000   5.56850e-12
      262.100   5.46271e-12
      262.200   5.35894e-12
      262.300   5.25705e-12
      262.400   5.15707e-12
      262.500   5.05893e-12
      262.600   4.96260e-12
      262.700   4.86808e-12
      262.800   4.77533e-12
      262.900   4.68427e-12
      263.000   4.59500e-12
      263.100   4.50734e-12
      263.200   4.42137e-12
      263.300   4.33700e-12
      263.400   4.25421e-12
      263.500   4.17299e-12
      263.600   4.09330e-12
      263.700   4.01509e-12
      263.800   3.93834e-12
      263.900   3.86308e-12
      264.000   3.78920e-12
      264.100   3.71670e-12
      264.200   3.64555e-12
      264.300   3.57580e-12
      264.400   3.50735e-12
      264.500   3.44017e-12
      264.600   3.37426e-12
      264.700   3.30961e-12
      264.800   3.24615e-12
      264.900   3.18393e-12
      265.000   3.12289e-12
      265.100   3.06298e-12
      265.200   3.00421e-12
      265.300   2.94655e-12
      265.400   2.89001e-12
      265.500   2.83452e-12
      265.600   2.78012e-12
      265.700   2.72671e-12
      265.800   2.67442e-12
      265.900   2.62311e-12
      266.000   2.57281e-12
      266.100   2.52346e-12
      266.200   2.47506e-12
      266.300   2.42755e-12
      266.400   2.38098e-12
      266.500   2.33527e-12
      266.600   2.29045e-12
      266.700   2.24648e-12
      266.800   2.20337e-12
      266.900   2.16107e-12
      267.000   2.11956e-12
      267.100   2.07885e-12
      267.200   2.03895e-12
      267.300   1.99980e-12
      267.400   1.96139e-12
      267.500   1.92372e-12
      267.600   1.88677e-12
      267.700   1.85053e-12
      267.800   1.81497e-12
      267.900   1.78011e-12
      268.000   1.74591e-12
      268.100   1.71237e-12
      268.200   1.67948e-12
      268.300   1.64723e-12
      268.400   1.61558e-12
      268.500   1.58454e-12
      268.600   1.55409e-12
      268.700   1.52424e-12
      268.800   1.49495e-12
      268.900   1.46624e-12
      269.000   1.43808e-12
      269.100   1.41045e-12
      269.200   1.38336e-12
      269.300   1.35679e-12
      269.400   1.33072e-12
      269.500   1.30515e-12
      269.600   1.28008e-12
      269.700   1.25550e-12
      269.800   1.23138e-12
      269.900   1.20773e-12
      270.000   1.18454e-12
      270.100   1.16182e-12
      270.200   1.13957e-12
      270.300   1.11774e-12
      270.400   1.09633e-12
      270.500   1.07532e-12
      270.600   1.05472e-12
      270.700   1.03451e-12
      270.800   1.01470e-12
      270.900   9.95251e-13
      271.000   9.76185e-13
      271.100   9.57481e-13
      271.200   9.39127e-13
      271.300   9.21133e-13
      271.400   9.03477e-13
      271.500   8.86163e-13
      271.600   8.69169e-13
      271.700   8.52505e-13
      271.800   8.36163e-13
      271.900   8.20129e-13
      272.000   8.04406e-13
      272.100   7.88974e-13
      272.200   7.73843e-13
      272.300   7.58993e-13
      272.400   7.44426e-13
      272.500   7.30141e-13
      272.600   7.16123e-13
      272.700   7.02373e-13
      272.800   6.88883e-13
      272.900   6.75651e-13
      273.000   6.62674e-13
      273.100   6.49938e-13
      273.200   6.37443e-13
      273.300   6.25192e-13
      273.400   6.13168e-13
      273.500   6.01372e-13
      273.600   5.89801e-13
      273.700   5.78447e-13
      273.800   5.67308e-13
      273.900   5.56386e-13
      274.000   5.45667e-13
      274.100   5.35150e-13
      274.200   5.24832e-13
      274.300   5.14711e-13
      274.400   5.04363e-13
      274.500   4.93292e-13
      274.600   4.82265e-13
      274.700   4.71484e-13
      274.800   4.60934e-13
      274.900   4.50613e-13
      275.000   4.40520e-13
      275.100   4.30648e-13
      275.200   4.20992e-13
      275.300   4.11546e-13
      275.400   4.02308e-13
      275.500   3.93275e-13
      275.600   3.84433e-13
      275.700   3.75790e-13
      275.800   3.67338e-13
      275.900   3.59068e-13
      276.000   3.50981e-13
      276.100   3.43070e-13
      276.200   3.35333e-13
      276.300   3.27764e-13
      276.400   3.20364e-13
      276.500   3.13122e-13
      276.600   3.06044e-13
      276.700   2.99119e-13
      276.800   2.92349e-13
      276.900   2.85726e-13
      277.000   2.79249e-13
      277.100   2.72914e-13
      277.200   2.66719e-13
      277.300   2.60662e-13
      277.400   2.54737e-13
      277.500   2.48942e-13
      277.600   2.43277e-13
      277.700   2.37736e-13
      277.800   2.32317e-13
      277.900   2.27018e-13
      278.000   2.21838e-13
      278.100   2.16773e-13
      278.200   2.11818e-13
      278.300   2.06975e-13
      278.400   2.02240e-13
      278.500   1.97607e-13
      278.600   1.93077e-13
      278.700   1.88651e-13
      278.800   1.84322e-13
      278.900   1.80047e-13
      279.000   1.75855e-13
      279.100   1.71759e-13
      279.200   1.67754e-13
      279.300   1.63841e-13
      279.400   1.60014e-13
      279.500   1.56276e-13
      279.600   1.52622e-13
      279.700   1.49052e-13
      279.800   1.45562e-13
      279.900   1.42151e-13
      280.000   1.38818e-13
      280.100   1.35559e-13
      280.200   1.32377e-13
      280.300   1.29266e-13
      280.400   1.26225e-13
      280.500   1.23256e-13
      280.600   1.20354e-13
      280.700   1.17518e-13
      280.800   1.14747e-13
      280.900   1.12039e-13
      281.000   1.09394e-13
      281.100   1.06809e-13
      281.200   1.04282e-13
      281.300   1.01814e-13
      281.400   9.94040e-14
      281.500   9.70480e-14
      281.600   9.47463e-14
      281.700   9.24975e-14
      281.800   9.03019e-14
      281.900   8.81557e-14
      282.000   8.60589e-14
      282.100   8.40106e-14
      282.200   8.20115e-14
      282.300   8.00573e-14
      282.400   7.81482e-14
      282.500   7.62832e-14
      282.600   7.44622e-14
      282.700   7.26830e-14
      282.800   7.09444e-14
      282.900   6.92482e-14
      283.000   6.75904e-14
      283.100   6.59725e-14
      283.200   6.43920e-14
      283.300   6.28489e-14
      283.400   6.13414e-14
      283.500   5.98695e-14
      283.600   5.84313e-14
      283.700   5.70265e-14
      283.800   5.56551e-14
      283.900   5.43165e-14
      284.000   5.30086e-14
      284.100   5.17315e-14
      284.200   5.04843e-14
      284.300   4.92668e-14
      284.400   4.80778e-14
      284.500   4.69168e-14
      284.600   4.57831e-14
      284.700   4.46767e-14
      284.800   4.35962e-14
      284.900   4.25411e-14
      285.000   4.15107e-14
      285.100   4.05049e-14
      285.200   3.95232e-14
      285.300   3.85645e-14
      285.400   3.76284e-14
      285.500   3.67147e-14
      285.600   3.58231e-14
      285.700   3.49523e-14
      285.800   3.41028e-14
      285.900   3.32735e-14
      286.000   3.24643e-14
      286.100   3.16747e-14
      286.200   3.09034e-14
      286.300   3.01509e-14
      286.400   2.94165e-14
      286.500   2.86994e-14
      286.600   2.79996e-14
      286.700   2.73163e-14
      286.800   2.66496e-14
      286.900   2.59988e-14
      287.000   2.53637e-14
      287.100   2.47438e-14
      287.200   2.41390e-14
      287.300   2.35485e-14
      287.400   2.29722e-14
      287.500   2.24098e-14
      287.600   2.18611e-14
      287.700   2.13254e-14
      287.800   2.08028e-14
      287.900   2.02928e-14
      288.000   1.97953e-14
      288.100   1.93097e-14
      288.200   1.88364e-14
      288.300   1.83746e-14
      288.400   1.79237e-14
      288.500   1.74840e-14
      288.600   1.70547e-14
      288.700   1.66359e-14
      288.800   1.62271e-14
      288.900   1.58285e-14
      289.000   1.54394e-14
      289.100   1.50597e-14
      289.200   1.46894e-14
      289.300   1.43280e-14
      289.400   1.39753e-14
      289.500   1.36312e-14
      289.600   1.32955e-14
      289.700   1.29681e-14
      289.800   1.26485e-14
      289.900   1.23367e-14
      290.000   1.20325e-14
      290.100   1.17359e-14
      290.200   1.14467e-14
      290.300   1.11646e-14
      290.400   1.08893e-14
      290.500   1.06209e-14
      290.600   1.03588e-14
      290.700   1.01032e-14
      290.800   9.85394e-15
      290.900   9.61065e-15
      291.000   9.37321e-15
      291.100   9.14158e-15
      291.200   8.91569e-15
      291.300   8.69527e-15
      291.400   8.48031e-15
      291.500   8.27056e-15
      291.600   8.06589e-15
      291.700   7.86637e-15
      291.800   7.67168e-15
      291.900   7.48201e-15
      292.000   7.29697e-15
      292.100   7.11641e-15
      292.200   6.94036e-15
      292.300   6.76852e-15
      292.400   6.60090e-15
      292.500   6.43733e-15
      292.600   6.27779e-15
      292.700   6.12221e-15
      292.800   5.97044e-15
      292.900   5.82241e-15
      293.000   5.67798e-15
      293.100   5.53704e-15
      293.200   5.39957e-15
      293.300   5.26550e-15
      293.400   5.13480e-15
      293.500   5.00738e-15
      293.600   4.88309e-15
      293.700   4.76184e-15
      293.800   4.64356e-15
      293.900   4.52822e-15
      294.000   4.41567e-15
      294.100   4.30588e-15
      294.200   4.19881e-15
      294.300   4.09437e-15
      294.400   3.99242e-15
      294.500   3.89302e-15
      294.600   3.79604e-15
      294.700   3.70144e-15
      294.800   3.60917e-15
      294.900   3.51923e-15
      295.000   3.43155e-15
      295.100   3.34607e-15
      295.200   3.26266e-15
      295.300   3.18128e-15
      295.400   3.10193e-15
      295.500   3.02454e-15
      295.600   2.94902e-15
      295.700   2.87535e-15
      295.800   2.80351e-15
      295.900   2.73339e-15
      296.000   2.66501e-15
      296.100   2.59829e-15
      296.200   2.53325e-15
      296.300   2.46984e-15
      296.400   2.40809e-15
      296.500   2.34780e-15
      296.600   2.28900e-15
      296.700   2.23166e-15
      296.800   2.17573e-15
      296.900   2.12115e-15
      297.000   2.06793e-15
      297.100   2.01601e-15
      297.200   1.96537e-15
      297.300   1.91597e-15
      297.400   1.86779e-15
      297.500   1.82079e-15
      297.600   1.77498e-15
      297.700   1.73033e-15
      297.800   1.68679e-15
      297.900   1.64433e-15
      298.000   1.60293e-15
      298.100   1.56253e-15
      298.200   1.52313e-15
      298.300   1.48471e-15
      298.400   1.44722e-15
      298.500   1.41065e-15
      298.600   1.37498e-15
      298.700   1.34020e-15
      298.800   1.30627e-15
      298.900   1.27325e-15
      299.000   1.24105e-15
      299.100   1.20965e-15
      299.200   1.17901e-15
      299.300   1.14913e-15
      299.400   1.11998e-15
      299.500   1.09156e-15
      299.600   1.06384e-15
      299.700   1.03681e-15
      299.800   1.01043e-15
      299.900   9.84727e-16
      300.000   9.59654e-16
      300.100   9.35216e-16
      300.192   9.13281e-16
      300.285   8.91612e-16
      300.377   8.70678e-16
      300.470   8.50013e-16
      300.562   8.30040e-16
      300.654   8.10521e-16
      300.747   7.91241e-16
      300.839   7.72623e-16
      300.932   7.54224e-16
      301.025   7.36258e-16
      301.117   7.18902e-16
      301.210   7.01757e-16
      301.303   6.85015e-16
      301.395   6.68853e-16
      301.488   6.52864e-16
      301.581   6.37275e-16
      301.674   6.22032e-16
      301.766   6.07312e-16
      301.859   5.92771e-16
      301.952   5.78579e-16
      302.045   5.64708e-16
      302.138   5.51178e-16
      302.231   5.37974e-16
      302.324   5.25082e-16
      302.417   5.12488e-16
      302.510   5.00184e-16
      302.603   4.88184e-16
      302.696   4.76455e-16
      302.789   4.64999e-16
      302.882   4.53811e-16
      302.976   4.42776e-16
      303.069   4.32114e-16
      303.162   4.21703e-16
      303.255   4.11533e-16
      303.349   4.01498e-16
      303.442   3.91800e-16
      303.535   3.82342e-16
      303.629   3.73004e-16
      303.722   3.63986e-16
      303.816   3.55084e-16
      303.909   3.46487e-16
      304.003   3.38004e-16
      304.096   3.29807e-16
      304.190   3.21720e-16
      304.283   3.13910e-16
      304.377   3.06209e-16
      304.471   2.98686e-16
      304.564   2.91423e-16
      304.658   2.84260e-16
      304.752   2.77259e-16
      304.846   2.70434e-16
      304.939   2.63842e-16
      305.033   2.57336e-16
      305.127   2.50989e-16
      305.221   2.44794e-16
      305.315   2.38748e-16
      305.409   2.32848e-16
      305.503   2.27090e-16
      305.597   2.21472e-16
      305.691   2.15988e-16
      305.785   2.10635e-16
      305.879   2.05413e-16
      305.973   2.00320e-16
      306.067   1.95345e-16
      306.161   1.90496e-16
      306.255   1.85761e-16
      306.350   1.81093e-16
      306.444   1.76587e-16
      306.538   1.72190e-16
      306.633   1.67856e-16
      306.727   1.63671e-16
      306.821   1.59589e-16
      306.916   1.55564e-16
      307.010   1.51680e-16
      307.105   1.47852e-16
      307.199   1.44157e-16
      307.294   1.40513e-16
      307.388   1.36997e-16
      307.483   1.33532e-16
      307.577   1.30187e-16
      307.672   1.26890e-16
      307.767   1.23674e-16
      307.861   1.20572e-16
      307.956   1.17511e-16
      308.051   1.14527e-16
      308.146   1.11619e-16
      308.240   1.08813e-16
      308.335   1.06046e-16
      308.430   1.03346e-16
      308.525   1.00715e-16
      308.620   9.81498e-17
      308.715   9.56482e-17
      308.810   9.32092e-17
      308.905   9.08309e-17
      309.000   8.85124e-17
      309.095   8.62518e-17
      309.190   8.40485e-17
      309.285   8.18993e-17
      309.380   7.98041e-17
      309.476   7.77411e-17
      309.571   7.57503e-17
      309.666   7.38088e-17
      309.761   7.19170e-17
      309.857   7.00537e-17
      309.952   6.82560e-17
      310.047   6.65044e-17
      310.143   6.47785e-17
      310.238   6.31141e-17
      310.334   6.14747e-17
      310.429   5.98930e-17
      310.525   5.83360e-17
      310.620   5.68343e-17
      310.716   5.53548e-17
      310.811   5.39286e-17
      310.907   5.25244e-17
      311.003   5.11559e-17
      311.098   4.98358e-17
      311.194   4.85357e-17
      311.290   4.72693e-17
      311.386   4.60356e-17
      311.481   4.48457e-17
      311.577   4.36745e-17
      311.673   4.25329e-17
      311.769   4.14205e-17
      311.865   4.03375e-17
      311.961   3.92895e-17
      312.057   3.82998e-17
      312.153   3.73453e-17
      312.249   3.64140e-17
      312.345   3.55057e-17
      312.441   3.46194e-17
      312.537   3.37552e-17
      312.633   3.29126e-17
      312.730   3.20815e-17
      312.826   3.12800e-17
      312.922   3.04983e-17
      313.018   2.97359e-17
      313.115   2.89845e-17
      313.211   2.82591e-17
      313.307   2.75519e-17
      313.404   2.68551e-17
      313.500   2.61824e-17
      313.597   2.55201e-17
      313.693   2.48810e-17
      313.790   2.42510e-17
      313.886   2.36431e-17
      313.983   2.30440e-17
      314.079   2.24659e-17
      314.176   2.18966e-17
      314.273   2.13413e-17
      314.369   2.08058e-17
      314.466   2.02781e-17
      314.563   1.97636e-17
      314.660   1.92622e-17
      314.756   1.87782e-17
      314.853   1.83014e-17
      314.950   1.78366e-17
      315.047   1.73836e-17
      315.144   1.69419e-17
      315.241   1.65114e-17
      315.338   1.60917e-17
      315.435   1.56826e-17
      315.532   1.52839e-17
      315.629   1.48952e-17
      315.726   1.45164e-17
      315.823   1.41468e-17
      315.921   1.37832e-17
      316.018   1.34324e-17
      316.115   1.30905e-17
      316.212   1.27571e-17
      316.310   1.24289e-17
      316.407   1.21123e-17
      316.504   1.18036e-17
      316.602   1.14998e-17
      316.699   1.12067e-17
      316.796   1.09211e-17
      316.894   1.06399e-17
      316.991   1.03701e-17
      317.089   1.01132e-17
      317.187   9.86722e-18
      317.284   9.62959e-18
      317.382   9.39527e-18
      317.479   9.16886e-18
      317.577   8.94572e-18
      317.675   8.72804e-18
      317.773   8.51556e-18
      317.870   8.31038e-18
      317.968   8.10795e-18
      318.066   7.91047e-18
      318.164   7.71779e-18
      318.262   7.52981e-18
      318.360   7.34632e-18
      318.458   7.16738e-18
      318.556   6.99283e-18
      318.654   6.82246e-18
      318.752   6.65620e-18
      318.850   6.49400e-18
      318.948   6.33571e-18
      319.046   6.18126e-18
      319.144   6.03052e-18
      319.242   5.88350e-18
      319.341   5.73859e-18
      319.439   5.59864e-18
      319.537   5.46212e-18
      319.635   5.32889e-18
      319.734   5.19760e-18
      319.832   5.07082e-18
      319.930   4.94707e-18
      320.029   4.82515e-18
      320.127   4.70742e-18
      320.226   4.59138e-18
      320.324   4.47927e-18
      320.423   4.36876e-18
      320.522   4.26107e-18
      320.620   4.15706e-18
      320.719   4.05451e-18
      320.818   3.95449e-18
      320.916   3.85791e-18
      321.015   3.76269e-18
      321.114   3.66982e-18
      321.213   3.57924e-18
      321.311   3.49178e-18
      321.410   3.40561e-18
      321.509   3.32150e-18
      321.608   3.23951e-18
      321.707   3.15950e-18
      321.806   3.08145e-18
      321.905   3.00535e-18
      322.004   2.93108e-18
      322.103   2.85867e-18
      322.202   2.78802e-18
      322.301   2.71912e-18
      322.401   2.65125e-18
      322.500   2.58571e-18
      322.599   2.52180e-18
      322.698   2.45945e-18
      322.798   2.39802e-18
      322.897   2.33869e-18
      322.996   2.28085e-18
      323.096   2.22382e-18
      323.195   2.16878e-18
      323.294   2.11510e-18
      323.394   2.06223e-18
      323.493   2.01116e-18
      323.593   1.96086e-18
      323.692   1.91228e-18
      323.792   1.86444e-18
      323.892   1.81778e-18
      323.991   1.77271e-18
      324.091   1.72834e-18
      324.191   1.68505e-18
      324.291   1.64284e-18
      324.390   1.60210e-18
      324.490   1.56194e-18
      324.590   1.52280e-18
      324.690   1.48464e-18
      324.790   1.44741e-18
      324.890   1.41111e-18
      324.990   1.37570e-18
      325.090   1.34117e-18
      325.190   1.30751e-18
      325.290   1.27470e-18
      325.390   1.24267e-18
      325.490   1.21147e-18
      325.590   1.18104e-18
      325.690   1.15134e-18
      325.790   1.12240e-18
      325.891   1.09390e-18
      325.991   1.06638e-18
      326.091   1.03954e-18
      326.192   1.01312e-18
      326.292   9.87611e-19
      326.392   9.62744e-19
      326.493   9.38249e-19
      326.593   9.14600e-19
      326.694   8.91331e-19
      326.794   8.68853e-19
      326.895   8.46720e-19
      326.995   8.25350e-19
      327.096   8.04316e-19
      327.197   7.83807e-19
      327.297   7.64005e-19
      327.398   7.44510e-19
      327.499   7.25506e-19
      327.599   7.07155e-19
      327.700   6.89084e-19
      327.801   6.71471e-19
      327.902   6.54312e-19
      328.003   6.37574e-19
      328.104   6.21259e-19
      328.205   6.05357e-19
      328.306   5.89856e-19
      328.407   5.74747e-19
      328.508   5.60013e-19
      328.609   5.45654e-19
      328.710   5.31660e-19
      328.811   5.18017e-19
      328.912   5.04721e-19
      329.013   4.91757e-19
      329.115   4.79002e-19
      329.216   4.66690e-19
      329.317   4.54687e-19
      329.419   4.42882e-19
      329.520   4.31481e-19
      329.621   4.20366e-19
      329.723   4.09428e-19
      329.824   3.98884e-19
      329.926   3.88500e-19
      330.027   3.78477e-19
      330.129   3.68612e-19
      330.230   3.59099e-19
      330.332   3.49731e-19
      330.434   3.40605e-19
      330.535   3.31797e-19
      330.637   3.23129e-19
      330.739   3.14687e-19
      330.840   3.06538e-19
      330.942   2.98518e-19
      331.044   2.90706e-19
      331.146   2.83094e-19
      331.248   2.75677e-19
      331.350   2.68453e-19
      331.452   2.61421e-19
      331.554   2.54732e-19
      331.656   2.48463e-19
      331.758   2.42348e-19
      331.860   2.36376e-19
      331.962   2.30550e-19
      332.064   2.24863e-19
      332.166   2.19317e-19
      332.268   2.13900e-19
      332.371   2.08568e-19
      332.473   2.03412e-19
      332.575   1.98378e-19
      332.677   1.93471e-19
      332.780   1.88636e-19
      332.882   1.83963e-19
      332.985   1.79360e-19
      333.087   1.74910e-19
      333.190   1.70528e-19
      333.292   1.66235e-19
      333.395   1.61853e-19
      333.497   1.57567e-19
      333.600   1.53352e-19
      333.702   1.49286e-19
      333.805   1.45290e-19
      333.908   1.41394e-19
      334.011   1.37604e-19
      334.113   1.33948e-19
      334.216   1.30352e-19
      334.319   1.26851e-19
      334.422   1.23442e-19
      334.525   1.20123e-19
      334.628   1.16891e-19
      334.731   1.13746e-19
      334.834   1.10684e-19
      334.937   1.07701e-19
      335.040   1.04796e-19
      335.143   1.01970e-19
      335.246   9.92177e-20
      335.349   9.65385e-20
      335.452   9.39303e-20
      335.555   9.13916e-20
      335.659   8.88956e-20
      335.762   8.64894e-20
      335.865   8.41483e-20
      335.969   8.18465e-20
      336.072   7.96268e-20
      336.175   7.74681e-20
      336.279   7.53465e-20
      336.382   7.33010e-20
      336.486   7.12903e-20
      336.589   6.93523e-20
      336.693   6.74493e-20
      336.796   6.56147e-20
      336.900   6.38115e-20
      337.004   6.20561e-20
      337.107   6.03661e-20
      337.211   5.87041e-20
      337.315   5.70887e-20
      337.419   5.55157e-20
      337.523   5.39850e-20
      337.626   5.25104e-20
      337.730   5.10619e-20
      337.834   4.96522e-20
      337.938   4.82814e-20
      338.042   4.69497e-20
      338.146   4.56639e-20
      338.250   4.44141e-20
      338.354   4.31976e-20
      338.458   4.20135e-20
      338.562   4.08614e-20
      338.667   3.97302e-20
      338.771   3.86396e-20
      338.875   3.75787e-20
      338.979   3.65460e-20
      339.084   3.55327e-20
      339.188   3.45558e-20
      339.292   3.36056e-20
      339.397   3.26719e-20
      339.501   3.17728e-20
      339.606   3.08889e-20
      339.710   3.00379e-20
      339.815   2.92020e-20
      339.919   2.83969e-20
      340.024   2.76057e-20
      340.128   2.68443e-20
      340.233   2.60957e-20
      340.338   2.53685e-20
      340.442   2.46672e-20
      340.547   2.39790e-20
      340.652   2.33094e-20
      340.757   2.26585e-20
      340.862   2.20253e-20
      340.966   2.14156e-20
      341.071   2.08168e-20
      341.176   2.02346e-20
      341.281   1.96683e-20
      341.386   1.91180e-20
      341.491   1.85825e-20
      341.596   1.80621e-20
      341.702   1.75513e-20
      341.807   1.70593e-20
      341.912   1.65810e-20
      342.017   1.61158e-20
      342.122   1.56634e-20
      342.228   1.52199e-20
      342.333   1.47925e-20
      342.438   1.43770e-20
      342.544   1.39695e-20
      342.649   1.35768e-20
      342.754   1.31953e-20
      342.860   1.28207e-20
      342.965   1.24598e-20
      343.071   1.21062e-20
      343.176   1.17655e-20
      343.282   1.14311e-20
      343.388   1.11062e-20
      343.493   1.07945e-20
      343.599   1.04983e-20
      343.705   1.02112e-20
      343.810   9.93426e-21
      343.916   9.66244e-21
      344.022   9.39796e-21
      344.128   9.14067e-21
      344.234   8.89021e-21
      344.340   8.64668e-21
      344.446   8.40965e-21
      344.552   8.17909e-21
      344.658   7.95488e-21
      344.764   7.73684e-21
      344.870   7.52455e-21
      344.976   7.31818e-21
      345.082   7.11732e-21
      345.188   6.92207e-21
      345.294   6.73195e-21
      345.401   6.54540e-21
      345.507   6.36564e-21
      345.613   6.19081e-21
      345.719   6.02071e-21
      345.826   5.85374e-21
      345.932   5.69283e-21
      346.039   5.53490e-21
      346.145   5.38270e-21
      346.252   5.23333e-21
      346.358   5.08937e-21
      346.465   4.94814e-21
      346.571   4.81200e-21
      346.678   4.67832e-21
      346.785   4.54834e-21
      346.891   4.42316e-21
      346.998   4.30032e-21
      347.105   4.18084e-21
      347.212   4.06463e-21
      347.319   3.95163e-21
      347.425   3.84272e-21
      347.532   3.73586e-21
      347.639   3.63199e-21
      347.746   3.53096e-21
      347.853   3.43268e-21
      347.960   3.33719e-21
      348.067   3.24435e-21
      348.174   3.15409e-21
      348.281   3.06629e-21
      348.389   2.98016e-21
      348.496   2.89715e-21
      348.603   2.81656e-21
      348.710   2.73812e-21
      348.818   2.66117e-21
      348.925   2.58702e-21
      349.032   2.51497e-21
      349.140   2.44390e-21
      349.247   2.37541e-21
      349.355   2.30827e-21
      349.462   2.24357e-21
      349.570   2.18006e-21
      349.677   2.11896e-21
      349.785   2.05897e-21
      349.892   2.00124e-21
      350.000   1.94461e-21
      350.100   1.89360e-21
      350.193   1.84735e-21
      350.287   1.80172e-21
      350.380   1.75773e-21
      350.473   1.71478e-21
      350.567   1.67241e-21
      350.660   1.63154e-21
      350.754   1.59124e-21
      350.847   1.55237e-21
      350.941   1.51402e-21
      351.034   1.47702e-21
      351.128   1.44052e-21
      351.221   1.40532e-21
      351.315   1.37058e-21
      351.409   1.33669e-21
      351.502   1.30401e-21
      351.596   1.27178e-21
      351.690   1.24032e-21
      351.783   1.21000e-21
      351.877   1.18009e-21
      351.971   1.15090e-21
      352.065   1.12244e-21
      352.159   1.09468e-21
      352.252   1.06788e-21
      352.346   1.04146e-21
      352.440   1.01570e-21
      352.534   9.90585e-22
      352.628   9.66062e-22
      352.722   9.42148e-22
      352.816   9.18834e-22
      352.910   8.96102e-22
      353.004   8.73929e-22
      353.098   8.52286e-22
      353.192   8.31181e-22
      353.287   8.10382e-22
      353.381   7.90304e-22
      353.475   7.70743e-22
      353.569   7.51641e-22
      353.663   7.33029e-22
      353.758   7.14683e-22
      353.852   6.96979e-22
      353.946   6.79706e-22
      354.041   6.62683e-22
      354.135   6.46260e-22
      354.229   6.30235e-22
      354.324   6.14447e-22
      354.418   5.99212e-22
      354.513   5.84193e-22
      354.607   5.69716e-22
      354.702   5.55346e-22
      354.796   5.41144e-22
      354.891   5.27123e-22
      354.985   5.13610e-22
      355.080   5.00304e-22
      355.175   4.87331e-22
      355.269   4.74831e-22
      355.364   4.62517e-22
      355.459   4.50527e-22
      355.553   4.38960e-22
      355.648   4.27576e-22
      355.743   4.16489e-22
      355.838   4.05671e-22
      355.933   3.95148e-22
      356.027   3.84998e-22
      356.122   3.74997e-22
      356.217   3.65259e-22
      356.312   3.55778e-22
      356.407   3.46534e-22
      356.502   3.37531e-22
      356.597   3.28757e-22
      356.692   3.20212e-22
      356.787   3.11888e-22
      356.882   3.03773e-22
      356.977   2.95877e-22
      357.073   2.88101e-22
      357.168   2.80600e-22
      357.263   2.73299e-22
      357.358   2.66184e-22
      357.453   2.59254e-22
      357.549   2.52433e-22
      357.644   2.45858e-22
      357.739   2.39457e-22
      357.835   2.33148e-22
      357.930   2.27071e-22
      358.025   2.21150e-22
      358.121   2.15324e-22
      358.216   2.09707e-22
      358.312   2.04178e-22
      358.407   1.98851e-22
      358.503   1.93606e-22
      358.598   1.88554e-22
      358.694   1.83578e-22
      358.790   1.78731e-22
      358.885   1.74060e-22
      358.981   1.69463e-22
      359.076   1.65035e-22
      359.172   1.60677e-22
      359.268   1.56427e-22
      359.364   1.52291e-22
      359.459   1.48308e-22
      359.555   1.44385e-22
      359.651   1.40564e-22
      359.747   1.36844e-22
      359.843   1.33221e-22
      359.939   1.29692e-22
      360.035   1.26258e-22
      360.131   1.22914e-22
      360.227   1.19654e-22
      360.323   1.16482e-22
      360.419   1.13394e-22
      360.515   1.10386e-22
      360.611   1.07456e-22
      360.707   1.04601e-22
      360.803   1.01826e-22
      360.899   9.91195e-23
      360.995   9.64870e-23
      361.092   9.38959e-23
      361.188   9.13984e-23
      361.284   8.89673e-23
      361.380   8.66005e-23
      361.477   8.42714e-23
      361.573   8.20269e-23
      361.669   7.98425e-23
      361.766   7.76923e-23
      361.862   7.56222e-23
      361.959   7.35856e-23
      362.055   7.16207e-23
      362.152   6.96910e-23
      362.248   6.78307e-23
      362.345   6.59995e-23
      362.441   6.42374e-23
      362.538   6.25035e-23
      362.635   6.08156e-23
      362.731   5.91886e-23
      362.828   5.75886e-23
      362.925   5.60315e-23
      363.021   5.45311e-23
      363.118   5.30561e-23
      363.215   5.16194e-23
      363.312   5.02210e-23
      363.409   4.88608e-23
      363.505   4.75500e-23
      363.602   4.62602e-23
      363.699   4.50056e-23
      363.796   4.37842e-23
      363.893   4.25955e-23
      363.990   4.14386e-23
      364.087   4.03128e-23
      364.184   3.92171e-23
      364.281   3.81502e-23
      364.378   3.71125e-23
      364.475   3.61024e-23
      364.573   3.51092e-23
      364.670   3.41528e-23
      364.767   3.32221e-23
      364.864   3.23161e-23
      364.961   3.14346e-23
      365.059   3.05681e-23
      365.156   2.97339e-23
      365.253   2.89216e-23
      365.351   2.81232e-23
      365.448   2.73543e-23
      365.545   2.66064e-23
      365.643   2.58708e-23
      365.740   2.51624e-23
      365.838   2.44662e-23
      365.935   2.37961e-23
      366.033   2.31372e-23
      366.130   2.25026e-23
      366.228   2.18790e-23
      366.326   2.12725e-23
      366.423   2.06885e-23
      366.521   2.01144e-23
      366.618   1.95613e-23
      366.716   1.90179e-23
      366.814   1.84896e-23
      366.912   1.79757e-23
      367.010   1.74755e-23
      367.107   1.69941e-23
      367.205   1.65208e-23
      367.303   1.60605e-23
      367.401   1.56130e-23
      367.499   1.51775e-23
      367.597   1.47541e-23
      367.695   1.43424e-23
      367.793   1.39421e-23
      367.891   1.35527e-23
      367.989   1.31737e-23
      368.087   1.28053e-23
      368.185   1.24471e-23
      368.283   1.20987e-23
      368.381   1.17597e-23
      368.480   1.14269e-23
      368.578   1.11065e-23
      368.676   1.07951e-23
      368.774   1.04923e-23
      368.873   1.01948e-23
      368.971   9.90845e-24
      369.069   9.62997e-24
      369.168   9.35635e-24
      369.266   9.09317e-24
      369.364   8.83724e-24
      369.463   8.58587e-24
      369.561   8.34403e-24
      369.660   8.10647e-24
      369.758   7.87787e-24
      369.857   7.65342e-24
      369.955   7.43742e-24
      370.054   7.22521e-24
      370.153   7.01898e-24
      370.251   6.82058e-24
      370.350   6.62576e-24
      370.449   6.43646e-24
      370.547   6.25425e-24
      370.646   6.07520e-24
      370.745   5.90138e-24
      370.844   5.73238e-24
      370.943   5.56814e-24
      371.041   5.41014e-24
      371.140   5.25494e-24
      371.239   5.10411e-24
      371.338   4.95761e-24
      371.437   4.81524e-24
      371.536   4.67691e-24
      371.635   4.54240e-24
      371.734   4.41176e-24
      371.833   4.28482e-24
      371.932   4.16147e-24
      372.032   4.04040e-24
      372.131   3.92392e-24
      372.230   3.81082e-24
      372.329   3.70091e-24
      372.428   3.59408e-24
      372.528   3.48929e-24
      372.627   3.38855e-24
      372.726   3.29064e-24
      372.826   3.19456e-24
      372.925   3.10215e-24
      373.024   3.01235e-24
      373.124   2.92424e-24
      373.223   2.83957e-24
      373.323   2.75649e-24
      373.422   2.67656e-24
      373.522   2.59813e-24
      373.621   2.52278e-24
      373.721   2.44880e-24
      373.820   2.37770e-24
      373.920   2.30793e-24
      374.020   2.24012e-24
      374.119   2.17500e-24
      374.219   2.11105e-24
      374.319   2.04902e-24
      374.419   1.98879e-24
      374.518   1.93083e-24
      374.618   1.87400e-24
      374.718   1.81876e-24
      374.818   1.76520e-24
      374.918   1.71320e-24
      375.018   1.66267e-24
      375.118   1.61364e-24
      375.218   1.56600e-24
      375.318   1.51977e-24
      375.418   1.47486e-24
      375.518   1.43129e-24
      375.618   1.38900e-24
      375.718   1.34791e-24
      375.818   1.30803e-24
      375.918   1.26931e-24
      376.019   1.23137e-24
      376.119   1.19489e-24
      376.219   1.15949e-24
      376.319   1.12510e-24
      376.420   1.09142e-24
      376.520   1.05904e-24
      376.620   1.02762e-24
      376.721   9.96799e-25
      376.821   9.67197e-25
      376.922   9.38175e-25
      377.022   9.10282e-25
      377.122   8.83222e-25
      377.223   8.56692e-25
      377.323   8.31209e-25
      377.424   8.06215e-25
      377.525   7.81975e-25
      377.625   7.58682e-25
      377.726   7.35855e-25
      377.827   7.13705e-25
      377.927   6.92418e-25
      378.028   6.71569e-25
      378.129   6.51328e-25
      378.230   6.31688e-25
      378.330   6.12821e-25
      378.431   5.94334e-25
      378.532   5.76411e-25
      378.633   5.59005e-25
      378.734   5.42121e-25
      378.835   5.25747e-25
      378.936   5.09863e-25
      379.037   4.94454e-25
      379.138   4.79501e-25
      379.239   4.64994e-25
      379.340   4.50934e-25
      379.441   4.37287e-25
      379.542   4.24046e-25
      379.643   4.11208e-25
      379.745   3.98631e-25
      379.846   3.86549e-25
      379.947   3.74829e-25
      380.048   3.63469e-25
      380.150   3.52336e-25
      380.251   3.41645e-25
      380.352   3.31280e-25
      380.454   3.21129e-25
      380.555   3.11377e-25
      380.656   3.01917e-25
      380.758   2.92654e-25
      380.859   2.83761e-25
      380.961   2.75055e-25
      381.062   2.66693e-25
      381.164   2.58501e-25
      381.266   2.50560e-25
      381.367   2.42935e-25
      381.469   2.35470e-25
      381.570   2.28303e-25
      381.672   2.21284e-25
      381.774   2.14476e-25
      381.876   2.07878e-25
      381.977   2.01543e-25
      382.079   1.95340e-25
      382.181   1.89326e-25
      382.283   1.83499e-25
      382.385   1.77847e-25
      382.487   1.72364e-25
      382.589   1.67054e-25
      382.691   1.61906e-25
      382.793   1.56915e-25
      382.895   1.52077e-25
      382.997   1.47385e-25
      383.099   1.42838e-25
      383.201   1.38432e-25
      383.303   1.34158e-25
      383.405   1.30016e-25
      383.507   1.26001e-25
      383.610   1.22073e-25
      383.712   1.18301e-25
      383.814   1.14648e-25
      383.916   1.11106e-25
      384.019   1.07639e-25
      384.121   1.04310e-25
      384.223   1.01085e-25
      384.326   9.79296e-26
      384.428   9.48982e-26
      384.531   9.19312e-26
      384.633   8.90842e-26
      384.736   8.62976e-26
      384.838   8.36230e-26
      384.941   8.10066e-26
      385.043   7.84949e-26
      385.146   7.60385e-26
      385.249   7.36584e-26
      385.351   7.13739e-26
      385.454   6.91382e-26
      385.557   6.69734e-26
      385.660   6.48749e-26
      385.762   6.28621e-26
      385.865   6.08923e-26
      385.968   5.89832e-26
      386.071   5.71335e-26
      386.174   5.53420e-26
      386.277   5.36070e-26
      386.380   5.19257e-26
      386.483   5.02966e-26
      386.586   4.87193e-26
      386.689   4.71905e-26
      386.792   4.57093e-26
      386.895   4.42746e-26
      386.998   4.28846e-26
      387.101   4.15385e-26
      387.204   4.02332e-26
      387.308   3.89575e-26
      387.411   3.77336e-26
      387.514   3.65480e-26
      387.617   3.53997e-26
      387.721   3.42769e-26
      387.824   3.31995e-26
      387.927   3.21551e-26
      388.031   3.11344e-26
      388.134   3.01554e-26
      388.238   2.91984e-26
      388.341   2.82797e-26
      388.445   2.73815e-26
      388.548   2.65196e-26
      388.652   2.56772e-26
      388.755   2.48692e-26
      388.859   2.40789e-26
      388.962   2.33209e-26
      389.066   2.25793e-26
      389.170   2.18619e-26
      389.274   2.11667e-26
      389.377   2.04998e-26
      389.481   1.98475e-26
      389.585   1.92164e-26
      389.689   1.86050e-26
      389.793   1.80127e-26
      389.897   1.74397e-26
      390.000   1.68897e-26
      390.104   1.63522e-26
      390.208   1.58314e-26
      390.312   1.53274e-26
      390.416   1.48392e-26
      390.520   1.43663e-26
      390.625   1.39039e-26
      390.729   1.34609e-26
      390.833   1.30317e-26
      390.937   1.26161e-26
      391.041   1.22140e-26
      391.145   1.18245e-26
      391.250   1.14437e-26
      391.354   1.10787e-26
      391.458   1.07253e-26
      391.563   1.03798e-26
      391.667   1.00485e-26
      391.771   9.72786e-27
      391.876   9.41432e-27
      391.980   9.11365e-27
      392.085   8.81988e-27
      392.189   8.53820e-27
      392.294   8.26283e-27
      392.398   7.99887e-27
      392.503   7.74087e-27
      392.607   7.49348e-27
      392.712   7.25177e-27
      392.817   7.01762e-27
      392.921   6.79334e-27
      393.026   6.57400e-27
      393.131   6.36182e-27
      393.236   6.15626e-27
      393.340   5.95932e-27
      393.445   5.76687e-27
      393.550   5.58057e-27
      393.655   5.40021e-27
      393.760   5.22572e-27
      393.865   5.05677e-27
      393.970   4.89339e-27
      394.075   4.73509e-27
      394.180   4.58201e-27
      394.285   4.43380e-27
      394.390   4.29040e-27
      394.495   4.15152e-27
      394.600   4.01719e-27
      394.706   3.88596e-27
      394.811   3.76020e-27
      394.916   3.63837e-27
      395.021   3.52052e-27
      395.126   3.40655e-27
      395.232   3.29511e-27
      395.337   3.18832e-27
      395.443   3.08403e-27
      395.548   2.98406e-27
      395.653   2.88734e-27
      395.759   2.79280e-27
      395.864   2.70223e-27
      395.970   2.61375e-27
      396.075   2.52894e-27
      396.181   2.44609e-27
      396.286   2.36665e-27
      396.392   2.28914e-27
      396.498   2.21412e-27
      396.603   2.14215e-27
      396.709   2.07193e-27
      396.815   2.00396e-27
      396.921   1.93819e-27
      397.026   1.87518e-27
      397.132   1.81360e-27
      397.238   1.75408e-27
      397.344   1.69643e-27
      397.450   1.64076e-27
      397.556   1.58682e-27
      397.662   1.53466e-27
      397.768   1.48423e-27
      397.874   1.43542e-27
      397.980   1.38822e-27
      398.086   1.34253e-27
      398.192   1.29837e-27
      398.298   1.25563e-27
      398.404   1.21429e-27
      398.510   1.17430e-27
      398.617   1.13529e-27
      398.723   1.09789e-27
      398.829   1.06169e-27
      398.935   1.02668e-27
      399.042   9.92531e-28
      399.148   9.59779e-28
      399.255   9.27841e-28
      399.361   8.97227e-28
      399.467   8.67587e-28
      399.574   8.38691e-28
      399.680   8.10984e-28
      399.787   7.83940e-28
      399.893       0.00000
      400.000       0.00000
