Filter C-poly
observation_date 22-Sept-2013 22:40:45
wavelength effective area
      1.00000   2.78570e-10
      1.10000   7.95343e-10
      1.20000   2.06792e-09
      1.30000   4.94568e-09
      1.40000   1.12244e-08
      1.50000   2.39517e-08
      1.60000   4.85005e-08
      1.70000   9.41854e-08
      1.80000   1.75407e-07
      1.90000   3.15377e-07
      2.00000   5.48505e-07
      2.10000   9.26869e-07
      2.20000   1.52906e-06
      2.30000   2.45929e-06
      2.40000   3.86319e-06
      2.50000   5.90764e-06
      2.60000   9.02162e-06
      2.70000   1.34600e-05
      2.80000   1.96988e-05
      2.90000   2.85347e-05
      3.00000   4.06911e-05
      3.10000   5.72836e-05
      3.20000   7.97662e-05
      3.30000   0.000109950
      3.40000   0.000149984
      3.50000   0.000202626
      3.60000   0.000272505
      3.70000   0.000362610
      3.80000   0.000480544
      3.90000   0.000633342
      4.00000   0.000829583
      4.10000    0.00108167
      4.20000    0.00140540
      4.30000    0.00182097
      4.40000    0.00235329
      4.50000    0.00303306
      4.60000    0.00389633
      4.70000    0.00500550
      4.80000    0.00642436
      4.90000    0.00813978
      5.00000     0.0105859
      5.10000     0.0135735
      5.20000     0.0174577
      5.30000     0.0222643
      5.40000     0.0283515
      5.50000     0.0361686
      5.60000     0.0447282
      5.70000     0.0582775
      5.80000     0.0684897
      5.90000      0.104834
      6.00000      0.141280
      6.10000      0.181038
      6.20000      0.222899
      6.30000      0.263080
      6.40000      0.297864
      6.50000      0.323851
      6.60000      0.336196
      6.70000      0.347731
      6.80000      0.349245
      6.90000      0.459605
      7.00000      0.501400
      7.10000      0.531986
      7.20000      0.556815
      7.30000      0.577550
      7.40000      0.593968
      7.50000      0.607560
      7.60000      0.618425
      7.70000      0.624895
      7.80000      0.625702
      7.90000      0.627303
      8.00000      0.910422
      8.10000       1.00009
      8.20000       1.01996
      8.30000       1.03533
      8.40000       1.04676
      8.50000       1.05662
      8.60000       1.06459
      8.70000       1.07134
      8.80000       1.07653
      8.90000       1.08067
      9.00000       1.08369
      9.10000       1.08561
      9.20000       1.08666
      9.30000       1.08672
      9.40000       1.08594
      9.50000       1.08439
      9.60000       1.08200
      9.70000       1.07889
      9.80000       1.07520
      9.90000       1.07096
      10.0000       1.06622
      10.1000       1.06102
      10.2000       1.05536
      10.3000       1.04918
      10.4000       1.04252
      10.5000       1.03540
      10.6000       1.02786
      10.7000       1.01992
      10.8000       1.01159
      10.9000       1.00289
      11.0000      0.993851
      11.1000      0.984496
      11.2000      0.974828
      11.3000      0.964889
      11.4000      0.954666
      11.5000      0.944155
      11.6000      0.933373
      11.7000      0.922240
      11.8000      0.910859
      11.9000      0.899086
      12.0000      0.885988
      12.1000      0.876007
      12.2000      0.881317
      12.3000      0.877354
      12.4000      0.866860
      12.5000      0.855715
      12.6000      0.844258
      12.7000      0.832623
      12.8000      0.820858
      12.9000      0.808977
      13.0000      0.797031
      13.1000      0.785049
      13.2000      0.773056
      13.3000      0.761068
      13.4000      0.749109
      13.5000      0.737311
      13.6000      0.725654
      13.7000      0.714043
      13.8000      0.702473
      13.9000      0.690974
      14.0000      0.679543
      14.1000      0.668159
      14.2000      0.656822
      14.3000      0.645531
      14.4000      0.634268
      14.5000      0.623047
      14.6000      0.611862
      14.7000      0.600717
      14.8000      0.589620
      14.9000      0.578575
      15.0000      0.567592
      15.1000      0.556684
      15.2000      0.545865
      15.3000      0.535132
      15.4000      0.524484
      15.5000      0.513928
      15.6000      0.503497
      15.7000      0.493170
      15.8000      0.482990
      15.9000      0.472936
      16.0000      0.463008
      16.1000      0.453211
      16.2000      0.443577
      16.3000      0.434063
      16.4000      0.424662
      16.5000      0.415370
      16.6000      0.406196
      16.7000      0.397142
      16.8000      0.388192
      16.9000      0.379344
      17.0000      0.370619
      17.1000      0.362013
      17.2000      0.353506
      17.3000      0.345110
      17.4000      0.336994
      17.5000      0.329137
      17.6000      0.321504
      17.7000      0.314131
      17.8000      0.307164
      17.9000      0.300305
      18.0000      0.293501
      18.1000      0.286799
      18.2000      0.280131
      18.3000      0.273486
      18.4000      0.266845
      18.5000      0.260229
      18.6000      0.253621
      18.7000      0.246998
      18.8000      0.240483
      18.9000      0.234054
      19.0000      0.227738
      19.1000      0.221547
      19.2000      0.215451
      19.3000      0.209498
      19.4000      0.203671
      19.5000      0.197943
      19.6000      0.192390
      19.7000      0.186939
      19.8000      0.181583
      19.9000      0.176388
      20.0000      0.171272
      20.1000      0.166259
      20.2000      0.161353
      20.3000      0.156515
      20.4000      0.151804
      20.5000      0.147166
      20.6000      0.142597
      20.7000      0.138151
      20.8000      0.133761
      20.9000      0.129462
      21.0000      0.125247
      21.1000      0.121104
      21.2000      0.117043
      21.3000      0.113032
      21.4000      0.109127
      21.5000      0.105266
      21.6000      0.101446
      21.7000     0.0977005
      21.8000     0.0939889
      21.9000     0.0902639
      22.0000     0.0865554
      22.1000     0.0828591
      22.2000     0.0790391
      22.3000     0.0751151
      22.4000     0.0700927
      22.5000     0.0647444
      22.6000     0.0547503
      22.7000     0.0489354
      22.8000     0.0642711
      22.9000     0.0831527
      23.0000      0.104838
      23.1000      0.118308
      23.2000      0.123979
      23.3000      0.124240
      23.4000      0.121782
      23.5000      0.119205
      23.6000      0.116608
      23.7000      0.113754
      23.8000      0.110893
      23.9000      0.108062
      24.0000      0.105242
      24.1000      0.102416
      24.2000     0.0996152
      24.3000     0.0968763
      24.4000     0.0941630
      24.5000     0.0914971
      24.6000     0.0888690
      24.7000     0.0863078
      24.8000     0.0837841
      24.9000     0.0813200
      25.0000     0.0788986
      25.1000     0.0765434
      25.2000     0.0742284
      25.3000     0.0719758
      25.4000     0.0697657
      25.5000     0.0676269
      25.6000     0.0655314
      25.7000     0.0635182
      25.8000     0.0615364
      25.9000     0.0596251
      26.0000     0.0577386
      26.1000     0.0559241
      26.2000     0.0541276
      26.3000     0.0524098
      26.4000     0.0507018
      26.5000     0.0490738
      26.6000     0.0474545
      26.7000     0.0459097
      26.8000     0.0443831
      26.9000     0.0429142
      27.0000     0.0414685
      27.1000     0.0400633
      27.2000     0.0386865
      27.3000     0.0374275
      27.4000     0.0363127
      27.5000     0.0351868
      27.6000     0.0340181
      27.7000     0.0328578
      27.8000     0.0317381
      27.9000     0.0306244
      28.0000     0.0295663
      28.1000     0.0285236
      28.2000     0.0275211
      28.3000     0.0265470
      28.4000     0.0255973
      28.5000     0.0246891
      28.6000     0.0237897
      28.7000     0.0229476
      28.8000     0.0221100
      28.9000     0.0213153
      29.0000     0.0205358
      29.1000     0.0197824
      29.2000     0.0190579
      29.3000     0.0183435
      29.4000     0.0176714
      29.5000     0.0170031
      29.6000     0.0163717
      29.7000     0.0157527
      29.8000     0.0151541
      29.9000     0.0145818
      30.0000     0.0140142
      30.1000     0.0134857
      30.2000     0.0129602
      30.3000     0.0130401
      30.4000     0.0134640
      30.5000     0.0136872
      30.6000     0.0131737
      30.7000     0.0126631
      30.8000     0.0121820
      30.9000     0.0117117
      31.0000     0.0112540
      31.1000     0.0108215
      31.2000     0.0103914
      31.3000    0.00998899
      31.4000    0.00959427
      31.5000    0.00921101
      31.6000    0.00884932
      31.7000    0.00848974
      31.8000    0.00815358
      31.9000    0.00782475
      32.0000    0.00750423
      32.1000    0.00720407
      32.2000    0.00690568
      32.3000    0.00662536
      32.4000    0.00635387
      32.5000    0.00608720
      32.6000    0.00584796
      32.7000    0.00561024
      32.8000    0.00538351
      32.9000    0.00516740
      33.0000    0.00495257
      33.1000    0.00476309
      33.2000    0.00457807
      33.3000    0.00439754
      33.4000    0.00422886
      33.5000    0.00406121
      33.6000    0.00390212
      33.7000    0.00374964
      33.8000    0.00359802
      33.9000    0.00345802
      34.0000    0.00332030
      34.1000    0.00318574
      34.2000    0.00306107
      34.3000    0.00293707
      34.4000    0.00281829
      34.5000    0.00270601
      34.6000    0.00259434
      34.7000    0.00248916
      34.8000    0.00238729
      34.9000    0.00228598
      35.0000    0.00219333
      35.1000    0.00210203
      35.2000    0.00201211
      35.3000    0.00192999
      35.4000    0.00184831
      35.5000    0.00176923
      35.6000    0.00169591
      35.7000    0.00162300
      35.8000    0.00155351
      35.9000    0.00148819
      36.0000    0.00142323
      36.1000    0.00136222
      36.2000    0.00130415
      36.3000    0.00124640
      36.4000    0.00119284
      36.5000    0.00114131
      36.6000    0.00109006
      36.7000    0.00104306
      36.8000   0.000997441
      36.9000   0.000952084
      37.0000   0.000910836
      37.1000   0.000870548
      37.2000   0.000830485
      37.3000   0.000794293
      37.4000   0.000758789
      37.5000   0.000723488
      37.6000   0.000691721
      37.7000   0.000660504
      37.8000   0.000629467
      37.9000   0.000601572
      38.0000   0.000574193
      38.1000   0.000546970
      38.2000   0.000522456
      38.3000   0.000498492
      38.4000   0.000474664
      38.5000   0.000453108
      38.6000   0.000432186
      38.7000   0.000411385
      38.8000   0.000392414
      38.9000   0.000374193
      39.0000   0.000356077
      39.1000   0.000339367
      39.2000   0.000323540
      39.3000   0.000307803
      39.4000   0.000293070
      39.5000   0.000279356
      39.6000   0.000265721
      39.7000   0.000252719
      39.8000   0.000240869
      39.9000   0.000229087
      40.0000   0.000217604
      40.1000   0.000207391
      40.2000   0.000197237
      40.3000   0.000187143
      40.4000   0.000178306
      40.5000   0.000169578
      40.6000   0.000160900
      40.7000   0.000153068
      40.8000   0.000145582
      40.9000   0.000138140
      41.0000   0.000131190
      41.1000   0.000124789
      41.2000   0.000118427
      41.3000   0.000112258
      41.4000   0.000106806
      41.5000   0.000101385
      41.6000   9.59965e-05
      41.7000   9.12713e-05
      41.8000   8.66630e-05
      41.9000   8.20820e-05
      42.0000   7.78676e-05
      42.1000   7.39633e-05
      42.2000   7.00818e-05
      42.3000   6.63189e-05
      42.4000   6.30193e-05
      42.5000   5.97389e-05
      42.6000   5.64778e-05
      42.7000   5.35993e-05
      42.8000   5.08346e-05
      42.9000   4.80859e-05
      43.0000   4.55011e-05
      43.1000   4.31788e-05
      43.2000   4.08702e-05
      43.3000   3.85753e-05
      43.4000     0.0388002
      43.5000     0.0849563
      43.6000      0.141688
      43.7000      0.188356
      43.8000      0.205985
      43.9000      0.208294
      44.0000      0.204907
      44.1000      0.196107
      44.2000      0.193287
      44.3000      0.190993
      44.4000      0.188725
      44.5000      0.186490
      44.6000      0.184261
      44.7000      0.182038
      44.8000      0.179864
      44.9000      0.177702
      45.0000      0.175546
      45.1000      0.173409
      45.2000      0.171311
      45.3000      0.169219
      45.4000      0.167131
      45.5000      0.165083
      45.6000      0.163055
      45.7000      0.161033
      45.8000      0.159018
      45.9000      0.157054
      46.0000      0.155094
      46.1000      0.153140
      46.2000      0.151277
      46.3000      0.149566
      46.4000      0.147860
      46.5000      0.146158
      46.6000      0.144511
      46.7000      0.142894
      46.8000      0.141281
      46.9000      0.139673
      47.0000      0.138141
      47.1000      0.136618
      47.2000      0.135099
      47.3000      0.133591
      47.4000      0.132123
      47.5000      0.130658
      47.6000      0.129198
      47.7000      0.127754
      47.8000      0.126334
      47.9000      0.124919
      48.0000      0.123507
      48.1000      0.122118
      48.2000      0.120748
      48.3000      0.119381
      48.4000      0.118017
      48.5000      0.116680
      48.6000      0.115356
      48.7000      0.114035
      48.8000      0.112717
      48.9000      0.111431
      49.0000      0.110154
      49.1000      0.108880
      49.2000      0.107609
      49.3000      0.106373
      49.4000      0.105142
      49.5000      0.103914
      49.6000      0.102689
      49.7000      0.101499
      49.8000      0.100312
      49.9000     0.0991286
      50.0000     0.0979494
      50.1000     0.0968077
      50.2000     0.0957270
      50.3000     0.0946551
      50.4000     0.0935938
      50.5000     0.0925420
      50.6000     0.0915005
      50.7000     0.0904703
      50.8000     0.0894484
      50.9000     0.0884380
      51.0000     0.0874460
      51.1000     0.0864669
      51.2000     0.0854966
      51.3000     0.0845358
      51.4000     0.0835858
      51.5000     0.0826430
      51.6000     0.0817083
      51.7000     0.0807823
      51.8000     0.0798576
      51.9000     0.0789409
      52.0000     0.0780327
      52.1000     0.0771333
      52.2000     0.0762427
      52.3000     0.0753596
      52.4000     0.0744854
      52.5000     0.0736198
      52.6000     0.0727614
      52.7000     0.0719099
      52.8000     0.0710658
      52.9000     0.0702299
      53.0000     0.0694026
      53.1000     0.0685830
      53.2000     0.0677727
      53.3000     0.0669708
      53.4000     0.0661761
      53.5000     0.0653884
      53.6000     0.0646077
      53.7000     0.0638344
      53.8000     0.0630703
      53.9000     0.0623136
      54.0000     0.0615651
      54.1000     0.0608253
      54.2000     0.0600913
      54.3000     0.0593645
      54.4000     0.0586449
      54.5000     0.0579324
      54.6000     0.0572282
      54.7000     0.0565311
      54.8000     0.0558416
      54.9000     0.0551593
      55.0000     0.0544837
      55.1000     0.0538141
      55.2000     0.0531267
      55.3000     0.0524246
      55.4000     0.0517297
      55.5000     0.0510426
      55.6000     0.0503630
      55.7000     0.0496915
      55.8000     0.0490270
      55.9000     0.0483691
      56.0000     0.0477260
      56.1000     0.0470788
      56.2000     0.0464289
      56.3000     0.0457862
      56.4000     0.0451510
      56.5000     0.0445225
      56.6000     0.0439009
      56.7000     0.0432874
      56.8000     0.0426806
      56.9000     0.0420829
      57.0000     0.0414915
      57.1000     0.0409062
      57.2000     0.0403267
      57.3000     0.0397540
      57.4000     0.0391877
      57.5000     0.0386287
      57.6000     0.0380760
      57.7000     0.0375299
      57.8000     0.0369914
      57.9000     0.0364601
      58.0000     0.0359349
      58.1000     0.0354149
      58.2000     0.0349018
      58.3000     0.0343949
      58.4000     0.0338942
      58.5000     0.0333995
      58.6000     0.0329116
      58.7000     0.0324294
      58.8000     0.0319534
      58.9000     0.0314830
      59.0000     0.0310184
      59.1000     0.0305593
      59.2000     0.0301064
      59.3000     0.0296591
      59.4000     0.0292179
      59.5000     0.0287823
      59.6000     0.0283523
      59.7000     0.0279273
      59.8000     0.0275078
      59.9000     0.0270933
      60.0000     0.0266847
      60.1000     0.0262810
      60.2000     0.0258830
      60.3000     0.0254902
      60.4000     0.0251027
      60.5000     0.0247205
      60.6000     0.0243427
      60.7000     0.0239691
      60.8000     0.0236000
      60.9000     0.0232360
      61.0000     0.0228768
      61.1000     0.0225227
      61.2000     0.0221732
      61.3000     0.0218289
      61.4000     0.0214888
      61.5000     0.0211534
      61.6000     0.0208219
      61.7000     0.0204947
      61.8000     0.0201729
      61.9000     0.0198563
      62.0000     0.0195440
      62.1000     0.0192360
      62.2000     0.0189326
      62.3000     0.0186330
      62.4000     0.0183379
      62.5000     0.0180465
      62.6000     0.0177590
      62.7000     0.0174750
      62.8000     0.0171965
      62.9000     0.0169219
      63.0000     0.0166512
      63.1000     0.0163845
      63.2000     0.0161213
      63.3000     0.0158617
      63.4000     0.0156053
      63.5000     0.0153532
      63.6000     0.0151043
      63.7000     0.0148589
      63.8000     0.0146173
      63.9000     0.0143793
      64.0000     0.0141449
      64.1000     0.0139136
      64.2000     0.0136863
      64.3000     0.0134619
      64.4000     0.0132406
      64.5000     0.0130223
      64.6000     0.0128070
      64.7000     0.0125950
      64.8000     0.0123859
      64.9000     0.0121800
      65.0000     0.0119771
      65.1000     0.0117774
      65.2000     0.0115809
      65.3000     0.0113869
      65.4000     0.0111960
      65.5000     0.0110076
      65.6000     0.0108219
      65.7000     0.0106390
      65.8000     0.0104589
      65.9000     0.0102820
      66.0000     0.0101076
      66.1000    0.00993608
      66.2000    0.00976717
      66.3000    0.00960069
      66.4000    0.00943680
      66.5000    0.00927515
      66.6000    0.00911596
      66.7000    0.00895926
      66.8000    0.00880494
      66.9000    0.00865623
      67.0000    0.00851261
      67.1000    0.00837177
      67.2000    0.00823322
      67.3000    0.00809659
      67.4000    0.00796208
      67.5000    0.00782945
      67.6000    0.00769871
      67.7000    0.00756995
      67.8000    0.00744272
      67.9000    0.00731713
      68.0000    0.00719421
      68.1000    0.00707384
      68.2000    0.00695531
      68.3000    0.00683849
      68.4000    0.00672357
      68.5000    0.00661052
      68.6000    0.00649897
      68.7000    0.00638914
      68.8000    0.00628093
      68.9000    0.00617591
      69.0000    0.00608134
      69.1000    0.00599619
      69.2000    0.00591366
      69.3000    0.00583346
      69.4000    0.00575635
      69.5000    0.00567757
      69.6000    0.00559621
      69.7000    0.00551805
      69.8000    0.00544385
      69.9000    0.00537070
      70.0000    0.00529824
      70.1000    0.00522524
      70.2000    0.00515585
      70.3000    0.00509009
      70.4000    0.00502454
      70.5000    0.00496053
      70.6000    0.00489804
      70.7000    0.00483642
      70.8000    0.00477537
      70.9000    0.00471285
      71.0000    0.00464903
      71.1000    0.00458813
      71.2000    0.00453029
      71.3000    0.00446888
      71.4000    0.00440294
      71.5000    0.00434225
      71.6000    0.00428914
      71.7000    0.00423555
      71.8000    0.00418022
      71.9000    0.00412680
      72.0000    0.00407742
      72.1000    0.00402705
      72.2000    0.00396906
      72.3000    0.00391201
      72.4000    0.00386210
      72.5000    0.00381281
      72.6000    0.00376407
      72.7000    0.00371605
      72.8000    0.00366857
      72.9000    0.00362167
      73.0000    0.00357655
      73.1000    0.00353251
      73.2000    0.00348899
      73.3000    0.00344606
      73.4000    0.00340403
      73.5000    0.00336316
      73.6000    0.00332284
      73.7000    0.00328298
      73.8000    0.00324352
      73.9000    0.00320450
      74.0000    0.00316617
      74.1000    0.00313137
      74.2000    0.00309795
      74.3000    0.00306178
      74.4000    0.00302359
      74.5000    0.00298649
      74.6000    0.00295123
      74.7000    0.00291633
      74.8000    0.00288182
      74.9000    0.00284769
      75.0000    0.00281355
      75.1000    0.00277965
      75.2000    0.00274619
      75.3000    0.00271309
      75.4000    0.00268063
      75.5000    0.00264925
      75.6000    0.00261823
      75.7000    0.00258749
      75.8000    0.00255720
      75.9000    0.00252766
      76.0000    0.00249852
      76.1000    0.00246973
      76.2000    0.00244124
      76.3000    0.00241310
      76.4000    0.00238575
      76.5000    0.00235877
      76.6000    0.00233203
      76.7000    0.00230552
      76.8000    0.00227932
      76.9000    0.00225343
      77.0000    0.00222779
      77.1000    0.00220241
      77.2000    0.00217733
      77.3000    0.00215249
      77.4000    0.00212791
      77.5000    0.00210361
      77.6000    0.00207911
      77.7000    0.00205481
      77.8000    0.00203076
      77.9000    0.00200696
      78.0000    0.00198308
      78.1000    0.00195860
      78.2000    0.00193446
      78.3000    0.00191245
      78.4000    0.00189132
      78.5000    0.00187024
      78.6000    0.00184885
      78.7000    0.00182769
      78.8000    0.00180601
      78.9000    0.00178441
      79.0000    0.00176301
      79.1000    0.00174181
      79.2000    0.00172093
      79.3000    0.00170088
      79.4000    0.00168124
      79.5000    0.00166160
      79.6000    0.00164157
      79.7000    0.00162175
      79.8000    0.00160182
      79.9000    0.00158198
      80.0000    0.00156234
      80.1000    0.00154220
      80.2000    0.00152224
      80.3000    0.00150178
      80.4000    0.00148088
      80.5000    0.00146020
      80.6000    0.00143977
      80.7000    0.00141960
      80.8000    0.00139978
      80.9000    0.00138043
      81.0000    0.00136135
      81.1000    0.00134256
      81.2000    0.00132403
      81.3000    0.00130574
      81.4000    0.00128900
      81.5000    0.00127255
      81.6000    0.00125666
      81.7000    0.00124171
      81.8000    0.00122700
      81.9000    0.00121298
      82.0000    0.00119935
      82.1000    0.00118590
      82.2000    0.00117219
      82.3000    0.00115865
      82.4000    0.00114552
      82.5000    0.00113297
      82.6000    0.00112053
      82.7000    0.00110787
      82.8000    0.00109492
      82.9000    0.00108209
      83.0000    0.00106953
      83.1000    0.00105717
      83.2000    0.00104493
      83.3000    0.00103281
      83.4000    0.00102085
      83.5000    0.00100905
      83.6000   0.000997642
      83.7000   0.000986360
      83.8000   0.000975141
      83.9000   0.000963866
      84.0000   0.000952687
      84.1000   0.000941787
      84.2000   0.000931261
      84.3000   0.000920829
      84.4000   0.000910372
      84.5000   0.000899931
      84.6000   0.000889605
      84.7000   0.000879557
      84.8000   0.000869694
      84.9000   0.000859955
      85.0000   0.000850099
      85.1000   0.000840281
      85.2000   0.000830571
      85.3000   0.000821335
      85.4000   0.000812271
      85.5000   0.000803313
      85.6000   0.000794246
      85.7000   0.000785261
      85.8000   0.000776368
      85.9000   0.000767563
      86.0000   0.000758832
      86.1000   0.000750185
      86.2000   0.000741883
      86.3000   0.000733678
      86.4000   0.000725549
      86.5000   0.000717489
      86.6000   0.000709509
      86.7000   0.000701617
      86.8000   0.000693262
      86.9000   0.000684975
      87.0000   0.000676797
      87.1000   0.000668839
      87.2000   0.000660986
      87.3000   0.000653210
      87.4000   0.000645325
      87.5000   0.000637495
      87.6000   0.000629743
      87.7000   0.000622180
      87.8000   0.000614713
      87.9000   0.000607327
      88.0000   0.000600026
      88.1000   0.000592794
      88.2000   0.000585643
      88.3000   0.000578713
      88.4000   0.000572005
      88.5000   0.000565397
      88.6000   0.000558805
      88.7000   0.000552206
      88.8000   0.000545680
      88.9000   0.000539218
      89.0000   0.000532798
      89.1000   0.000526447
      89.2000   0.000520161
      89.3000   0.000513935
      89.4000   0.000507760
      89.5000   0.000501645
      89.6000   0.000495593
      89.7000   0.000489605
      89.8000   0.000483681
      89.9000   0.000477816
      90.0000   0.000472010
      90.1000   0.000466277
      90.2000   0.000460498
      90.3000   0.000454527
      90.4000   0.000448615
      90.5000   0.000442775
      90.6000   0.000437106
      90.7000   0.000431399
      90.8000   0.000425634
      90.9000   0.000419791
      91.0000   0.000413991
      91.1000   0.000408268
      91.2000   0.000402551
      91.3000   0.000396801
      91.4000   0.000391108
      91.5000   0.000385500
      91.6000   0.000379978
      91.7000   0.000374927
      91.8000   0.000370549
      91.9000   0.000366939
      92.0000   0.000362914
      92.1000   0.000358837
      92.2000   0.000354555
      92.3000   0.000350101
      92.4000   0.000345572
      92.5000   0.000341112
      92.6000   0.000336707
      92.7000   0.000332355
      92.8000   0.000328052
      92.9000   0.000323844
      93.0000   0.000319793
      93.1000   0.000315790
      93.2000   0.000311837
      93.3000   0.000308053
      93.4000   0.000304355
      93.5000   0.000300695
      93.6000   0.000297073
      93.7000   0.000293492
      93.8000   0.000289968
      93.9000   0.000286483
      94.0000   0.000283036
      94.1000   0.000279630
      94.2000   0.000276268
      94.3000   0.000272967
      94.4000   0.000269780
      94.5000   0.000266635
      94.6000   0.000263529
      94.7000   0.000260463
      94.8000   0.000257427
      94.9000   0.000254421
      95.0000   0.000251450
      95.1000   0.000248522
      95.2000   0.000245616
      95.3000   0.000242733
      95.4000   0.000239884
      95.5000   0.000237109
      95.6000   0.000234362
      95.7000   0.000231645
      95.8000   0.000228924
      95.9000   0.000226221
      96.0000   0.000223544
      96.1000   0.000220892
      96.2000   0.000218266
      96.3000   0.000215673
      96.4000   0.000213106
      96.5000   0.000210569
      96.6000   0.000208070
      96.7000   0.000205611
      96.8000   0.000203171
      96.9000   0.000200752
      97.0000   0.000198357
      97.1000   0.000195999
      97.2000   0.000193664
      97.3000   0.000191324
      97.4000   0.000188982
      97.5000   0.000186674
      97.6000   0.000184393
      97.7000   0.000182151
      97.8000   0.000179942
      97.9000   0.000177761
      98.0000   0.000175600
      98.1000   0.000173460
      98.2000   0.000171347
      98.3000   0.000169391
      98.4000   0.000167516
      98.5000   0.000165700
      98.6000   0.000163904
      98.7000   0.000162126
      98.8000   0.000160363
      98.9000   0.000158617
      99.0000   0.000156892
      99.1000   0.000155183
      99.2000   0.000153481
      99.3000   0.000151750
      99.4000   0.000150043
      99.5000   0.000148352
      99.6000   0.000146687
      99.7000   0.000145109
      99.8000   0.000143579
      99.9000   0.000142337
      100.000   0.000141526
      100.100   0.000140670
      100.200   0.000139815
      100.300   0.000138964
      100.400   0.000138117
      100.500   0.000137294
      100.600   0.000136472
      100.700   0.000135652
      100.800   0.000134833
      100.900   0.000134018
      101.000   0.000133207
      101.100   0.000132401
      101.200   0.000131599
      101.300   0.000130799
      101.400   0.000130002
      101.500   0.000129210
      101.600   0.000128422
      101.700   0.000127651
      101.800   0.000126888
      101.900   0.000126126
      102.000   0.000125370
      102.100   0.000124639
      102.200   0.000123922
      102.300   0.000123208
      102.400   0.000122497
      102.500   0.000121786
      102.600   0.000121077
      102.700   0.000120370
      102.800   0.000119666
      102.900   0.000118964
      103.000   0.000118263
      103.100   0.000117563
      103.200   0.000116865
      103.300   0.000116171
      103.400   0.000115479
      103.500   0.000114790
      103.600   0.000114103
      103.700   0.000113417
      103.800   0.000112706
      103.900   0.000111968
      104.000   0.000111234
      104.100   0.000110505
      104.200   0.000109793
      104.300   0.000109164
      104.400   0.000108541
      104.500   0.000107920
      104.600   0.000107300
      104.700   0.000106658
      104.800   0.000106007
      104.900   0.000105358
      105.000   0.000104712
      105.100   0.000104086
      105.200   0.000103507
      105.300   0.000102932
      105.400   0.000102358
      105.500   0.000101784
      105.600   0.000101221
      105.700   0.000100662
      105.800   0.000100104
      105.900   9.95485e-05
      106.000   9.90098e-05
      106.100   9.85033e-05
      106.200   9.80001e-05
      106.300   9.74983e-05
      106.400   9.69983e-05
      106.500   9.65003e-05
      106.600   9.60041e-05
      106.700   9.55090e-05
      106.800   9.50146e-05
      106.900   9.45222e-05
      107.000   9.40319e-05
      107.100   9.35443e-05
      107.200   9.30593e-05
      107.300   9.25763e-05
      107.400   9.20927e-05
      107.500   9.16085e-05
      107.600   9.11254e-05
      107.700   9.06437e-05
      107.800   9.01641e-05
      107.900   8.96797e-05
      108.000   8.91961e-05
      108.100   8.87131e-05
      108.200   8.82308e-05
      108.300   8.77493e-05
      108.400   8.72629e-05
      108.500   8.67785e-05
      108.600   8.62955e-05
      108.700   8.58127e-05
      108.800   8.53093e-05
      108.900   8.47765e-05
      109.000   8.42453e-05
      109.100   8.37165e-05
      109.200   8.31901e-05
      109.300   8.26660e-05
      109.400   8.21440e-05
      109.500   8.16244e-05
      109.600   8.11074e-05
      109.700   8.05932e-05
      109.800   8.00823e-05
      109.900   7.95742e-05
      110.000   7.90682e-05
      110.100   7.85642e-05
      110.200   7.80619e-05
      110.300   7.75750e-05
      110.400   7.70917e-05
      110.500   7.66112e-05
      110.600   7.61330e-05
      110.700   7.56566e-05
      110.800   7.51815e-05
      110.900   7.47078e-05
      111.000   7.42354e-05
      111.100   7.37645e-05
      111.200   7.32965e-05
      111.300   7.28552e-05
      111.400   7.24153e-05
      111.500   7.19764e-05
      111.600   7.15391e-05
      111.700   7.11049e-05
      111.800   7.06885e-05
      111.900   7.02749e-05
      112.000   6.98633e-05
      112.100   6.94531e-05
      112.200   6.90441e-05
      112.300   6.86209e-05
      112.400   6.81987e-05
      112.500   6.77787e-05
      112.600   6.73610e-05
      112.700   6.69478e-05
      112.800   6.65514e-05
      112.900   6.61200e-05
      113.000   6.57031e-05
      113.100   6.52935e-05
      113.200   6.48789e-05
      113.300   6.44744e-05
      113.400   6.39898e-05
      113.500   6.34873e-05
      113.600   6.30577e-05
      113.700   6.26084e-05
      113.800   6.21136e-05
      113.900   6.16907e-05
      114.000   6.12698e-05
      114.100   6.08022e-05
      114.200   6.03616e-05
      114.300   5.99620e-05
      114.400   5.95535e-05
      114.500   5.91362e-05
      114.600   5.87708e-05
      114.700   5.83692e-05
      114.800   5.79944e-05
      114.900   5.76796e-05
      115.000   5.73232e-05
      115.100   5.69428e-05
      115.200   5.65614e-05
      115.300   5.62344e-05
      115.400   5.58588e-05
      115.500   5.55099e-05
      115.600   5.51420e-05
      115.700   5.47446e-05
      115.800   5.43908e-05
      115.900   5.40164e-05
      116.000   5.36796e-05
      116.100   5.33996e-05
      116.200   5.31160e-05
      116.300   5.28235e-05
      116.400   5.25143e-05
      116.500   5.22451e-05
      116.600   5.19641e-05
      116.700   5.16936e-05
      116.800   5.14124e-05
      116.900   5.10847e-05
      117.000   5.08117e-05
      117.100   5.06921e-05
      117.200   5.06793e-05
      117.300   5.05603e-05
      117.400   5.04336e-05
      117.500   5.03081e-05
      117.600   5.01214e-05
      117.700   4.99111e-05
      117.800   4.96695e-05
      117.900   4.94124e-05
      118.000   4.91256e-05
      118.100   4.88107e-05
      118.200   4.85200e-05
      118.300   4.82401e-05
      118.400   4.78475e-05
      118.500   4.74662e-05
      118.600   4.71388e-05
      118.700   4.67944e-05
      118.800   4.64267e-05
      118.900   4.60780e-05
      119.000   4.56703e-05
      119.100   4.51959e-05
      119.200   4.47824e-05
      119.300   4.44202e-05
      119.400   4.40880e-05
      119.500   4.37700e-05
      119.600   4.34143e-05
      119.700   4.30145e-05
      119.800   4.25263e-05
      119.900   4.19213e-05
      120.000   4.13588e-05
      120.100   4.08307e-05
      120.200   4.04527e-05
      120.300   4.01611e-05
      120.400   3.98696e-05
      120.500   3.94610e-05
      120.600   3.89649e-05
      120.700   3.84434e-05
      120.800   3.79442e-05
      120.900   3.76012e-05
      121.000   3.74981e-05
      121.100   3.73527e-05
      121.200   3.70888e-05
      121.300   3.67419e-05
      121.400   3.63331e-05
      121.500   3.58787e-05
      121.600   3.52411e-05
      121.700   3.46827e-05
      121.800   3.40633e-05
      121.900   3.34405e-05
      122.000   3.27785e-05
      122.100   3.21550e-05
      122.200   3.15423e-05
      122.300   3.10889e-05
      122.400   3.08057e-05
      122.500   3.05594e-05
      122.600   3.02932e-05
      122.700   3.00268e-05
      122.800   2.97243e-05
      122.900   2.94451e-05
      123.000   2.93592e-05
      123.100   2.96061e-05
      123.200   2.98736e-05
      123.300   3.03101e-05
      123.400   3.08853e-05
      123.500   3.16586e-05
      123.600   3.23137e-05
      123.700   3.26277e-05
      123.800   3.28440e-05
      123.900   3.31553e-05
      124.000   3.36206e-05
      124.100   3.45899e-05
      124.200   3.66316e-05
      124.300   3.97121e-05
      124.400   4.26703e-05
      124.500   4.34740e-05
      124.600   4.32836e-05
      124.700   4.29801e-05
      124.800   4.26897e-05
      124.900   4.23999e-05
      125.000   4.21101e-05
      125.100   4.18121e-05
      125.200   4.15146e-05
      125.300   4.12185e-05
      125.400   4.09239e-05
      125.500   4.06309e-05
      125.600   4.03392e-05
      125.700   4.00493e-05
      125.800   3.97608e-05
      125.900   3.94742e-05
      126.000   3.91894e-05
      126.100   3.89064e-05
      126.200   3.86252e-05
      126.300   3.83458e-05
      126.400   3.80680e-05
      126.500   3.77918e-05
      126.600   3.75171e-05
      126.700   3.72439e-05
      126.800   3.69722e-05
      126.900   3.67021e-05
      127.000   3.64324e-05
      127.100   3.61609e-05
      127.200   3.58894e-05
      127.300   3.56189e-05
      127.400   3.53499e-05
      127.500   3.50825e-05
      127.600   3.48167e-05
      127.700   3.45525e-05
      127.800   3.42899e-05
      127.900   3.40290e-05
      128.000   3.37697e-05
      128.100   3.35119e-05
      128.200   3.32555e-05
      128.300   3.30006e-05
      128.400   3.27471e-05
      128.500   3.24950e-05
      128.600   3.22442e-05
      128.700   3.19950e-05
      128.800   3.17473e-05
      128.900   3.15010e-05
      129.000   3.12563e-05
      129.100   3.10125e-05
      129.200   3.07683e-05
      129.300   3.05255e-05
      129.400   3.02842e-05
      129.500   3.00447e-05
      129.600   2.98067e-05
      129.700   2.95703e-05
      129.800   2.93355e-05
      129.900   2.91025e-05
      130.000   2.88710e-05
      130.100   2.86411e-05
      130.200   2.84127e-05
      130.300   2.81860e-05
      130.400   2.79609e-05
      130.500   2.77375e-05
      130.600   2.75156e-05
      130.700   2.72954e-05
      130.800   2.70768e-05
      130.900   2.68599e-05
      131.000   2.66444e-05
      131.100   2.64303e-05
      131.200   2.62174e-05
      131.300   2.60054e-05
      131.400   2.57948e-05
      131.500   2.55854e-05
      131.600   2.53774e-05
      131.700   2.51707e-05
      131.800   2.49653e-05
      131.900   2.47611e-05
      132.000   2.45583e-05
      132.100   2.43567e-05
      132.200   2.41564e-05
      132.300   2.39574e-05
      132.400   2.37597e-05
      132.500   2.35634e-05
      132.600   2.33686e-05
      132.700   2.31751e-05
      132.800   2.29829e-05
      132.900   2.27920e-05
      133.000   2.26024e-05
      133.100   2.24140e-05
      133.200   2.22270e-05
      133.300   2.20410e-05
      133.400   2.18563e-05
      133.500   2.16727e-05
      133.600   2.14904e-05
      133.700   2.13095e-05
      133.800   2.11299e-05
      133.900   2.09517e-05
      134.000   2.07749e-05
      134.100   2.05993e-05
      134.200   2.04250e-05
      134.300   2.02519e-05
      134.400   2.00802e-05
      134.500   1.99098e-05
      134.600   1.97407e-05
      134.700   1.95728e-05
      134.800   1.94062e-05
      134.900   1.92408e-05
      135.000   1.90766e-05
      135.100   1.89136e-05
      135.200   1.87519e-05
      135.300   1.85915e-05
      135.400   1.84321e-05
      135.500   1.82735e-05
      135.600   1.81156e-05
      135.700   1.79589e-05
      135.800   1.78033e-05
      135.900   1.76489e-05
      136.000   1.74955e-05
      136.100   1.73432e-05
      136.200   1.71922e-05
      136.300   1.70420e-05
      136.400   1.68930e-05
      136.500   1.67450e-05
      136.600   1.65979e-05
      136.700   1.64519e-05
      136.800   1.63070e-05
      136.900   1.61630e-05
      137.000   1.60201e-05
      137.100   1.58782e-05
      137.200   1.57373e-05
      137.300   1.55975e-05
      137.400   1.54588e-05
      137.500   1.53212e-05
      137.600   1.51846e-05
      137.700   1.50487e-05
      137.800   1.49139e-05
      137.900   1.47800e-05
      138.000   1.46473e-05
      138.100   1.45155e-05
      138.200   1.43849e-05
      138.300   1.42554e-05
      138.400   1.41268e-05
      138.500   1.39993e-05
      138.600   1.38728e-05
      138.700   1.37473e-05
      138.800   1.36229e-05
      138.900   1.34994e-05
      139.000   1.33770e-05
      139.100   1.32555e-05
      139.200   1.31351e-05
      139.300   1.30157e-05
      139.400   1.28972e-05
      139.500   1.27797e-05
      139.600   1.26631e-05
      139.700   1.25474e-05
      139.800   1.24326e-05
      139.900   1.23186e-05
      140.000   1.22056e-05
      140.100   1.20934e-05
      140.200   1.19821e-05
      140.300   1.18717e-05
      140.400   1.17621e-05
      140.500   1.16534e-05
      140.600   1.15455e-05
      140.700   1.14384e-05
      140.800   1.13324e-05
      140.900   1.12271e-05
      141.000   1.11227e-05
      141.100   1.10191e-05
      141.200   1.09164e-05
      141.300   1.08144e-05
      141.400   1.07132e-05
      141.500   1.06128e-05
      141.600   1.05133e-05
      141.700   1.04145e-05
      141.800   1.03166e-05
      141.900   1.02194e-05
      142.000   1.01229e-05
      142.100   1.00312e-05
      142.200   9.95175e-06
      142.300   9.88263e-06
      142.400   9.81385e-06
      142.500   9.74539e-06
      142.600   9.67724e-06
      142.700   9.60942e-06
      142.800   9.54195e-06
      142.900   9.47482e-06
      143.000   9.40805e-06
      143.100   9.34163e-06
      143.200   9.27561e-06
      143.300   9.20992e-06
      143.400   9.14460e-06
      143.500   9.07963e-06
      143.600   9.01500e-06
      143.700   8.95067e-06
      143.800   8.88672e-06
      143.900   8.82313e-06
      144.000   8.75986e-06
      144.100   8.69692e-06
      144.200   8.63433e-06
      144.300   8.57203e-06
      144.400   8.51099e-06
      144.500   8.46297e-06
      144.600   8.41908e-06
      144.700   8.37569e-06
      144.800   8.33232e-06
      144.900   8.28898e-06
      145.000   8.24567e-06
      145.100   8.20239e-06
      145.200   8.15913e-06
      145.300   8.11592e-06
      145.400   8.07273e-06
      145.500   8.02957e-06
      145.600   7.98643e-06
      145.700   7.94332e-06
      145.800   7.90025e-06
      145.900   7.85723e-06
      146.000   7.81423e-06
      146.100   7.77128e-06
      146.200   7.72838e-06
      146.300   7.68553e-06
      146.400   7.64272e-06
      146.500   7.60001e-06
      146.600   7.55735e-06
      146.700   7.51478e-06
      146.800   7.47182e-06
      146.900   7.42829e-06
      147.000   7.38485e-06
      147.100   7.34151e-06
      147.200   7.29827e-06
      147.300   7.25513e-06
      147.400   7.21209e-06
      147.500   7.16915e-06
      147.600   7.12630e-06
      147.700   7.08357e-06
      147.800   7.04096e-06
      147.900   6.99845e-06
      148.000   6.95606e-06
      148.100   6.91379e-06
      148.200   6.87165e-06
      148.300   6.82964e-06
      148.400   6.78777e-06
      148.500   6.74602e-06
      148.600   6.70442e-06
      148.700   6.66294e-06
      148.800   6.62159e-06
      148.900   6.58040e-06
      149.000   6.53938e-06
      149.100   6.49848e-06
      149.200   6.45768e-06
      149.300   6.41700e-06
      149.400   6.37646e-06
      149.500   6.33606e-06
      149.600   6.29579e-06
      149.700   6.25565e-06
      149.800   6.21565e-06
      149.900   6.17576e-06
      150.000   6.13600e-06
      150.100   6.09638e-06
      150.200   6.05687e-06
      150.300   6.01751e-06
      150.400   5.97826e-06
      150.500   5.93914e-06
      150.600   5.90015e-06
      150.700   5.86126e-06
      150.800   5.82252e-06
      150.900   5.78391e-06
      151.000   5.74539e-06
      151.100   5.70702e-06
      151.200   5.66876e-06
      151.300   5.63063e-06
      151.400   5.59262e-06
      151.500   5.55476e-06
      151.600   5.51710e-06
      151.700   5.47967e-06
      151.800   5.44235e-06
      151.900   5.40516e-06
      152.000   5.36811e-06
      152.100   5.33120e-06
      152.200   5.29445e-06
      152.300   5.25782e-06
      152.400   5.22135e-06
      152.500   5.18503e-06
      152.600   5.14885e-06
      152.700   5.11284e-06
      152.800   5.07698e-06
      152.900   5.04130e-06
      153.000   5.00576e-06
      153.100   4.97040e-06
      153.200   4.93519e-06
      153.300   4.90015e-06
      153.400   4.86528e-06
      153.500   4.83054e-06
      153.600   4.79598e-06
      153.700   4.76160e-06
      153.800   4.72736e-06
      153.900   4.69328e-06
      154.000   4.65991e-06
      154.100   4.62792e-06
      154.200   4.59649e-06
      154.300   4.56516e-06
      154.400   4.53398e-06
      154.500   4.50291e-06
      154.600   4.47198e-06
      154.700   4.44117e-06
      154.800   4.41047e-06
      154.900   4.37991e-06
      155.000   4.34946e-06
      155.100   4.31915e-06
      155.200   4.28895e-06
      155.300   4.25888e-06
      155.400   4.22895e-06
      155.500   4.19914e-06
      155.600   4.16944e-06
      155.700   4.13987e-06
      155.800   4.11043e-06
      155.900   4.08110e-06
      156.000   4.05190e-06
      156.100   4.02281e-06
      156.200   3.99385e-06
      156.300   3.96500e-06
      156.400   3.93627e-06
      156.500   3.90751e-06
      156.600   3.87797e-06
      156.700   3.84856e-06
      156.800   3.81928e-06
      156.900   3.79014e-06
      157.000   3.76115e-06
      157.100   3.73228e-06
      157.200   3.70355e-06
      157.300   3.67496e-06
      157.400   3.64651e-06
      157.500   3.61819e-06
      157.600   3.59002e-06
      157.700   3.56198e-06
      157.800   3.53408e-06
      157.900   3.50633e-06
      158.000   3.47872e-06
      158.100   3.45125e-06
      158.200   3.42393e-06
      158.300   3.39676e-06
      158.400   3.36973e-06
      158.500   3.34285e-06
      158.600   3.31612e-06
      158.700   3.28953e-06
      158.800   3.26309e-06
      158.900   3.23680e-06
      159.000   3.21068e-06
      159.100   3.18468e-06
      159.200   3.15883e-06
      159.300   3.13313e-06
      159.400   3.10758e-06
      159.500   3.08220e-06
      159.600   3.05695e-06
      159.700   3.03187e-06
      159.800   3.00693e-06
      159.900   2.98215e-06
      160.000   2.95751e-06
      160.100   2.93304e-06
      160.200   2.90871e-06
      160.300   2.88452e-06
      160.400   2.86049e-06
      160.500   2.83659e-06
      160.600   2.81285e-06
      160.700   2.78924e-06
      160.800   2.76578e-06
      160.900   2.74246e-06
      161.000   2.71928e-06
      161.100   2.69624e-06
      161.200   2.67334e-06
      161.300   2.65059e-06
      161.400   2.62798e-06
      161.500   2.60550e-06
      161.600   2.58315e-06
      161.700   2.56092e-06
      161.800   2.53882e-06
      161.900   2.51686e-06
      162.000   2.49504e-06
      162.100   2.47336e-06
      162.200   2.45180e-06
      162.300   2.43039e-06
      162.400   2.40912e-06
      162.500   2.38798e-06
      162.600   2.36698e-06
      162.700   2.34611e-06
      162.800   2.32538e-06
      162.900   2.30479e-06
      163.000   2.28433e-06
      163.100   2.26401e-06
      163.200   2.24381e-06
      163.300   2.22375e-06
      163.400   2.20382e-06
      163.500   2.18403e-06
      163.600   2.16437e-06
      163.700   2.14484e-06
      163.800   2.12545e-06
      163.900   2.10620e-06
      164.000   2.08707e-06
      164.100   2.06808e-06
      164.200   2.04924e-06
      164.300   2.03064e-06
      164.400   2.01218e-06
      164.500   1.99386e-06
      164.600   1.97567e-06
      164.700   1.95760e-06
      164.800   1.93967e-06
      164.900   1.92187e-06
      165.000   1.90419e-06
      165.100   1.88665e-06
      165.200   1.86924e-06
      165.300   1.85197e-06
      165.400   1.83482e-06
      165.500   1.81780e-06
      165.600   1.80091e-06
      165.700   1.78415e-06
      165.800   1.76752e-06
      165.900   1.75101e-06
      166.000   1.73465e-06
      166.100   1.71840e-06
      166.200   1.70228e-06
      166.300   1.68628e-06
      166.400   1.67042e-06
      166.500   1.65467e-06
      166.600   1.63905e-06
      166.700   1.62355e-06
      166.800   1.60815e-06
      166.900   1.59289e-06
      167.000   1.57777e-06
      167.100   1.56274e-06
      167.200   1.54783e-06
      167.300   1.53304e-06
      167.400   1.51836e-06
      167.500   1.50380e-06
      167.600   1.48935e-06
      167.700   1.47502e-06
      167.800   1.46080e-06
      167.900   1.44669e-06
      168.000   1.43269e-06
      168.100   1.41879e-06
      168.200   1.40501e-06
      168.300   1.39133e-06
      168.400   1.37776e-06
      168.500   1.36430e-06
      168.600   1.35094e-06
      168.700   1.33769e-06
      168.800   1.32454e-06
      168.900   1.31150e-06
      169.000   1.29856e-06
      169.100   1.28572e-06
      169.200   1.27299e-06
      169.300   1.26036e-06
      169.400   1.24783e-06
      169.500   1.23533e-06
      169.600   1.22265e-06
      169.700   1.20975e-06
      169.800   1.19686e-06
      169.900   1.18408e-06
      170.000   1.17140e-06
      170.100   1.15882e-06
      170.200   1.14636e-06
      170.300   1.50406e-06
      170.400   3.25196e-06
      170.500   6.19599e-06
      170.600   9.17052e-06
      170.700   1.15803e-05
      170.800   1.27372e-05
      170.900   1.28329e-05
      171.000   1.26661e-05
      171.100   1.25005e-05
      171.200   1.23362e-05
      171.300   1.21732e-05
      171.400   1.20115e-05
      171.500   1.18512e-05
      171.600   1.16923e-05
      171.700   1.15348e-05
      171.800   1.13789e-05
      171.900   1.12247e-05
      172.000   1.10723e-05
      172.100   1.09217e-05
      172.200   1.07731e-05
      172.300   1.06260e-05
      172.400   1.04788e-05
      172.500   1.03332e-05
      172.600   1.01896e-05
      172.700   1.00481e-05
      172.800   9.90864e-06
      172.900   9.77110e-06
      173.000   9.63563e-06
      173.100   9.50212e-06
      173.200   9.37051e-06
      173.300   9.24087e-06
      173.400   9.11304e-06
      173.500   8.98711e-06
      173.600   8.86304e-06
      173.700   8.74072e-06
      173.800   8.62015e-06
      173.900   8.50136e-06
      174.000   8.38423e-06
      174.100   8.26871e-06
      174.200   8.15486e-06
      174.300   8.04260e-06
      174.400   7.93189e-06
      174.500   7.82268e-06
      174.600   7.71489e-06
      174.700   7.60861e-06
      174.800   7.50377e-06
      174.900   7.40028e-06
      175.000   7.29807e-06
      175.100   7.19722e-06
      175.200   7.09797e-06
      175.300   6.99995e-06
      175.400   6.90316e-06
      175.500   6.80767e-06
      175.600   6.71340e-06
      175.700   6.62035e-06
      175.800   6.52849e-06
      175.900   6.43782e-06
      176.000   6.34833e-06
      176.100   6.26003e-06
      176.200   6.17286e-06
      176.300   6.08680e-06
      176.400   6.00190e-06
      176.500   5.91809e-06
      176.600   5.83536e-06
      176.700   5.75371e-06
      176.800   5.67313e-06
      176.900   5.59362e-06
      177.000   5.51513e-06
      177.100   5.43765e-06
      177.200   5.36121e-06
      177.300   5.28577e-06
      177.400   5.21128e-06
      177.500   5.13775e-06
      177.600   5.06519e-06
      177.700   4.99357e-06
      177.800   4.92289e-06
      177.900   4.85306e-06
      178.000   4.78446e-06
      178.100   4.71679e-06
      178.200   4.64996e-06
      178.300   4.58399e-06
      178.400   4.51891e-06
      178.500   4.45466e-06
      178.600   4.39124e-06
      178.700   4.32862e-06
      178.800   4.26684e-06
      178.900   4.20589e-06
      179.000   4.14572e-06
      179.100   4.08632e-06
      179.200   4.02773e-06
      179.300   3.96993e-06
      179.400   3.91290e-06
      179.500   3.85666e-06
      179.600   3.80119e-06
      179.700   3.74650e-06
      179.800   3.69254e-06
      179.900   3.63934e-06
      180.000   3.58687e-06
      180.100   3.53515e-06
      180.200   3.48417e-06
      180.300   3.43392e-06
      180.400   3.38437e-06
      180.500   3.33555e-06
      180.600   3.28743e-06
      180.700   3.24001e-06
      180.800   3.19328e-06
      180.900   3.14721e-06
      181.000   3.10181e-06
      181.100   3.05708e-06
      181.200   3.01300e-06
      181.300   2.96955e-06
      181.400   2.92675e-06
      181.500   2.88456e-06
      181.600   2.84298e-06
      181.700   2.80200e-06
      181.800   2.76161e-06
      181.900   2.72180e-06
      182.000   2.68258e-06
      182.100   2.64390e-06
      182.200   2.60580e-06
      182.300   2.56823e-06
      182.400   2.53120e-06
      182.500   2.49470e-06
      182.600   2.45869e-06
      182.700   2.42320e-06
      182.800   2.38821e-06
      182.900   2.35369e-06
      183.000   2.31967e-06
      183.100   2.28613e-06
      183.200   2.25305e-06
      183.300   2.22042e-06
      183.400   2.18824e-06
      183.500   2.15652e-06
      183.600   2.12524e-06
      183.700   2.09440e-06
      183.800   2.06401e-06
      183.900   2.03404e-06
      184.000   2.00451e-06
      184.100   1.97538e-06
      184.200   1.94668e-06
      184.300   1.91837e-06
      184.400   1.89046e-06
      184.500   1.86295e-06
      184.600   1.83581e-06
      184.700   1.80906e-06
      184.800   1.78268e-06
      184.900   1.75667e-06
      185.000   1.73102e-06
      185.100   1.70573e-06
      185.200   1.68078e-06
      185.300   1.65620e-06
      185.400   1.63196e-06
      185.500   1.60805e-06
      185.600   1.58448e-06
      185.700   1.56122e-06
      185.800   1.53830e-06
      185.900   1.51571e-06
      186.000   1.49342e-06
      186.100   1.47144e-06
      186.200   1.44977e-06
      186.300   1.42838e-06
      186.400   1.40730e-06
      186.500   1.38649e-06
      186.600   1.36597e-06
      186.700   1.34572e-06
      186.800   1.32575e-06
      186.900   1.30605e-06
      187.000   1.28661e-06
      187.100   1.26743e-06
      187.200   1.24851e-06
      187.300   1.22987e-06
      187.400   1.21148e-06
      187.500   1.19334e-06
      187.600   1.17545e-06
      187.700   1.15780e-06
      187.800   1.14040e-06
      187.900   1.12323e-06
      188.000   1.10631e-06
      188.100   1.08962e-06
      188.200   1.07315e-06
      188.300   1.05692e-06
      188.400   1.04091e-06
      188.500   1.02514e-06
      188.600   1.00959e-06
      188.700   9.94276e-07
      188.800   9.79183e-07
      188.900   9.64312e-07
      189.000   9.49652e-07
      189.100   9.35200e-07
      189.200   9.20961e-07
      189.300   9.06933e-07
      189.400   8.93114e-07
      189.500   8.79496e-07
      189.600   8.66074e-07
      189.700   8.52857e-07
      189.800   8.39908e-07
      189.900   8.27171e-07
      190.000   8.14619e-07
      190.100   8.02258e-07
      190.200   7.90080e-07
      190.300   7.78085e-07
      190.400   7.66263e-07
      190.500   7.54618e-07
      190.600   7.43152e-07
      190.700   7.31852e-07
      190.800   7.20722e-07
      190.900   7.09759e-07
      191.000   6.98963e-07
      191.100   6.88338e-07
      191.200   6.77867e-07
      191.300   6.67552e-07
      191.400   6.57391e-07
      191.500   6.47378e-07
      191.600   6.37516e-07
      191.700   6.27799e-07
      191.800   6.18221e-07
      191.900   6.08788e-07
      192.000   5.99499e-07
      192.100   5.90352e-07
      192.200   5.81349e-07
      192.300   5.72475e-07
      192.400   5.63731e-07
      192.500   5.55117e-07
      192.600   5.46631e-07
      192.700   5.38272e-07
      192.800   5.30035e-07
      192.900   5.21914e-07
      193.000   5.13917e-07
      193.100   5.06044e-07
      193.200   4.98291e-07
      193.300   4.90656e-07
      193.400   4.83138e-07
      193.500   4.75732e-07
      193.600   4.68434e-07
      193.700   4.61245e-07
      193.800   4.54167e-07
      193.900   4.47196e-07
      194.000   4.40328e-07
      194.100   4.33568e-07
      194.200   4.26917e-07
      194.300   4.20366e-07
      194.400   4.13911e-07
      194.500   4.07554e-07
      194.600   4.01290e-07
      194.700   3.95122e-07
      194.800   3.89048e-07
      194.900   3.83062e-07
      195.000   3.77165e-07
      195.100   3.71363e-07
      195.200   3.65649e-07
      195.300   3.60020e-07
      195.400   3.54473e-07
      195.500   3.49006e-07
      195.600   3.43619e-07
      195.700   3.38312e-07
      195.800   3.33081e-07
      195.900   3.27926e-07
      196.000   3.22788e-07
      196.100   3.17724e-07
      196.200   3.12736e-07
      196.300   3.07820e-07
      196.400   3.02975e-07
      196.500   2.98199e-07
      196.600   2.93494e-07
      196.700   2.88857e-07
      196.800   2.84291e-07
      196.900   2.79794e-07
      197.000   2.75363e-07
      197.100   2.70997e-07
      197.200   2.66694e-07
      197.300   2.62452e-07
      197.400   2.58271e-07
      197.500   2.54151e-07
      197.600   2.50092e-07
      197.700   2.46099e-07
      197.800   2.42165e-07
      197.900   2.38287e-07
      198.000   2.34467e-07
      198.100   2.30704e-07
      198.200   2.26995e-07
      198.300   2.23340e-07
      198.400   2.19741e-07
      198.500   2.16201e-07
      198.600   2.12716e-07
      198.700   2.09282e-07
      198.800   2.05900e-07
      198.900   2.02570e-07
      199.000   1.99289e-07
      199.100   1.96058e-07
      199.200   1.92876e-07
      199.300   1.89748e-07
      199.400   1.86670e-07
      199.500   1.83639e-07
      199.600   1.80654e-07
      199.700   1.77715e-07
      199.800   1.74821e-07
      199.900   1.71973e-07
      200.000   1.69168e-07
      200.100   1.66419e-07
      200.200   1.63706e-07
      200.300   1.61037e-07
      200.400   1.58409e-07
      200.500   1.55822e-07
      200.600   1.53277e-07
      200.700   1.50771e-07
      200.800   1.48304e-07
      200.900   1.45877e-07
      201.000   1.43491e-07
      201.100   1.41142e-07
      201.200   1.38830e-07
      201.300   1.36556e-07
      201.400   1.34318e-07
      201.500   1.32115e-07
      201.600   1.29947e-07
      201.700   1.27814e-07
      201.800   1.25714e-07
      201.900   1.23648e-07
      202.000   1.21619e-07
      202.100   1.19619e-07
      202.200   1.17653e-07
      202.300   1.15787e-07
      202.400   1.14075e-07
      202.500   1.12425e-07
      202.600   1.10797e-07
      202.700   1.09192e-07
      202.800   1.07612e-07
      202.900   1.06054e-07
      203.000   1.04519e-07
      203.100   1.03007e-07
      203.200   1.01516e-07
      203.300   1.00046e-07
      203.400   9.85973e-08
      203.500   9.71701e-08
      203.600   9.57633e-08
      203.700   9.43770e-08
      203.800   9.30118e-08
      203.900   9.16671e-08
      204.000   9.03418e-08
      204.100   8.90360e-08
      204.200   8.77497e-08
      204.300   8.64815e-08
      204.400   8.52324e-08
      204.500   8.40014e-08
      204.600   8.27881e-08
      204.700   8.15927e-08
      204.800   8.04160e-08
      204.900   7.92565e-08
      205.000   7.81139e-08
      205.100   7.69884e-08
      205.200   7.58786e-08
      205.300   7.47857e-08
      205.400   7.37084e-08
      205.500   7.26465e-08
      205.600   7.16278e-08
      205.700   7.06488e-08
      205.800   6.96863e-08
      205.900   6.87376e-08
      206.000   6.78025e-08
      206.100   6.68797e-08
      206.200   6.59691e-08
      206.300   6.50711e-08
      206.400   6.41854e-08
      206.500   6.33109e-08
      206.600   6.24485e-08
      206.700   6.15975e-08
      206.800   6.07573e-08
      206.900   5.99285e-08
      207.000   5.91108e-08
      207.100   5.83038e-08
      207.200   5.75079e-08
      207.300   5.67223e-08
      207.400   5.59467e-08
      207.500   5.51811e-08
      207.600   5.44256e-08
      207.700   5.36795e-08
      207.800   5.29431e-08
      207.900   5.22163e-08
      208.000   5.14987e-08
      208.100   5.07904e-08
      208.200   5.00914e-08
      208.300   4.94012e-08
      208.400   4.87201e-08
      208.500   4.80481e-08
      208.600   4.73844e-08
      208.700   4.67292e-08
      208.800   4.60824e-08
      208.900   4.54432e-08
      209.000   4.48079e-08
      209.100   4.41808e-08
      209.200   4.35619e-08
      209.300   4.29510e-08
      209.400   4.23483e-08
      209.500   4.17533e-08
      209.600   4.11663e-08
      209.700   4.05871e-08
      209.800   4.00161e-08
      209.900   3.94522e-08
      210.000   3.88961e-08
      210.100   3.83473e-08
      210.200   3.78059e-08
      210.300   3.72717e-08
      210.400   3.67446e-08
      210.500   3.62246e-08
      210.600   3.57116e-08
      210.700   3.52055e-08
      210.800   3.47063e-08
      210.900   3.42137e-08
      211.000   3.37278e-08
      211.100   3.32486e-08
      211.200   3.27758e-08
      211.300   3.23097e-08
      211.400   3.18502e-08
      211.500   3.13967e-08
      211.600   3.09495e-08
      211.700   3.05085e-08
      211.800   3.00732e-08
      211.900   2.96440e-08
      212.000   2.92208e-08
      212.100   2.88033e-08
      212.200   2.83914e-08
      212.300   2.79854e-08
      212.400   2.75851e-08
      212.500   2.71903e-08
      212.600   2.68010e-08
      212.700   2.64169e-08
      212.800   2.60382e-08
      212.900   2.56649e-08
      213.000   2.52965e-08
      213.100   2.49336e-08
      213.200   2.45756e-08
      213.300   2.42226e-08
      213.400   2.38745e-08
      213.500   2.35313e-08
      213.600   2.31927e-08
      213.700   2.28590e-08
      213.800   2.25299e-08
      213.900   2.22056e-08
      214.000   2.18857e-08
      214.100   2.15703e-08
      214.200   2.12595e-08
      214.300   2.09530e-08
      214.400   2.06509e-08
      214.500   2.03530e-08
      214.600   2.00595e-08
      214.700   1.97702e-08
      214.800   1.94850e-08
      214.900   1.92040e-08
      215.000   1.89269e-08
      215.100   1.86539e-08
      215.200   1.83848e-08
      215.300   1.81199e-08
      215.400   1.78586e-08
      215.500   1.76013e-08
      215.600   1.73478e-08
      215.700   1.70978e-08
      215.800   1.68514e-08
      215.900   1.66088e-08
      216.000   1.63696e-08
      216.100   1.61339e-08
      216.200   1.59017e-08
      216.300   1.56730e-08
      216.400   1.54476e-08
      216.500   1.52255e-08
      216.600   1.50067e-08
      216.700   1.47912e-08
      216.800   1.45787e-08
      216.900   1.43695e-08
      217.000   1.41633e-08
      217.100   1.39601e-08
      217.200   1.37600e-08
      217.300   1.35628e-08
      217.400   1.33684e-08
      217.500   1.31769e-08
      217.600   1.29882e-08
      217.700   1.28022e-08
      217.800   1.26189e-08
      217.900   1.24384e-08
      218.000   1.22605e-08
      218.100   1.20851e-08
      218.200   1.19123e-08
      218.300   1.17420e-08
      218.400   1.15742e-08
      218.500   1.14086e-08
      218.600   1.12456e-08
      218.700   1.10848e-08
      218.800   1.09263e-08
      218.900   1.07700e-08
      219.000   1.06160e-08
      219.100   1.04641e-08
      219.200   1.03144e-08
      219.300   1.01667e-08
      219.400   1.00211e-08
      219.500   9.87761e-09
      219.600   9.73608e-09
      219.700   9.59652e-09
      219.800   9.45895e-09
      219.900   9.32327e-09
      220.000   9.18945e-09
      220.100   9.05749e-09
      220.200   8.92736e-09
      220.300   8.79907e-09
      220.400   8.67253e-09
      220.500   8.54778e-09
      220.600   8.42477e-09
      220.700   8.30340e-09
      220.800   8.18371e-09
      220.900   8.06574e-09
      221.000   7.94935e-09
      221.100   7.83456e-09
      221.200   7.72140e-09
      221.300   7.60981e-09
      221.400   7.49974e-09
      221.500   7.39122e-09
      221.600   7.28420e-09
      221.700   7.17863e-09
      221.800   7.07451e-09
      221.900   6.97186e-09
      222.000   6.87068e-09
      222.100   6.77085e-09
      222.200   6.67244e-09
      222.300   6.57537e-09
      222.400   6.47967e-09
      222.500   6.38526e-09
      222.600   6.29223e-09
      222.700   6.20045e-09
      222.800   6.10993e-09
      222.900   6.02068e-09
      223.000   5.93267e-09
      223.100   5.84587e-09
      223.200   5.76029e-09
      223.300   5.67590e-09
      223.400   5.59271e-09
      223.500   5.51064e-09
      223.600   5.42977e-09
      223.700   5.35000e-09
      223.800   5.27133e-09
      223.900   5.19384e-09
      224.000   5.11736e-09
      224.100   5.04196e-09
      224.200   4.96762e-09
      224.300   4.89434e-09
      224.400   4.82206e-09
      224.500   4.75081e-09
      224.600   4.68053e-09
      224.700   4.61129e-09
      224.800   4.54300e-09
      224.900   4.47566e-09
      225.000   4.40927e-09
      225.100   4.34381e-09
      225.200   4.27926e-09
      225.300   4.21565e-09
      225.400   4.15291e-09
      225.500   4.09106e-09
      225.600   4.03009e-09
      225.700   3.96999e-09
      225.800   3.91072e-09
      225.900   3.85230e-09
      226.000   3.79472e-09
      226.100   3.73796e-09
      226.200   3.68201e-09
      226.300   3.62712e-09
      226.400   3.57324e-09
      226.500   3.52007e-09
      226.600   3.46759e-09
      226.700   3.41583e-09
      226.800   3.36475e-09
      226.900   3.31439e-09
      227.000   3.26476e-09
      227.100   3.21582e-09
      227.200   3.16760e-09
      227.300   3.12008e-09
      227.400   3.07326e-09
      227.500   3.02711e-09
      227.600   2.98164e-09
      227.700   2.93684e-09
      227.800   2.89270e-09
      227.900   2.84920e-09
      228.000   2.80635e-09
      228.100   2.76413e-09
      228.200   2.72253e-09
      228.300   2.68155e-09
      228.400   2.64119e-09
      228.500   2.60142e-09
      228.600   2.56225e-09
      228.700   2.52366e-09
      228.800   2.48565e-09
      228.900   2.44822e-09
      229.000   2.41135e-09
      229.100   2.37503e-09
      229.200   2.33926e-09
      229.300   2.30403e-09
      229.400   2.26934e-09
      229.500   2.23518e-09
      229.600   2.20152e-09
      229.700   2.16839e-09
      229.800   2.13575e-09
      229.900   2.10361e-09
      230.000   2.07180e-09
      230.100   2.03934e-09
      230.200   2.00735e-09
      230.300   1.97589e-09
      230.400   1.94491e-09
      230.500   1.91442e-09
      230.600   1.88442e-09
      230.700   1.85490e-09
      230.800   1.82584e-09
      230.900   1.79725e-09
      231.000   1.76910e-09
      231.100   1.74139e-09
      231.200   1.71413e-09
      231.300   1.68729e-09
      231.400   1.66089e-09
      231.500   1.63489e-09
      231.600   1.60929e-09
      231.700   1.58411e-09
      231.800   1.55932e-09
      231.900   1.53492e-09
      232.000   1.51090e-09
      232.100   1.48725e-09
      232.200   1.46398e-09
      232.300   1.44108e-09
      232.400   1.41852e-09
      232.500   1.39632e-09
      232.600   1.37447e-09
      232.700   1.35295e-09
      232.800   1.33178e-09
      232.900   1.31093e-09
      233.000   1.29041e-09
      233.100   1.27021e-09
      233.200   1.25031e-09
      233.300   1.23073e-09
      233.400   1.21146e-09
      233.500   1.19248e-09
      233.600   1.17381e-09
      233.700   1.15542e-09
      233.800   1.13537e-09
      233.900   1.11541e-09
      234.000   1.09579e-09
      234.100   1.07651e-09
      234.200   1.05758e-09
      234.300   1.03896e-09
      234.400   1.02067e-09
      234.500   1.00269e-09
      234.600   9.85019e-10
      234.700   9.67658e-10
      234.800   9.50600e-10
      234.900   9.33832e-10
      235.000   9.17351e-10
      235.100   9.01157e-10
      235.200   8.85244e-10
      235.300   8.69605e-10
      235.400   8.54235e-10
      235.500   8.39131e-10
      235.600   8.24293e-10
      235.700   8.09707e-10
      235.800   7.95385e-10
      235.900   7.81311e-10
      236.000   7.67479e-10
      236.100   7.53883e-10
      236.200   7.40524e-10
      236.300   7.27393e-10
      236.400   7.14493e-10
      236.500   7.01813e-10
      236.600   6.89352e-10
      236.700   6.77106e-10
      236.800   6.65070e-10
      236.900   6.53243e-10
      237.000   6.41619e-10
      237.100   6.30193e-10
      237.200   6.18967e-10
      237.300   6.07935e-10
      237.400   5.97091e-10
      237.500   5.86433e-10
      237.600   5.75952e-10
      237.700   5.65661e-10
      237.800   5.55546e-10
      237.900   5.45605e-10
      238.000   5.35838e-10
      238.100   5.26235e-10
      238.200   5.16799e-10
      238.300   5.07524e-10
      238.400   4.98408e-10
      238.500   4.89449e-10
      238.600   4.80645e-10
      238.700   4.71994e-10
      238.800   4.63490e-10
      238.900   4.55133e-10
      239.000   4.46917e-10
      239.100   4.38845e-10
      239.200   4.30913e-10
      239.300   4.23118e-10
      239.400   4.15465e-10
      239.500   4.07943e-10
      239.600   4.00549e-10
      239.700   3.93285e-10
      239.800   3.86145e-10
      239.900   3.79128e-10
      240.000   3.72234e-10
      240.100   3.65456e-10
      240.200   3.58795e-10
      240.300   3.52251e-10
      240.400   3.45818e-10
      240.500   3.39500e-10
      240.600   3.33292e-10
      240.700   3.27191e-10
      240.800   3.21199e-10
      240.900   3.15314e-10
      241.000   3.09532e-10
      241.100   3.03851e-10
      241.200   2.98271e-10
      241.300   2.92786e-10
      241.400   2.87399e-10
      241.500   2.82105e-10
      241.600   2.76905e-10
      241.700   2.71797e-10
      241.800   2.66777e-10
      241.900   2.61846e-10
      242.000   2.57003e-10
      242.100   2.52247e-10
      242.200   2.47578e-10
      242.300   2.42995e-10
      242.400   2.38492e-10
      242.500   2.34070e-10
      242.600   2.29727e-10
      242.700   2.25461e-10
      242.800   2.21272e-10
      242.900   2.17158e-10
      243.000   2.13118e-10
      243.100   2.09151e-10
      243.200   2.05254e-10
      243.300   2.01427e-10
      243.400   1.97672e-10
      243.500   1.93985e-10
      243.600   1.90370e-10
      243.700   1.86817e-10
      243.800   1.83330e-10
      243.900   1.79908e-10
      244.000   1.76546e-10
      244.100   1.73246e-10
      244.200   1.70007e-10
      244.300   1.66825e-10
      244.400   1.63703e-10
      244.500   1.60638e-10
      244.600   1.57628e-10
      244.700   1.54676e-10
      244.800   1.51780e-10
      244.900   1.48938e-10
      245.000   1.46147e-10
      245.100   1.43407e-10
      245.200   1.40719e-10
      245.300   1.38081e-10
      245.400   1.35489e-10
      245.500   1.32947e-10
      245.600   1.30452e-10
      245.700   1.28002e-10
      245.800   1.25596e-10
      245.900   1.23239e-10
      246.000   1.20927e-10
      246.100   1.18656e-10
      246.200   1.16428e-10
      246.300   1.14241e-10
      246.400   1.12095e-10
      246.500   1.09988e-10
      246.600   1.07921e-10
      246.700   1.05892e-10
      246.800   1.03900e-10
      246.900   1.01944e-10
      247.000   1.00028e-10
      247.100   9.81480e-11
      247.200   9.63032e-11
      247.300   9.44926e-11
      247.400   9.27153e-11
      247.500   9.09710e-11
      247.600   8.92591e-11
      247.700   8.75790e-11
      247.800   8.59300e-11
      247.900   8.43113e-11
      248.000   8.27230e-11
      248.100   8.11679e-11
      248.200   7.96410e-11
      248.300   7.81424e-11
      248.400   7.66716e-11
      248.500   7.52278e-11
      248.600   7.38109e-11
      248.700   7.24205e-11
      248.800   7.10559e-11
      248.900   6.97168e-11
      249.000   6.84026e-11
      249.100   6.71144e-11
      249.200   6.58512e-11
      249.300   6.46110e-11
      249.400   6.33938e-11
      249.500   6.21994e-11
      249.600   6.10269e-11
      249.700   5.98761e-11
      249.800   5.87468e-11
      249.900   5.76384e-11
      250.000   5.65510e-11
      250.100   5.54850e-11
      250.200   5.44388e-11
      250.300   5.34130e-11
      250.400   5.24060e-11
      250.500   5.14179e-11
      250.600   5.04485e-11
      250.700   4.94968e-11
      250.800   4.85629e-11
      250.900   4.76464e-11
      251.000   4.67470e-11
      251.100   4.58644e-11
      251.200   4.49988e-11
      251.300   4.41501e-11
      251.400   4.33172e-11
      251.500   4.24996e-11
      251.600   4.16973e-11
      251.700   4.09103e-11
      251.800   4.01377e-11
      251.900   3.93795e-11
      252.000   3.86352e-11
      252.100   3.79053e-11
      252.200   3.71885e-11
      252.300   3.64859e-11
      252.400   3.57962e-11
      252.500   3.51199e-11
      252.600   3.44559e-11
      252.700   3.38043e-11
      252.800   3.31648e-11
      252.900   3.25373e-11
      253.000   3.19213e-11
      253.100   3.13169e-11
      253.200   3.07237e-11
      253.300   3.01528e-11
      253.400   2.95974e-11
      253.500   2.90524e-11
      253.600   2.85176e-11
      253.700   2.79923e-11
      253.800   2.74767e-11
      253.900   2.69704e-11
      254.000   2.64730e-11
      254.100   2.59846e-11
      254.200   2.55049e-11
      254.300   2.50339e-11
      254.400   2.45713e-11
      254.500   2.41171e-11
      254.600   2.36709e-11
      254.700   2.32330e-11
      254.800   2.28032e-11
      254.900   2.23812e-11
      255.000   2.19667e-11
      255.100   2.15595e-11
      255.200   2.11596e-11
      255.300   2.07670e-11
      255.400   2.03814e-11
      255.500   2.00028e-11
      255.600   1.96309e-11
      255.700   1.92657e-11
      255.800   1.89070e-11
      255.900   1.85548e-11
      256.000   1.82088e-11
      256.100   1.78693e-11
      256.200   1.75359e-11
      256.300   1.72085e-11
      256.400   1.68872e-11
      256.500   1.65714e-11
      256.600   1.62614e-11
      256.700   1.59570e-11
      256.800   1.56580e-11
      256.900   1.53644e-11
      257.000   1.50761e-11
      257.100   1.47930e-11
      257.200   1.45150e-11
      257.300   1.42421e-11
      257.400   1.39770e-11
      257.500   1.37178e-11
      257.600   1.34636e-11
      257.700   1.32138e-11
      257.800   1.29685e-11
      257.900   1.27276e-11
      258.000   1.24910e-11
      258.100   1.22586e-11
      258.200   1.20303e-11
      258.300   1.18062e-11
      258.400   1.15860e-11
      258.500   1.13698e-11
      258.600   1.11574e-11
      258.700   1.09489e-11
      258.800   1.07441e-11
      258.900   1.05431e-11
      259.000   1.03456e-11
      259.100   1.01517e-11
      259.200   9.96125e-12
      259.300   9.77447e-12
      259.400   9.59101e-12
      259.500   9.41082e-12
      259.600   9.23397e-12
      259.700   9.06035e-12
      259.800   8.88980e-12
      259.900   8.72229e-12
      260.000   8.55791e-12
      260.100   8.39654e-12
      260.200   8.23808e-12
      260.300   8.08251e-12
      260.400   7.92981e-12
      260.500   7.77993e-12
      260.600   7.63272e-12
      260.700   7.48821e-12
      260.800   7.34646e-12
      260.900   7.20721e-12
      261.000   7.07060e-12
      261.100   6.93656e-12
      261.200   6.80495e-12
      261.300   6.67576e-12
      261.400   6.54903e-12
      261.500   6.42478e-12
      261.600   6.30332e-12
      261.700   6.18419e-12
      261.800   6.06729e-12
      261.900   5.95247e-12
      262.000   5.83979e-12
      262.100   5.72919e-12
      262.200   5.62069e-12
      262.300   5.51413e-12
      262.400   5.40959e-12
      262.500   5.30696e-12
      262.600   5.20621e-12
      262.700   5.10735e-12
      262.800   5.01034e-12
      262.900   4.91508e-12
      263.000   4.82170e-12
      263.100   4.72999e-12
      263.200   4.64006e-12
      263.300   4.55178e-12
      263.400   4.46515e-12
      263.500   4.38016e-12
      263.600   4.29677e-12
      263.700   4.21492e-12
      263.800   4.13459e-12
      263.900   4.05582e-12
      264.000   3.97849e-12
      264.100   3.90260e-12
      264.200   3.82811e-12
      264.300   3.75509e-12
      264.400   3.68342e-12
      264.500   3.61308e-12
      264.600   3.54406e-12
      264.700   3.47637e-12
      264.800   3.40991e-12
      264.900   3.34474e-12
      265.000   3.28081e-12
      265.100   3.21806e-12
      265.200   3.15650e-12
      265.300   3.09610e-12
      265.400   3.03687e-12
      265.500   2.97873e-12
      265.600   2.92173e-12
      265.700   2.86576e-12
      265.800   2.81097e-12
      265.900   2.75720e-12
      266.000   2.70449e-12
      266.100   2.65276e-12
      266.200   2.60203e-12
      266.300   2.55224e-12
      266.400   2.50342e-12
      266.500   2.45549e-12
      266.600   2.40851e-12
      266.700   2.36240e-12
      266.800   2.31720e-12
      266.900   2.27284e-12
      267.000   2.22932e-12
      267.100   2.18663e-12
      267.200   2.14478e-12
      267.300   2.10372e-12
      267.400   2.06342e-12
      267.500   2.02390e-12
      267.600   1.98514e-12
      267.700   1.94712e-12
      267.800   1.90982e-12
      267.900   1.87323e-12
      268.000   1.83736e-12
      268.100   1.80216e-12
      268.200   1.76764e-12
      268.300   1.73379e-12
      268.400   1.70057e-12
      268.500   1.66799e-12
      268.600   1.63603e-12
      268.700   1.60469e-12
      268.800   1.57395e-12
      268.900   1.54380e-12
      269.000   1.51423e-12
      269.100   1.48522e-12
      269.200   1.45678e-12
      269.300   1.42888e-12
      269.400   1.40149e-12
      269.500   1.37464e-12
      269.600   1.34831e-12
      269.700   1.32249e-12
      269.800   1.29715e-12
      269.900   1.27230e-12
      270.000   1.24794e-12
      270.100   1.22407e-12
      270.200   1.20069e-12
      270.300   1.17775e-12
      270.400   1.15525e-12
      270.500   1.13318e-12
      270.600   1.11152e-12
      270.700   1.09029e-12
      270.800   1.06946e-12
      270.900   1.04901e-12
      271.000   1.02897e-12
      271.100   1.00931e-12
      271.200   9.90013e-13
      271.300   9.71093e-13
      271.400   9.52529e-13
      271.500   9.34321e-13
      271.600   9.16450e-13
      271.700   8.98925e-13
      271.800   8.81738e-13
      271.900   8.64874e-13
      272.000   8.48335e-13
      272.100   8.32102e-13
      272.200   8.16184e-13
      272.300   8.00561e-13
      272.400   7.85235e-13
      272.500   7.70204e-13
      272.600   7.55454e-13
      272.700   7.40985e-13
      272.800   7.26789e-13
      272.900   7.12864e-13
      273.000   6.99205e-13
      273.100   6.85800e-13
      273.200   6.72648e-13
      273.300   6.59751e-13
      273.400   6.47093e-13
      273.500   6.34675e-13
      273.600   6.22492e-13
      273.700   6.10537e-13
      273.800   5.98808e-13
      273.900   5.87307e-13
      274.000   5.76019e-13
      274.100   5.64943e-13
      274.200   5.54076e-13
      274.300   5.43415e-13
      274.400   5.32515e-13
      274.500   5.20852e-13
      274.600   5.09234e-13
      274.700   4.97875e-13
      274.800   4.86758e-13
      274.900   4.75882e-13
      275.000   4.65245e-13
      275.100   4.54841e-13
      275.200   4.44665e-13
      275.300   4.34708e-13
      275.400   4.24971e-13
      275.500   4.15449e-13
      275.600   4.06128e-13
      275.700   3.97016e-13
      275.800   3.88105e-13
      275.900   3.79385e-13
      276.000   3.70857e-13
      276.100   3.62515e-13
      276.200   3.54356e-13
      276.300   3.46374e-13
      276.400   3.38569e-13
      276.500   3.30931e-13
      276.600   3.23465e-13
      276.700   3.16160e-13
      276.800   3.09018e-13
      276.900   3.02031e-13
      277.000   2.95198e-13
      277.100   2.88514e-13
      277.200   2.81977e-13
      277.300   2.75585e-13
      277.400   2.69333e-13
      277.500   2.63217e-13
      277.600   2.57239e-13
      277.700   2.51390e-13
      277.800   2.45670e-13
      277.900   2.40078e-13
      278.000   2.34609e-13
      278.100   2.29262e-13
      278.200   2.24031e-13
      278.300   2.18918e-13
      278.400   2.13919e-13
      278.500   2.09027e-13
      278.600   2.04244e-13
      278.700   1.99569e-13
      278.800   1.94998e-13
      278.900   1.90483e-13
      279.000   1.86056e-13
      279.100   1.81729e-13
      279.200   1.77499e-13
      279.300   1.73365e-13
      279.400   1.69323e-13
      279.500   1.65374e-13
      279.600   1.61514e-13
      279.700   1.57742e-13
      279.800   1.54055e-13
      279.900   1.50450e-13
      280.000   1.46928e-13
      280.100   1.43485e-13
      280.200   1.40122e-13
      280.300   1.36834e-13
      280.400   1.33620e-13
      280.500   1.30482e-13
      280.600   1.27415e-13
      280.700   1.24417e-13
      280.800   1.21488e-13
      280.900   1.18626e-13
      281.000   1.15829e-13
      281.100   1.13095e-13
      281.200   1.10425e-13
      281.300   1.07815e-13
      281.400   1.05266e-13
      281.500   1.02775e-13
      281.600   1.00341e-13
      281.700   9.79630e-14
      281.800   9.56410e-14
      281.900   9.33712e-14
      282.000   9.11535e-14
      282.100   8.89870e-14
      282.200   8.68724e-14
      282.300   8.48053e-14
      282.400   8.27858e-14
      282.500   8.08128e-14
      282.600   7.88863e-14
      282.700   7.70039e-14
      282.800   7.51645e-14
      282.900   7.33698e-14
      283.000   7.16157e-14
      283.100   6.99037e-14
      283.200   6.82312e-14
      283.300   6.65982e-14
      283.400   6.50030e-14
      283.500   6.34451e-14
      283.600   6.19230e-14
      283.700   6.04362e-14
      283.800   5.89847e-14
      283.900   5.75677e-14
      284.000   5.61833e-14
      284.100   5.48313e-14
      284.200   5.35111e-14
      284.300   5.22222e-14
      284.400   5.09634e-14
      284.500   4.97342e-14
      284.600   4.85339e-14
      284.700   4.73624e-14
      284.800   4.62183e-14
      284.900   4.51011e-14
      285.000   4.40100e-14
      285.100   4.29448e-14
      285.200   4.19052e-14
      285.300   4.08899e-14
      285.400   3.98985e-14
      285.500   3.89308e-14
      285.600   3.79865e-14
      285.700   3.70641e-14
      285.800   3.61643e-14
      285.900   3.52858e-14
      286.000   3.44287e-14
      286.100   3.35921e-14
      286.200   3.27750e-14
      286.300   3.19779e-14
      286.400   3.11999e-14
      286.500   3.04401e-14
      286.600   2.96986e-14
      286.700   2.89746e-14
      286.800   2.82682e-14
      286.900   2.75786e-14
      287.000   2.69056e-14
      287.100   2.62487e-14
      287.200   2.56078e-14
      287.300   2.49820e-14
      287.400   2.43713e-14
      287.500   2.37752e-14
      287.600   2.31936e-14
      287.700   2.26258e-14
      287.800   2.20719e-14
      287.900   2.15314e-14
      288.000   2.10040e-14
      288.100   2.04893e-14
      288.200   1.99876e-14
      288.300   1.94981e-14
      288.400   1.90201e-14
      288.500   1.85539e-14
      288.600   1.80987e-14
      288.700   1.76547e-14
      288.800   1.72214e-14
      288.900   1.67988e-14
      289.000   1.63862e-14
      289.100   1.59836e-14
      289.200   1.55909e-14
      289.300   1.52077e-14
      289.400   1.48336e-14
      289.500   1.44688e-14
      289.600   1.41128e-14
      289.700   1.37656e-14
      289.800   1.34266e-14
      289.900   1.30959e-14
      290.000   1.27733e-14
      290.100   1.24587e-14
      290.200   1.21520e-14
      290.300   1.18527e-14
      290.400   1.15608e-14
      290.500   1.12760e-14
      290.600   1.09981e-14
      290.700   1.07269e-14
      290.800   1.04625e-14
      290.900   1.02044e-14
      291.000   9.95252e-15
      291.100   9.70679e-15
      291.200   9.46714e-15
      291.300   9.23328e-15
      291.400   9.00521e-15
      291.500   8.78267e-15
      291.600   8.56551e-15
      291.700   8.35381e-15
      291.800   8.14723e-15
      291.900   7.94598e-15
      292.000   7.74963e-15
      292.100   7.55803e-15
      292.200   7.37122e-15
      292.300   7.18886e-15
      292.400   7.01098e-15
      292.500   6.83739e-15
      292.600   6.66808e-15
      292.700   6.50296e-15
      292.800   6.34189e-15
      292.900   6.18477e-15
      293.000   6.03148e-15
      293.100   5.88189e-15
      293.200   5.73598e-15
      293.300   5.59367e-15
      293.400   5.45494e-15
      293.500   5.31968e-15
      293.600   5.18776e-15
      293.700   5.05904e-15
      293.800   4.93349e-15
      293.900   4.81104e-15
      294.000   4.69156e-15
      294.100   4.57501e-15
      294.200   4.46134e-15
      294.300   4.35046e-15
      294.400   4.24222e-15
      294.500   4.13668e-15
      294.600   4.03371e-15
      294.700   3.93328e-15
      294.800   3.83531e-15
      294.900   3.73981e-15
      295.000   3.64670e-15
      295.100   3.55594e-15
      295.200   3.46737e-15
      295.300   3.38095e-15
      295.400   3.29668e-15
      295.500   3.21450e-15
      295.600   3.13430e-15
      295.700   3.05607e-15
      295.800   2.97978e-15
      295.900   2.90531e-15
      296.000   2.83268e-15
      296.100   2.76183e-15
      296.200   2.69274e-15
      296.300   2.62540e-15
      296.400   2.55981e-15
      296.500   2.49578e-15
      296.600   2.43332e-15
      296.700   2.37241e-15
      296.800   2.31300e-15
      296.900   2.25503e-15
      297.000   2.19849e-15
      297.100   2.14334e-15
      297.200   2.08955e-15
      297.300   2.03707e-15
      297.400   1.98589e-15
      297.500   1.93595e-15
      297.600   1.88729e-15
      297.700   1.83985e-15
      297.800   1.79359e-15
      297.900   1.74848e-15
      298.000   1.70449e-15
      298.100   1.66157e-15
      298.200   1.61970e-15
      298.300   1.57888e-15
      298.400   1.53905e-15
      298.500   1.50019e-15
      298.600   1.46229e-15
      298.700   1.42533e-15
      298.800   1.38927e-15
      298.900   1.35419e-15
      299.000   1.31998e-15
      299.100   1.28660e-15
      299.200   1.25404e-15
      299.300   1.22229e-15
      299.400   1.19131e-15
      299.500   1.16110e-15
      299.600   1.13165e-15
      299.700   1.10292e-15
      299.800   1.07488e-15
      299.900   1.04756e-15
      300.000   1.02091e-15
      300.100   9.94932e-16
      300.192   9.71616e-16
      300.285   9.48584e-16
      300.377   9.26332e-16
      300.470   9.04365e-16
      300.562   8.83134e-16
      300.654   8.62385e-16
      300.747   8.41889e-16
      300.839   8.22097e-16
      300.932   8.02537e-16
      301.025   7.83437e-16
      301.117   7.64986e-16
      301.210   7.46758e-16
      301.303   7.28959e-16
      301.395   7.11776e-16
      301.488   6.94776e-16
      301.581   6.78201e-16
      301.674   6.61995e-16
      301.766   6.46343e-16
      301.859   6.30882e-16
      301.952   6.15791e-16
      302.045   6.01042e-16
      302.138   5.86655e-16
      302.231   5.72614e-16
      302.324   5.58905e-16
      302.417   5.45513e-16
      302.510   5.32428e-16
      302.603   5.19667e-16
      302.696   5.07193e-16
      302.789   4.95010e-16
      302.882   4.83111e-16
      302.976   4.71375e-16
      303.069   4.60035e-16
      303.162   4.48963e-16
      303.255   4.38146e-16
      303.349   4.27472e-16
      303.442   4.17157e-16
      303.535   4.07097e-16
      303.629   3.97164e-16
      303.722   3.87572e-16
      303.816   3.78102e-16
      303.909   3.68957e-16
      304.003   3.59932e-16
      304.096   3.51213e-16
      304.190   3.42609e-16
      304.283   3.34301e-16
      304.377   3.26108e-16
      304.471   3.18104e-16
      304.564   3.10377e-16
      304.658   3.02756e-16
      304.752   2.95308e-16
      304.846   2.88046e-16
      304.939   2.81032e-16
      305.033   2.74110e-16
      305.127   2.67355e-16
      305.221   2.60763e-16
      305.315   2.54330e-16
      305.409   2.48051e-16
      305.503   2.41925e-16
      305.597   2.35946e-16
      305.691   2.30110e-16
      305.785   2.24413e-16
      305.879   2.18856e-16
      305.973   2.13435e-16
      306.067   2.08141e-16
      306.161   2.02979e-16
      306.255   1.97940e-16
      306.350   1.92971e-16
      306.444   1.88175e-16
      306.538   1.83494e-16
      306.633   1.78882e-16
      306.727   1.74427e-16
      306.821   1.70081e-16
      306.916   1.65796e-16
      307.010   1.61662e-16
      307.105   1.57587e-16
      307.199   1.53653e-16
      307.294   1.49774e-16
      307.388   1.46031e-16
      307.483   1.42341e-16
      307.577   1.38780e-16
      307.672   1.35269e-16
      307.767   1.31845e-16
      307.861   1.28542e-16
      307.956   1.25283e-16
      308.051   1.22105e-16
      308.146   1.19008e-16
      308.240   1.16020e-16
      308.335   1.13073e-16
      308.430   1.10198e-16
      308.525   1.07396e-16
      308.620   1.04664e-16
      308.715   1.02000e-16
      308.810   9.94020e-17
      308.905   9.68689e-17
      309.000   9.43994e-17
      309.095   9.19915e-17
      309.190   8.96446e-17
      309.285   8.73552e-17
      309.380   8.51232e-17
      309.476   8.29256e-17
      309.571   8.08047e-17
      309.666   7.87365e-17
      309.761   7.67210e-17
      309.857   7.47357e-17
      309.952   7.28204e-17
      310.047   7.09542e-17
      310.143   6.91152e-17
      310.238   6.73418e-17
      310.334   6.55949e-17
      310.429   6.39094e-17
      310.525   6.22503e-17
      310.620   6.06499e-17
      310.716   5.90733e-17
      310.811   5.75533e-17
      310.907   5.60568e-17
      311.003   5.45983e-17
      311.098   5.31913e-17
      311.194   5.18056e-17
      311.290   5.04558e-17
      311.386   4.91408e-17
      311.481   4.78723e-17
      311.577   4.66239e-17
      311.673   4.54069e-17
      311.769   4.42211e-17
      311.865   4.30664e-17
      311.961   4.19491e-17
      312.057   4.08940e-17
      312.153   3.98763e-17
      312.249   3.88833e-17
      312.345   3.79149e-17
      312.441   3.69698e-17
      312.537   3.60483e-17
      312.633   3.51498e-17
      312.730   3.42635e-17
      312.826   3.34088e-17
      312.922   3.25752e-17
      313.018   3.17620e-17
      313.115   3.09606e-17
      313.211   3.01870e-17
      313.307   2.94327e-17
      313.404   2.86895e-17
      313.500   2.79719e-17
      313.597   2.72654e-17
      313.693   2.65836e-17
      313.790   2.59116e-17
      313.886   2.52631e-17
      313.983   2.46239e-17
      314.079   2.40071e-17
      314.176   2.33998e-17
      314.273   2.28073e-17
      314.369   2.22360e-17
      314.466   2.16729e-17
      314.563   2.11238e-17
      314.660   2.05888e-17
      314.756   2.00723e-17
      314.853   1.95635e-17
      314.950   1.90675e-17
      315.047   1.85840e-17
      315.144   1.81126e-17
      315.241   1.76531e-17
      315.338   1.72051e-17
      315.435   1.67684e-17
      315.532   1.63428e-17
      315.629   1.59279e-17
      315.726   1.55235e-17
      315.823   1.51289e-17
      315.921   1.47408e-17
      316.018   1.43662e-17
      316.115   1.40011e-17
      316.212   1.36451e-17
      316.310   1.32947e-17
      316.407   1.29567e-17
      316.504   1.26270e-17
      316.602   1.23025e-17
      316.699   1.19896e-17
      316.796   1.16846e-17
      316.894   1.13842e-17
      316.991   1.10960e-17
      317.089   1.08217e-17
      317.187   1.05589e-17
      317.284   1.03051e-17
      317.382   1.00548e-17
      317.479   9.81293e-18
      317.577   9.57455e-18
      317.675   9.34199e-18
      317.773   9.11498e-18
      317.870   8.89577e-18
      317.968   8.67947e-18
      318.066   8.46847e-18
      318.164   8.26258e-18
      318.262   8.06170e-18
      318.360   7.86563e-18
      318.458   7.67439e-18
      318.556   7.48785e-18
      318.654   7.30576e-18
      318.752   7.12806e-18
      318.850   6.95470e-18
      318.948   6.78550e-18
      319.046   6.62040e-18
      319.144   6.45926e-18
      319.242   6.30210e-18
      319.341   6.14717e-18
      319.439   5.99755e-18
      319.537   5.85159e-18
      319.635   5.70915e-18
      319.734   5.56876e-18
      319.832   5.43319e-18
      319.930   5.30087e-18
      320.029   5.17049e-18
      320.127   5.04458e-18
      320.226   4.92048e-18
      320.324   4.80057e-18
      320.423   4.68237e-18
      320.522   4.56719e-18
      320.620   4.45592e-18
      320.719   4.34623e-18
      320.818   4.23923e-18
      320.916   4.13590e-18
      321.015   4.03404e-18
      321.114   3.93467e-18
      321.213   3.83775e-18
      321.311   3.74417e-18
      321.410   3.65196e-18
      321.509   3.56196e-18
      321.608   3.47421e-18
      321.707   3.38859e-18
      321.806   3.30505e-18
      321.905   3.22360e-18
      322.004   3.14410e-18
      322.103   3.06660e-18
      322.202   2.99097e-18
      322.301   2.91721e-18
      322.401   2.84455e-18
      322.500   2.77439e-18
      322.599   2.70595e-18
      322.698   2.63920e-18
      322.798   2.57342e-18
      322.897   2.50989e-18
      322.996   2.44794e-18
      323.096   2.38688e-18
      323.195   2.32793e-18
      323.294   2.27043e-18
      323.394   2.21380e-18
      323.493   2.15910e-18
      323.593   2.10522e-18
      323.692   2.05318e-18
      323.792   2.00193e-18
      323.892   1.95194e-18
      323.991   1.90365e-18
      324.091   1.85610e-18
      324.191   1.80972e-18
      324.291   1.76449e-18
      324.390   1.72083e-18
      324.490   1.67779e-18
      324.590   1.63584e-18
      324.690   1.59494e-18
      324.790   1.55503e-18
      324.890   1.51613e-18
      324.990   1.47817e-18
      325.090   1.44115e-18
      325.190   1.40507e-18
      325.290   1.36989e-18
      325.390   1.33554e-18
      325.490   1.30208e-18
      325.590   1.26946e-18
      325.690   1.23761e-18
      325.790   1.20657e-18
      325.891   1.17600e-18
      325.991   1.14649e-18
      326.091   1.11770e-18
      326.192   1.08936e-18
      326.292   1.06199e-18
      326.392   1.03532e-18
      326.493   1.00904e-18
      326.593   9.83663e-19
      326.694   9.58695e-19
      326.794   9.34575e-19
      326.895   9.10824e-19
      326.995   8.87890e-19
      327.096   8.65317e-19
      327.197   8.43304e-19
      327.297   8.22050e-19
      327.398   8.01123e-19
      327.499   7.80723e-19
      327.599   7.61023e-19
      327.700   7.41622e-19
      327.801   7.22711e-19
      327.902   7.04287e-19
      328.003   6.86314e-19
      328.104   6.68794e-19
      328.205   6.51716e-19
      328.306   6.35068e-19
      328.407   6.18841e-19
      328.508   6.03015e-19
      328.609   5.87590e-19
      328.710   5.72557e-19
      328.811   5.57901e-19
      328.912   5.43615e-19
      329.013   5.29687e-19
      329.115   5.15982e-19
      329.216   5.02751e-19
      329.317   4.89853e-19
      329.419   4.77166e-19
      329.520   4.64913e-19
      329.621   4.52966e-19
      329.723   4.41208e-19
      329.824   4.29873e-19
      329.926   4.18711e-19
      330.027   4.07934e-19
      330.129   3.97328e-19
      330.230   3.87100e-19
      330.332   3.77025e-19
      330.434   3.67212e-19
      330.535   3.57739e-19
      330.637   3.48417e-19
      330.739   3.39337e-19
      330.840   3.30571e-19
      330.942   3.21944e-19
      331.044   3.13540e-19
      331.146   3.05350e-19
      331.248   2.97370e-19
      331.350   2.89597e-19
      331.452   2.82030e-19
      331.554   2.74833e-19
      331.656   2.68088e-19
      331.758   2.61507e-19
      331.860   2.55080e-19
      331.962   2.48809e-19
      332.064   2.42689e-19
      332.166   2.36719e-19
      332.268   2.30888e-19
      332.371   2.25148e-19
      332.473   2.19597e-19
      332.575   2.14177e-19
      332.677   2.08893e-19
      332.780   2.03687e-19
      332.882   1.98655e-19
      332.985   1.93698e-19
      333.087   1.88905e-19
      333.190   1.84185e-19
      333.292   1.79561e-19
      333.395   1.74839e-19
      333.497   1.70221e-19
      333.600   1.65679e-19
      333.702   1.61297e-19
      333.805   1.56991e-19
      333.908   1.52792e-19
      334.011   1.48707e-19
      334.113   1.44766e-19
      334.216   1.40889e-19
      334.319   1.37115e-19
      334.422   1.33440e-19
      334.525   1.29861e-19
      334.628   1.26376e-19
      334.731   1.22985e-19
      334.834   1.19682e-19
      334.937   1.16464e-19
      335.040   1.13331e-19
      335.143   1.10283e-19
      335.246   1.07314e-19
      335.349   1.04423e-19
      335.452   1.01609e-19
      335.555   9.88701e-20
      335.659   9.61767e-20
      335.762   9.35801e-20
      335.865   9.10535e-20
      335.969   8.85693e-20
      336.072   8.61733e-20
      336.175   8.38431e-20
      336.279   8.15527e-20
      336.382   7.93444e-20
      336.486   7.71735e-20
      336.589   7.50809e-20
      336.693   7.30260e-20
      336.796   7.10448e-20
      336.900   6.90973e-20
      337.004   6.72014e-20
      337.107   6.53759e-20
      337.211   6.35806e-20
      337.315   6.18355e-20
      337.419   6.01360e-20
      337.523   5.84821e-20
      337.626   5.68888e-20
      337.730   5.53236e-20
      337.834   5.38001e-20
      337.938   5.23185e-20
      338.042   5.08792e-20
      338.146   4.94893e-20
      338.250   4.81382e-20
      338.354   4.68231e-20
      338.458   4.55429e-20
      338.562   4.42972e-20
      338.667   4.30740e-20
      338.771   4.18946e-20
      338.875   4.07472e-20
      338.979   3.96304e-20
      339.084   3.85343e-20
      339.188   3.74776e-20
      339.292   3.64496e-20
      339.397   3.54395e-20
      339.501   3.44667e-20
      339.606   3.35103e-20
      339.710   3.25894e-20
      339.815   3.16848e-20
      339.919   3.08135e-20
      340.024   2.99572e-20
      340.128   2.91329e-20
      340.233   2.83226e-20
      340.338   2.75353e-20
      340.442   2.67761e-20
      340.547   2.60309e-20
      340.652   2.53059e-20
      340.757   2.46010e-20
      340.862   2.39153e-20
      340.966   2.32549e-20
      341.071   2.26063e-20
      341.176   2.19756e-20
      341.281   2.13622e-20
      341.386   2.07660e-20
      341.491   2.01858e-20
      341.596   1.96220e-20
      341.702   1.90684e-20
      341.807   1.85352e-20
      341.912   1.80168e-20
      342.017   1.75127e-20
      342.122   1.70223e-20
      342.228   1.65415e-20
      342.333   1.60782e-20
      342.438   1.56277e-20
      342.544   1.51858e-20
      342.649   1.47600e-20
      342.754   1.43464e-20
      342.860   1.39401e-20
      342.965   1.35487e-20
      343.071   1.31652e-20
      343.176   1.27955e-20
      343.282   1.24327e-20
      343.388   1.20803e-20
      343.493   1.17421e-20
      343.599   1.14207e-20
      343.705   1.11092e-20
      343.810   1.08086e-20
      343.916   1.05136e-20
      344.022   1.02265e-20
      344.128   9.94724e-21
      344.234   9.67535e-21
      344.340   9.41098e-21
      344.446   9.15363e-21
      344.552   8.90329e-21
      344.658   8.65983e-21
      344.764   8.42306e-21
      344.870   8.19251e-21
      344.976   7.96837e-21
      345.082   7.75020e-21
      345.188   7.53812e-21
      345.294   7.33159e-21
      345.401   7.12892e-21
      345.507   6.93361e-21
      345.613   6.74365e-21
      345.719   6.55882e-21
      345.826   6.37737e-21
      345.932   6.20249e-21
      346.039   6.03084e-21
      346.145   5.86540e-21
      346.252   5.70304e-21
      346.358   5.54654e-21
      346.465   5.39300e-21
      346.571   5.24498e-21
      346.678   5.09963e-21
      346.785   4.95829e-21
      346.891   4.82216e-21
      346.998   4.68856e-21
      347.105   4.55861e-21
      347.212   4.43221e-21
      347.319   4.30928e-21
      347.425   4.19081e-21
      347.532   4.07455e-21
      347.639   3.96153e-21
      347.746   3.85161e-21
      347.853   3.74466e-21
      347.960   3.64074e-21
      348.067   3.53971e-21
      348.174   3.44146e-21
      348.281   3.34590e-21
      348.389   3.25214e-21
      348.496   3.16177e-21
      348.603   3.07402e-21
      348.710   2.98861e-21
      348.818   2.90483e-21
      348.925   2.82408e-21
      349.032   2.74561e-21
      349.140   2.66821e-21
      349.247   2.59362e-21
      349.355   2.52048e-21
      349.462   2.45001e-21
      349.570   2.38082e-21
      349.677   2.31424e-21
      349.785   2.24888e-21
      349.892   2.18598e-21
      350.000   2.12426e-21
      350.100   2.06867e-21
      350.193   2.01827e-21
      350.287   1.96853e-21
      350.380   1.92058e-21
      350.473   1.87377e-21
      350.567   1.82757e-21
      350.660   1.78302e-21
      350.754   1.73908e-21
      350.847   1.69669e-21
      350.941   1.65488e-21
      351.034   1.61453e-21
      351.128   1.57472e-21
      351.221   1.53634e-21
      351.315   1.49844e-21
      351.409   1.46148e-21
      351.502   1.42583e-21
      351.596   1.39068e-21
      351.690   1.35636e-21
      351.783   1.32327e-21
      351.877   1.29064e-21
      351.971   1.25879e-21
      352.065   1.22773e-21
      352.159   1.19743e-21
      352.252   1.16819e-21
      352.346   1.13935e-21
      352.440   1.11124e-21
      352.534   1.08382e-21
      352.628   1.05705e-21
      352.722   1.03095e-21
      352.816   1.00550e-21
      352.910   9.80675e-22
      353.004   9.56465e-22
      353.098   9.32832e-22
      353.192   9.09785e-22
      353.287   8.87071e-22
      353.381   8.65143e-22
      353.475   8.43778e-22
      353.569   8.22913e-22
      353.663   8.02582e-22
      353.758   7.82541e-22
      353.852   7.63200e-22
      353.946   7.44329e-22
      354.041   7.25729e-22
      354.135   7.07784e-22
      354.229   6.90273e-22
      354.324   6.73019e-22
      354.418   6.56370e-22
      354.513   6.39955e-22
      354.607   6.24131e-22
      354.702   6.08424e-22
      354.796   5.92899e-22
      354.891   5.77570e-22
      354.985   5.62797e-22
      355.080   5.48248e-22
      355.175   5.34063e-22
      355.269   5.20395e-22
      355.364   5.06928e-22
      355.459   4.93816e-22
      355.553   4.81164e-22
      355.648   4.68714e-22
      355.743   4.56586e-22
      355.838   4.44752e-22
      355.933   4.33241e-22
      356.027   4.22136e-22
      356.122   4.11194e-22
      356.217   4.00539e-22
      356.312   3.90165e-22
      356.407   3.80048e-22
      356.502   3.70196e-22
      356.597   3.60594e-22
      356.692   3.51242e-22
      356.787   3.42131e-22
      356.882   3.33247e-22
      356.977   3.24603e-22
      357.073   3.16091e-22
      357.168   3.07879e-22
      357.263   2.99885e-22
      357.358   2.92094e-22
      357.453   2.84506e-22
      357.549   2.77036e-22
      357.644   2.69835e-22
      357.739   2.62824e-22
      357.835   2.55914e-22
      357.930   2.49258e-22
      358.025   2.42773e-22
      358.121   2.36390e-22
      358.216   2.30236e-22
      358.312   2.24178e-22
      358.407   2.18341e-22
      358.503   2.12595e-22
      358.598   2.07058e-22
      358.694   2.01606e-22
      358.790   1.96294e-22
      358.885   1.91174e-22
      358.981   1.86136e-22
      359.076   1.81282e-22
      359.172   1.76504e-22
      359.268   1.71845e-22
      359.364   1.67311e-22
      359.459   1.62944e-22
      359.555   1.58643e-22
      359.651   1.54453e-22
      359.747   1.50373e-22
      359.843   1.46400e-22
      359.939   1.42530e-22
      360.035   1.38763e-22
      360.131   1.35096e-22
      360.227   1.31520e-22
      360.323   1.28040e-22
      360.419   1.24653e-22
      360.515   1.21353e-22
      360.611   1.18138e-22
      360.707   1.15005e-22
      360.803   1.11960e-22
      360.899   1.08991e-22
      360.995   1.06102e-22
      361.092   1.03258e-22
      361.188   1.00517e-22
      361.284   9.78485e-23
      361.380   9.52506e-23
      361.477   9.26938e-23
      361.573   9.02299e-23
      361.669   8.78316e-23
      361.766   8.54709e-23
      361.862   8.31979e-23
      361.959   8.09616e-23
      362.055   7.88040e-23
      362.152   7.66848e-23
      362.248   7.46418e-23
      362.345   7.26306e-23
      362.441   7.06952e-23
      362.538   6.87906e-23
      362.635   6.69365e-23
      362.731   6.51492e-23
      362.828   6.33913e-23
      362.925   6.16807e-23
      363.021   6.00321e-23
      363.118   5.84114e-23
      363.215   5.68326e-23
      363.312   5.52958e-23
      363.409   5.38011e-23
      363.505   5.23604e-23
      363.602   5.09428e-23
      363.699   4.95637e-23
      363.796   4.82212e-23
      363.893   4.69144e-23
      363.990   4.56426e-23
      364.087   4.44049e-23
      364.184   4.32002e-23
      364.281   4.20272e-23
      364.378   4.08861e-23
      364.475   3.97754e-23
      364.573   3.86831e-23
      364.670   3.76312e-23
      364.767   3.66076e-23
      364.864   3.56111e-23
      364.961   3.46415e-23
      365.059   3.36884e-23
      365.156   3.27706e-23
      365.253   3.18770e-23
      365.351   3.09986e-23
      365.448   3.01526e-23
      365.545   2.93296e-23
      365.643   2.85203e-23
      365.740   2.77407e-23
      365.838   2.69745e-23
      365.935   2.62370e-23
      366.033   2.55119e-23
      366.130   2.48133e-23
      366.228   2.41269e-23
      366.326   2.34593e-23
      366.423   2.28163e-23
      366.521   2.21843e-23
      366.618   2.15753e-23
      366.716   2.09771e-23
      366.814   2.03953e-23
      366.912   1.98295e-23
      367.010   1.92787e-23
      367.107   1.87485e-23
      367.205   1.82272e-23
      367.303   1.77203e-23
      367.401   1.72274e-23
      367.499   1.67477e-23
      367.597   1.62813e-23
      367.695   1.58278e-23
      367.793   1.53867e-23
      367.891   1.49577e-23
      367.989   1.45401e-23
      368.087   1.41343e-23
      368.185   1.37396e-23
      368.283   1.33555e-23
      368.381   1.29820e-23
      368.480   1.26152e-23
      368.578   1.22621e-23
      368.676   1.19189e-23
      368.774   1.15851e-23
      368.873   1.12571e-23
      368.971   1.09415e-23
      369.069   1.06345e-23
      369.168   1.03328e-23
      369.266   1.00427e-23
      369.364   9.76046e-24
      369.463   9.48329e-24
      369.561   9.21660e-24
      369.660   8.95463e-24
      369.758   8.70252e-24
      369.857   8.45498e-24
      369.955   8.21675e-24
      370.054   7.98268e-24
      370.153   7.75519e-24
      370.251   7.53634e-24
      370.350   7.32142e-24
      370.449   7.11258e-24
      370.547   6.91155e-24
      370.646   6.71401e-24
      370.745   6.52221e-24
      370.844   6.33573e-24
      370.943   6.15449e-24
      371.041   5.98013e-24
      371.140   5.80885e-24
      371.239   5.64238e-24
      371.338   5.48068e-24
      371.437   5.32354e-24
      371.536   5.17085e-24
      371.635   5.02237e-24
      371.734   4.87815e-24
      371.833   4.73801e-24
      371.932   4.60182e-24
      372.032   4.46814e-24
      372.131   4.33953e-24
      372.230   4.21465e-24
      372.329   4.09327e-24
      372.428   3.97530e-24
      372.528   3.85958e-24
      372.627   3.74831e-24
      372.726   3.64017e-24
      372.826   3.53405e-24
      372.925   3.43197e-24
      373.024   3.33278e-24
      373.124   3.23544e-24
      373.223   3.14190e-24
      373.323   3.05011e-24
      373.422   2.96180e-24
      373.522   2.87515e-24
      373.621   2.79188e-24
      373.721   2.71014e-24
      373.820   2.63157e-24
      373.920   2.55446e-24
      374.020   2.47952e-24
      374.119   2.40754e-24
      374.219   2.33687e-24
      374.319   2.26829e-24
      374.419   2.20172e-24
      374.518   2.13765e-24
      374.618   2.07482e-24
      374.718   2.01376e-24
      374.818   1.95454e-24
      374.918   1.89705e-24
      375.018   1.84118e-24
      375.118   1.78696e-24
      375.218   1.73428e-24
      375.318   1.68315e-24
      375.418   1.63348e-24
      375.518   1.58531e-24
      375.618   1.53852e-24
      375.718   1.49308e-24
      375.818   1.44897e-24
      375.918   1.40614e-24
      376.019   1.36417e-24
      376.119   1.32381e-24
      376.219   1.28464e-24
      376.319   1.24660e-24
      376.420   1.20933e-24
      376.520   1.17350e-24
      376.620   1.13874e-24
      376.721   1.10463e-24
      376.821   1.07187e-24
      376.922   1.03976e-24
      377.022   1.00889e-24
      377.122   9.78938e-25
      377.223   9.49574e-25
      377.323   9.21367e-25
      377.424   8.93701e-25
      377.525   8.66867e-25
      377.625   8.41081e-25
      377.726   8.15809e-25
      377.827   7.91287e-25
      377.927   7.67719e-25
      378.028   7.44634e-25
      378.129   7.22222e-25
      378.230   7.00473e-25
      378.330   6.79580e-25
      378.431   6.59108e-25
      378.532   6.39258e-25
      378.633   6.19981e-25
      378.734   6.01280e-25
      378.835   5.83144e-25
      378.936   5.65550e-25
      379.037   5.48481e-25
      379.138   5.31916e-25
      379.239   5.15845e-25
      379.340   5.00268e-25
      379.441   4.85149e-25
      379.542   4.70478e-25
      379.643   4.56253e-25
      379.745   4.42318e-25
      379.846   4.28929e-25
      379.947   4.15942e-25
      380.048   4.03352e-25
      380.150   3.91014e-25
      380.251   3.79165e-25
      380.352   3.67676e-25
      380.454   3.56425e-25
      380.555   3.45616e-25
      380.656   3.35129e-25
      380.758   3.24861e-25
      380.859   3.15002e-25
      380.961   3.05350e-25
      381.062   2.96079e-25
      381.164   2.86997e-25
      381.266   2.78192e-25
      381.367   2.69737e-25
      381.469   2.61459e-25
      381.570   2.53511e-25
      381.672   2.45727e-25
      381.774   2.38178e-25
      381.876   2.30859e-25
      381.977   2.23834e-25
      382.079   2.16954e-25
      382.181   2.10282e-25
      382.283   2.03819e-25
      382.385   1.97549e-25
      382.487   1.91467e-25
      382.589   1.85576e-25
      382.691   1.79864e-25
      382.793   1.74327e-25
      382.895   1.68958e-25
      382.997   1.63752e-25
      383.099   1.58707e-25
      383.201   1.53817e-25
      383.303   1.49075e-25
      383.405   1.44478e-25
      383.507   1.40022e-25
      383.610   1.35663e-25
      383.712   1.31476e-25
      383.814   1.27421e-25
      383.916   1.23489e-25
      384.019   1.19640e-25
      384.121   1.15946e-25
      384.223   1.12365e-25
      384.326   1.08862e-25
      384.428   1.05496e-25
      384.531   1.02202e-25
      384.633   9.90411e-26
      384.736   9.59469e-26
      384.838   9.29770e-26
      384.941   9.00715e-26
      385.043   8.72823e-26
      385.146   8.45543e-26
      385.249   8.19110e-26
      385.351   7.93736e-26
      385.454   7.68905e-26
      385.557   7.44859e-26
      385.660   7.21549e-26
      385.762   6.99190e-26
      385.865   6.77308e-26
      385.968   6.56100e-26
      386.071   6.35550e-26
      386.174   6.15646e-26
      386.277   5.96369e-26
      386.380   5.77687e-26
      386.483   5.59586e-26
      386.586   5.42059e-26
      386.689   5.25071e-26
      386.792   5.08610e-26
      386.895   4.92665e-26
      386.998   4.77218e-26
      387.101   4.62256e-26
      387.204   4.47749e-26
      387.308   4.33569e-26
      387.411   4.19964e-26
      387.514   4.06785e-26
      387.617   3.94020e-26
      387.721   3.81538e-26
      387.824   3.69560e-26
      387.927   3.57948e-26
      388.031   3.46600e-26
      388.134   3.35714e-26
      388.238   3.25074e-26
      388.341   3.14857e-26
      388.445   3.04870e-26
      388.548   2.95285e-26
      388.652   2.85917e-26
      388.755   2.76930e-26
      388.859   2.68141e-26
      388.962   2.59710e-26
      389.066   2.51461e-26
      389.170   2.43482e-26
      389.274   2.35748e-26
      389.377   2.28330e-26
      389.481   2.21073e-26
      389.585   2.14051e-26
      389.689   2.07249e-26
      389.793   2.00660e-26
      389.897   1.94285e-26
      390.000   1.88165e-26
      390.104   1.82184e-26
      390.208   1.76389e-26
      390.312   1.70779e-26
      390.416   1.65347e-26
      390.520   1.60084e-26
      390.625   1.54937e-26
      390.729   1.50007e-26
      390.833   1.45230e-26
      390.937   1.40604e-26
      391.041   1.36127e-26
      391.145   1.31792e-26
      391.250   1.27553e-26
      391.354   1.23490e-26
      391.458   1.19555e-26
      391.563   1.15708e-26
      391.667   1.12020e-26
      391.771   1.08450e-26
      391.876   1.04958e-26
      391.980   1.01610e-26
      392.085   9.83389e-27
      392.189   9.52021e-27
      392.294   9.21353e-27
      392.398   8.91956e-27
      392.503   8.63221e-27
      392.607   8.35667e-27
      392.712   8.08744e-27
      392.817   7.82663e-27
      392.921   7.57678e-27
      393.026   7.33245e-27
      393.131   7.09608e-27
      393.236   6.86706e-27
      393.340   6.64765e-27
      393.445   6.43323e-27
      393.550   6.22566e-27
      393.655   6.02469e-27
      393.760   5.83026e-27
      393.865   5.64199e-27
      393.970   5.45992e-27
      394.075   5.28351e-27
      394.180   5.11291e-27
      394.285   4.94772e-27
      394.390   4.78790e-27
      394.495   4.63310e-27
      394.600   4.48337e-27
      394.706   4.33709e-27
      394.811   4.19689e-27
      394.916   4.06108e-27
      395.021   3.92970e-27
      395.126   3.80265e-27
      395.232   3.67839e-27
      395.337   3.55932e-27
      395.443   3.44304e-27
      395.548   3.33157e-27
      395.653   3.22372e-27
      395.759   3.11829e-27
      395.864   3.01729e-27
      395.970   2.91862e-27
      396.075   2.82403e-27
      396.181   2.73162e-27
      396.286   2.64301e-27
      396.392   2.55655e-27
      396.498   2.47287e-27
      396.603   2.39259e-27
      396.709   2.31426e-27
      396.815   2.23844e-27
      396.921   2.16506e-27
      397.026   2.09476e-27
      397.132   2.02605e-27
      397.238   1.95964e-27
      397.344   1.89531e-27
      397.450   1.83319e-27
      397.556   1.77300e-27
      397.662   1.71479e-27
      397.768   1.65851e-27
      397.874   1.60404e-27
      397.980   1.55135e-27
      398.086   1.50036e-27
      398.192   1.45107e-27
      398.298   1.40336e-27
      398.404   1.35721e-27
      398.510   1.31257e-27
      398.617   1.26902e-27
      398.723   1.22726e-27
      398.829   1.18685e-27
      398.935   1.14777e-27
      399.042   1.10963e-27
      399.148   1.07306e-27
      399.255   1.03740e-27
      399.361   1.00321e-27
      399.467   9.70110e-28
      399.574   9.37840e-28
      399.680   9.06895e-28
      399.787   8.76690e-28
      399.893       0.00000
      400.000       0.00000
