Filter C-poly
observation_date 22-Sept-2006 22:40:45
wavelength effective area
      1.00000   2.78574e-10
      1.10000   7.95357e-10
      1.20000   2.06796e-09
      1.30000   4.94582e-09
      1.40000   1.12248e-08
      1.50000   2.39528e-08
      1.60000   4.85032e-08
      1.70000   9.41917e-08
      1.80000   1.75421e-07
      1.90000   3.15407e-07
      2.00000   5.48566e-07
      2.10000   9.26988e-07
      2.20000   1.52929e-06
      2.30000   2.45971e-06
      2.40000   3.86394e-06
      2.50000   5.90894e-06
      2.60000   9.02386e-06
      2.70000   1.34638e-05
      2.80000   1.97049e-05
      2.90000   2.85446e-05
      3.00000   4.07067e-05
      3.10000   5.73079e-05
      3.20000   7.98035e-05
      3.30000   0.000110006
      3.40000   0.000150068
      3.50000   0.000202750
      3.60000   0.000272687
      3.70000   0.000362873
      3.80000   0.000480921
      3.90000   0.000633879
      4.00000   0.000830342
      4.10000    0.00108273
      4.20000    0.00140689
      4.30000    0.00182303
      4.40000    0.00235614
      4.50000    0.00303700
      4.60000    0.00390172
      4.70000    0.00501288
      4.80000    0.00643444
      4.90000    0.00815335
      5.00000     0.0106046
      5.10000     0.0135989
      5.20000     0.0174923
      5.30000     0.0223110
      5.40000     0.0284144
      5.50000     0.0362532
      5.60000     0.0448384
      5.70000     0.0584287
      5.80000     0.0686767
      5.90000      0.105134
      6.00000      0.141706
      6.10000      0.181610
      6.20000      0.223637
      6.30000      0.263993
      6.40000      0.298945
      6.50000      0.325081
      6.60000      0.337530
      6.70000      0.349173
      6.80000      0.350757
      6.90000      0.461680
      7.00000      0.503760
      7.10000      0.534594
      7.20000      0.559657
      7.30000      0.580616
      7.40000      0.597247
      7.50000      0.611046
      7.60000      0.622110
      7.70000      0.628761
      7.80000      0.629719
      7.90000      0.631479
      8.00000      0.916707
      8.10000       1.00724
      8.20000       1.02751
      8.30000       1.04327
      8.40000       1.05507
      8.50000       1.06529
      8.60000       1.07362
      8.70000       1.08073
      8.80000       1.08628
      8.90000       1.09078
      9.00000       1.09415
      9.10000       1.09643
      9.20000       1.09782
      9.30000       1.09823
      9.40000       1.09780
      9.50000       1.09660
      9.60000       1.09454
      9.70000       1.09177
      9.80000       1.08841
      9.90000       1.08450
      10.0000       1.08009
      10.1000       1.07521
      10.2000       1.06987
      10.3000       1.06401
      10.4000       1.05765
      10.5000       1.05084
      10.6000       1.04359
      10.7000       1.03595
      10.8000       1.02790
      10.9000       1.01949
      11.0000       1.01072
      11.1000       1.00163
      11.2000      0.992230
      11.3000      0.982547
      11.4000      0.972574
      11.5000      0.962303
      11.6000      0.951754
      11.7000      0.940844
      11.8000      0.929676
      11.9000      0.918101
      12.0000      0.905165
      12.1000      0.895406
      12.2000      0.901281
      12.3000      0.897681
      12.4000      0.887398
      12.5000      0.876445
      12.6000      0.865166
      12.7000      0.853699
      12.8000      0.842093
      12.9000      0.830361
      13.0000      0.818554
      13.1000      0.806702
      13.2000      0.794831
      13.3000      0.782955
      13.4000      0.771101
      13.5000      0.759400
      13.6000      0.747832
      13.7000      0.736304
      13.8000      0.724809
      13.9000      0.713378
      14.0000      0.702008
      14.1000      0.690678
      14.2000      0.679388
      14.3000      0.668136
      14.4000      0.656903
      14.5000      0.645705
      14.6000      0.634535
      14.7000      0.623396
      14.8000      0.612298
      14.9000      0.601244
      15.0000      0.590243
      15.1000      0.579309
      15.2000      0.568458
      15.3000      0.557684
      15.4000      0.546987
      15.5000      0.536375
      15.6000      0.525882
      15.7000      0.515486
      15.8000      0.505231
      15.9000      0.495095
      16.0000      0.485078
      16.1000      0.475186
      16.2000      0.465450
      16.3000      0.455830
      16.4000      0.446316
      16.5000      0.436905
      16.6000      0.427604
      16.7000      0.418420
      16.8000      0.409331
      16.9000      0.400340
      17.0000      0.391464
      17.1000      0.382704
      17.2000      0.374036
      17.3000      0.365473
      17.4000      0.357190
      17.5000      0.349160
      17.6000      0.341355
      17.7000      0.333806
      17.8000      0.326668
      17.9000      0.319635
      18.0000      0.312652
      18.1000      0.305768
      18.2000      0.298913
      18.3000      0.292077
      18.4000      0.285237
      18.5000      0.278415
      18.6000      0.271598
      18.7000      0.264754
      18.8000      0.258018
      18.9000      0.251360
      19.0000      0.244814
      19.1000      0.238392
      19.2000      0.232061
      19.3000      0.225871
      19.4000      0.219807
      19.5000      0.213838
      19.6000      0.208046
      19.7000      0.202355
      19.8000      0.196756
      19.9000      0.191321
      20.0000      0.185961
      20.1000      0.180704
      20.2000      0.175554
      20.3000      0.170468
      20.4000      0.165510
      20.5000      0.160624
      20.6000      0.155804
      20.7000      0.151108
      20.8000      0.146464
      20.9000      0.141911
      21.0000      0.137442
      21.1000      0.133043
      21.2000      0.128725
      21.3000      0.124453
      21.4000      0.120290
      21.5000      0.116166
      21.6000      0.112079
      21.7000      0.108066
      21.8000      0.104081
      21.9000      0.100074
      22.0000     0.0960766
      22.1000     0.0920835
      22.2000     0.0879439
      22.3000     0.0836790
      22.4000     0.0781793
      22.5000     0.0723026
      22.6000     0.0612174
      22.7000     0.0545242
      22.8000     0.0705585
      22.9000     0.0903833
      23.0000      0.113952
      23.1000      0.128655
      23.2000      0.135038
      23.3000      0.135449
      23.4000      0.132894
      23.5000      0.130205
      23.6000      0.127490
      23.7000      0.124489
      23.8000      0.121476
      23.9000      0.118490
      24.0000      0.115510
      24.1000      0.112519
      24.2000      0.109550
      24.3000      0.106645
      24.4000      0.103762
      24.5000      0.100926
      24.6000     0.0981265
      24.7000     0.0953960
      24.8000     0.0927018
      24.9000     0.0900685
      25.0000     0.0874776
      25.1000     0.0849553
      25.2000     0.0824727
      25.3000     0.0800548
      25.4000     0.0776795
      25.5000     0.0753787
      25.6000     0.0731210
      25.7000     0.0709503
      25.8000     0.0688103
      25.9000     0.0667450
      26.0000     0.0647032
      26.1000     0.0627382
      26.2000     0.0607894
      26.3000     0.0589250
      26.4000     0.0570678
      26.5000     0.0552970
      26.6000     0.0535323
      26.7000     0.0518481
      26.8000     0.0501808
      26.9000     0.0485754
      27.0000     0.0469927
      27.1000     0.0454526
      27.2000     0.0439415
      27.3000     0.0425610
      27.4000     0.0413417
      27.5000     0.0401070
      27.6000     0.0388208
      27.7000     0.0375413
      27.8000     0.0363054
      27.9000     0.0350736
      28.0000     0.0339027
      28.1000     0.0327469
      28.2000     0.0316346
      28.3000     0.0305524
      28.4000     0.0294958
      28.5000     0.0284846
      28.6000     0.0274812
      28.7000     0.0265416
      28.8000     0.0256051
      28.9000     0.0247161
      29.0000     0.0238426
      29.1000     0.0229973
      29.2000     0.0221836
      29.3000     0.0213797
      29.4000     0.0206231
      29.5000     0.0198691
      29.6000     0.0191564
      29.7000     0.0184564
      29.8000     0.0177787
      29.9000     0.0171300
      30.0000     0.0164853
      30.1000     0.0158850
      30.2000     0.0152867
      30.3000     0.0154018
      30.4000     0.0159243
      30.5000     0.0162105
      30.6000     0.0156238
      30.7000     0.0150390
      30.8000     0.0144879
      30.9000     0.0139480
      31.0000     0.0134218
      31.1000     0.0129242
      31.2000     0.0124282
      31.3000     0.0119640
      31.4000     0.0115077
      31.5000     0.0110639
      31.6000     0.0106448
      31.7000     0.0102271
      31.8000    0.00983654
      31.9000    0.00945369
      32.0000    0.00907981
      32.1000    0.00872954
      32.2000    0.00838041
      32.3000    0.00805223
      32.4000    0.00773386
      32.5000    0.00742040
      32.6000    0.00713924
      32.7000    0.00685898
      32.8000    0.00659139
      32.9000    0.00633612
      33.0000    0.00608169
      33.1000    0.00585730
      33.2000    0.00563761
      33.3000    0.00542276
      33.4000    0.00522208
      33.5000    0.00502213
      33.6000    0.00483223
      33.7000    0.00464999
      33.8000    0.00446833
      33.9000    0.00430061
      34.0000    0.00413527
      34.1000    0.00397340
      34.2000    0.00382342
      34.3000    0.00367386
      34.4000    0.00353042
      34.5000    0.00339472
      34.6000    0.00325941
      34.7000    0.00313187
      34.8000    0.00300814
      34.9000    0.00288475
      35.0000    0.00277195
      35.1000    0.00266053
      35.2000    0.00255054
      35.3000    0.00245012
      35.4000    0.00234997
      35.5000    0.00225284
      35.6000    0.00216276
      35.7000    0.00207293
      35.8000    0.00198722
      35.9000    0.00190658
      36.0000    0.00182617
      36.1000    0.00175058
      36.2000    0.00167856
      36.3000    0.00160673
      36.4000    0.00154008
      36.5000    0.00147586
      36.6000    0.00141181
      36.7000    0.00135306
      36.8000    0.00129594
      36.9000    0.00123897
      37.0000    0.00118718
      37.1000    0.00113649
      37.2000    0.00108592
      37.3000    0.00104027
      37.4000   0.000995378
      37.5000   0.000950607
      37.6000   0.000910344
      37.7000   0.000870679
      37.8000   0.000831122
      37.9000   0.000795595
      38.0000   0.000760635
      38.1000   0.000725770
      38.2000   0.000694392
      38.3000   0.000663643
      38.4000   0.000632975
      38.5000   0.000605241
      38.6000   0.000578264
      38.7000   0.000551358
      38.8000   0.000526821
      38.9000   0.000503211
      39.0000   0.000479662
      39.1000   0.000457933
      39.2000   0.000437323
      39.3000   0.000416765
      39.4000   0.000397501
      39.5000   0.000379554
      39.6000   0.000361654
      39.7000   0.000344556
      39.8000   0.000328972
      39.9000   0.000313428
      40.0000   0.000298239
      40.1000   0.000284742
      40.2000   0.000271279
      40.3000   0.000257852
      40.4000   0.000246112
      40.5000   0.000234481
      40.6000   0.000222879
      40.7000   0.000212409
      40.8000   0.000202384
      40.9000   0.000192386
      41.0000   0.000183037
      41.1000   0.000174422
      41.2000   0.000165830
      41.3000   0.000157479
      41.4000   0.000150104
      41.5000   0.000142748
      41.6000   0.000135410
      41.7000   0.000128982
      41.8000   0.000122697
      41.9000   0.000116427
      42.0000   0.000110655
      42.1000   0.000105303
      42.2000   9.99633e-05
      42.3000   9.47738e-05
      42.4000   9.02281e-05
      42.5000   8.56929e-05
      42.6000   8.11687e-05
      42.7000   7.71780e-05
      42.8000   7.33367e-05
      42.9000   6.95039e-05
      43.0000   6.58940e-05
      43.1000   6.26510e-05
      43.2000   5.94158e-05
      43.3000   5.61879e-05
      43.4000     0.0566250
      43.5000      0.117374
      43.6000      0.177983
      43.7000      0.209687
      43.8000      0.207291
      43.9000      0.204900
      44.0000      0.202515
      44.1000      0.200185
      44.2000      0.197861
      44.3000      0.195544
      44.4000      0.193253
      44.5000      0.190995
      44.6000      0.188743
      44.7000      0.186496
      44.8000      0.184299
      44.9000      0.182113
      45.0000      0.179933
      45.1000      0.177772
      45.2000      0.175650
      45.3000      0.173534
      45.4000      0.171422
      45.5000      0.169350
      45.6000      0.167298
      45.7000      0.165251
      45.8000      0.163211
      45.9000      0.161222
      46.0000      0.159239
      46.1000      0.157259
      46.2000      0.155373
      46.3000      0.153642
      46.4000      0.151916
      46.5000      0.150193
      46.6000      0.148527
      46.7000      0.146891
      46.8000      0.145259
      46.9000      0.143631
      47.0000      0.142081
      47.1000      0.140540
      47.2000      0.139002
      47.3000      0.137476
      47.4000      0.135990
      47.5000      0.134507
      47.6000      0.133028
      47.7000      0.131566
      47.8000      0.130128
      47.9000      0.128694
      48.0000      0.127263
      48.1000      0.125856
      48.2000      0.124467
      48.3000      0.123082
      48.4000      0.121699
      48.5000      0.120343
      48.6000      0.119000
      48.7000      0.117660
      48.8000      0.116323
      48.9000      0.115018
      49.0000      0.113722
      49.1000      0.112429
      49.2000      0.111139
      49.3000      0.109883
      49.4000      0.108633
      49.5000      0.107386
      49.6000      0.106141
      49.7000      0.104932
      49.8000      0.103726
      49.9000      0.102523
      50.0000      0.101325
      50.1000      0.100164
      50.2000     0.0990637
      50.3000     0.0979723
      50.4000     0.0968914
      50.5000     0.0958201
      50.6000     0.0947591
      50.7000     0.0937095
      50.8000     0.0926681
      50.9000     0.0916381
      51.0000     0.0906265
      51.1000     0.0896277
      51.2000     0.0886378
      51.3000     0.0876574
      51.4000     0.0866880
      51.5000     0.0857257
      51.6000     0.0847715
      51.7000     0.0838260
      51.8000     0.0828821
      51.9000     0.0819464
      52.0000     0.0810192
      52.1000     0.0801009
      52.2000     0.0791914
      52.3000     0.0782894
      52.4000     0.0773963
      52.5000     0.0765119
      52.6000     0.0756348
      52.7000     0.0747646
      52.8000     0.0739019
      52.9000     0.0730474
      53.0000     0.0722014
      53.1000     0.0713632
      53.2000     0.0705345
      53.3000     0.0697141
      53.4000     0.0689008
      53.5000     0.0680947
      53.6000     0.0672955
      53.7000     0.0665037
      53.8000     0.0657211
      53.9000     0.0649460
      54.0000     0.0641791
      54.1000     0.0634210
      54.2000     0.0626688
      54.3000     0.0619237
      54.4000     0.0611860
      54.5000     0.0604552
      54.6000     0.0597330
      54.7000     0.0590179
      54.8000     0.0583105
      54.9000     0.0576103
      55.0000     0.0569169
      55.1000     0.0562295
      55.2000     0.0555233
      55.3000     0.0548014
      55.4000     0.0540868
      55.5000     0.0533800
      55.6000     0.0526809
      55.7000     0.0519899
      55.8000     0.0513060
      55.9000     0.0506288
      56.0000     0.0499667
      56.1000     0.0493003
      56.2000     0.0486308
      56.3000     0.0479686
      56.4000     0.0473140
      56.5000     0.0466661
      56.6000     0.0460253
      56.7000     0.0453925
      56.8000     0.0447665
      56.9000     0.0441499
      57.0000     0.0435396
      57.1000     0.0429355
      57.2000     0.0423373
      57.3000     0.0417459
      57.4000     0.0411610
      57.5000     0.0405835
      57.6000     0.0400125
      57.7000     0.0394481
      57.8000     0.0388914
      57.9000     0.0383421
      58.0000     0.0377990
      58.1000     0.0372611
      58.2000     0.0367303
      58.3000     0.0362058
      58.4000     0.0356875
      58.5000     0.0351753
      58.6000     0.0346701
      58.7000     0.0341707
      58.8000     0.0336776
      58.9000     0.0331902
      59.0000     0.0327087
      59.1000     0.0322328
      59.2000     0.0317631
      59.3000     0.0312992
      59.4000     0.0308415
      59.5000     0.0303894
      59.6000     0.0299432
      59.7000     0.0295018
      59.8000     0.0290662
      59.9000     0.0286357
      60.0000     0.0282110
      60.1000     0.0277914
      60.2000     0.0273776
      60.3000     0.0269693
      60.4000     0.0265661
      60.5000     0.0261685
      60.6000     0.0257754
      60.7000     0.0253864
      60.8000     0.0250021
      60.9000     0.0246230
      61.0000     0.0242487
      61.1000     0.0238798
      61.2000     0.0235155
      61.3000     0.0231565
      61.4000     0.0228019
      61.5000     0.0224520
      61.6000     0.0221062
      61.7000     0.0217647
      61.8000     0.0214288
      61.9000     0.0210983
      62.0000     0.0207722
      62.1000     0.0204505
      62.2000     0.0201335
      62.3000     0.0198205
      62.4000     0.0195120
      62.5000     0.0192073
      62.6000     0.0189066
      62.7000     0.0186095
      62.8000     0.0183182
      62.9000     0.0180307
      63.0000     0.0177473
      63.1000     0.0174681
      63.2000     0.0171924
      63.3000     0.0169204
      63.4000     0.0166516
      63.5000     0.0163873
      63.6000     0.0161263
      63.7000     0.0158689
      63.8000     0.0156154
      63.9000     0.0153656
      64.0000     0.0151195
      64.1000     0.0148766
      64.2000     0.0146378
      64.3000     0.0144020
      64.4000     0.0141694
      64.5000     0.0139399
      64.6000     0.0137134
      64.7000     0.0134904
      64.8000     0.0132704
      64.9000     0.0130537
      65.0000     0.0128400
      65.1000     0.0126297
      65.2000     0.0124226
      65.3000     0.0122182
      65.4000     0.0120169
      65.5000     0.0118184
      65.6000     0.0116225
      65.7000     0.0114295
      65.8000     0.0112395
      65.9000     0.0110528
      66.0000     0.0108687
      66.1000     0.0106875
      66.2000     0.0105091
      66.3000     0.0103332
      66.4000     0.0101600
      66.5000    0.00998904
      66.6000    0.00982068
      66.7000    0.00965490
      66.8000    0.00949160
      66.9000    0.00933412
      67.0000    0.00918189
      67.1000    0.00903256
      67.2000    0.00888564
      67.3000    0.00874069
      67.4000    0.00859796
      67.5000    0.00845718
      67.6000    0.00831836
      67.7000    0.00818160
      67.8000    0.00804642
      67.9000    0.00791294
      68.0000    0.00778218
      68.1000    0.00765401
      68.2000    0.00752777
      68.3000    0.00740332
      68.4000    0.00728086
      68.5000    0.00716037
      68.6000    0.00704143
      68.7000    0.00692430
      68.8000    0.00680885
      68.9000    0.00669681
      69.0000    0.00659605
      69.1000    0.00650541
      69.2000    0.00641754
      69.3000    0.00633216
      69.4000    0.00625009
      69.5000    0.00616618
      69.6000    0.00607941
      69.7000    0.00599608
      69.8000    0.00591702
      69.9000    0.00583905
      70.0000    0.00576181
      70.1000    0.00568394
      70.2000    0.00560995
      70.3000    0.00553988
      70.4000    0.00547002
      70.5000    0.00540179
      70.6000    0.00533518
      70.7000    0.00526949
      70.8000    0.00520439
      70.9000    0.00513765
      71.0000    0.00506948
      71.1000    0.00500444
      71.2000    0.00494271
      71.3000    0.00487706
      71.4000    0.00480642
      71.5000    0.00474149
      71.6000    0.00468480
      71.7000    0.00462754
      71.8000    0.00456836
      71.9000    0.00451124
      72.0000    0.00445851
      72.1000    0.00440467
      72.2000    0.00434245
      72.3000    0.00428123
      72.4000    0.00422780
      72.5000    0.00417502
      72.6000    0.00412280
      72.7000    0.00407134
      72.8000    0.00402046
      72.9000    0.00397018
      73.0000    0.00392182
      73.1000    0.00387462
      73.2000    0.00382796
      73.3000    0.00378193
      73.4000    0.00373685
      73.5000    0.00369303
      73.6000    0.00364978
      73.7000    0.00360702
      73.8000    0.00356467
      73.9000    0.00352279
      74.0000    0.00348163
      74.1000    0.00344435
      74.2000    0.00340855
      74.3000    0.00336972
      74.4000    0.00332863
      74.5000    0.00328873
      74.6000    0.00325083
      74.7000    0.00321331
      74.8000    0.00317620
      74.9000    0.00313949
      75.0000    0.00310274
      75.1000    0.00306625
      75.2000    0.00303021
      75.3000    0.00299456
      75.4000    0.00295960
      75.5000    0.00292581
      75.6000    0.00289239
      75.7000    0.00285928
      75.8000    0.00282664
      75.9000    0.00279481
      76.0000    0.00276342
      76.1000    0.00273238
      76.2000    0.00270167
      76.3000    0.00267133
      76.4000    0.00264184
      76.5000    0.00261275
      76.6000    0.00258391
      76.7000    0.00255531
      76.8000    0.00252704
      76.9000    0.00249909
      77.0000    0.00247141
      77.1000    0.00244400
      77.2000    0.00241691
      77.3000    0.00239006
      77.4000    0.00236349
      77.5000    0.00233722
      77.6000    0.00231071
      77.7000    0.00228440
      77.8000    0.00225836
      77.9000    0.00223258
      78.0000    0.00220669
      78.1000    0.00218012
      78.2000    0.00215391
      78.3000    0.00213007
      78.4000    0.00210718
      78.5000    0.00208434
      78.6000    0.00206114
      78.7000    0.00203818
      78.8000    0.00201463
      78.9000    0.00199114
      79.0000    0.00196787
      79.1000    0.00194482
      79.2000    0.00192209
      79.3000    0.00190029
      79.4000    0.00187893
      79.5000    0.00185755
      79.6000    0.00183573
      79.7000    0.00181413
      79.8000    0.00179239
      79.9000    0.00177074
      80.0000    0.00174930
      80.1000    0.00172730
      80.2000    0.00170547
      80.3000    0.00168307
      80.4000    0.00166018
      80.5000    0.00163751
      80.6000    0.00161510
      80.7000    0.00159298
      80.8000    0.00157123
      80.9000    0.00155000
      81.0000    0.00152906
      81.1000    0.00150844
      81.2000    0.00148809
      81.3000    0.00146801
      81.4000    0.00144965
      81.5000    0.00143161
      81.6000    0.00141418
      81.7000    0.00139782
      81.8000    0.00138170
      81.9000    0.00136636
      82.0000    0.00135145
      82.1000    0.00133673
      82.2000    0.00132170
      82.3000    0.00130686
      82.4000    0.00129248
      82.5000    0.00127874
      82.6000    0.00126512
      82.7000    0.00125124
      82.8000    0.00123702
      82.9000    0.00122293
      83.0000    0.00120915
      83.1000    0.00119557
      83.2000    0.00118212
      83.3000    0.00116880
      83.4000    0.00115566
      83.5000    0.00114269
      83.6000    0.00113015
      83.7000    0.00111775
      83.8000    0.00110541
      83.9000    0.00109299
      84.0000    0.00108069
      84.1000    0.00106868
      84.2000    0.00105710
      84.3000    0.00104561
      84.4000    0.00103409
      84.5000    0.00102258
      84.6000    0.00101119
      84.7000    0.00100011
      84.8000   0.000989233
      84.9000   0.000978490
      85.0000   0.000967606
      85.1000   0.000956758
      85.2000   0.000946026
      85.3000   0.000935826
      85.4000   0.000925814
      85.5000   0.000915917
      85.6000   0.000905891
      85.7000   0.000895949
      85.8000   0.000886106
      85.9000   0.000876357
      86.0000   0.000866685
      86.1000   0.000857104
      86.2000   0.000847909
      86.3000   0.000838820
      86.4000   0.000829810
      86.5000   0.000820874
      86.6000   0.000812023
      86.7000   0.000803268
      86.8000   0.000793976
      86.9000   0.000784757
      87.0000   0.000775655
      87.1000   0.000766800
      87.2000   0.000758059
      87.3000   0.000749400
      87.4000   0.000740611
      87.5000   0.000731880
      87.6000   0.000723232
      87.7000   0.000714795
      87.8000   0.000706464
      87.9000   0.000698220
      88.0000   0.000690068
      88.1000   0.000681991
      88.2000   0.000674002
      88.3000   0.000666262
      88.4000   0.000658772
      88.5000   0.000651393
      88.6000   0.000644028
      88.7000   0.000636649
      88.8000   0.000629351
      88.9000   0.000622121
      89.0000   0.000614934
      89.1000   0.000607823
      89.2000   0.000600783
      89.3000   0.000593807
      89.4000   0.000586885
      89.5000   0.000580028
      89.6000   0.000573239
      89.7000   0.000566521
      89.8000   0.000559871
      89.9000   0.000553285
      90.0000   0.000546764
      90.1000   0.000540323
      90.2000   0.000533824
      90.3000   0.000527097
      90.4000   0.000520435
      90.5000   0.000513850
      90.6000   0.000507461
      90.7000   0.000501022
      90.8000   0.000494512
      90.9000   0.000487907
      91.0000   0.000481346
      91.1000   0.000474871
      91.2000   0.000468398
      91.3000   0.000461881
      91.4000   0.000455426
      91.5000   0.000449066
      91.6000   0.000442801
      91.7000   0.000437081
      91.8000   0.000432140
      91.9000   0.000428094
      92.0000   0.000423559
      92.1000   0.000418960
      92.2000   0.000414118
      92.3000   0.000409073
      92.4000   0.000403938
      92.5000   0.000398878
      92.6000   0.000393880
      92.7000   0.000388939
      92.8000   0.000384051
      92.9000   0.000379272
      93.0000   0.000374673
      93.1000   0.000370126
      93.2000   0.000365635
      93.3000   0.000361338
      93.4000   0.000357138
      93.5000   0.000352980
      93.6000   0.000348863
      93.7000   0.000344789
      93.8000   0.000340776
      93.9000   0.000336805
      94.0000   0.000332877
      94.1000   0.000328994
      94.2000   0.000325159
      94.3000   0.000321394
      94.4000   0.000317759
      94.5000   0.000314172
      94.6000   0.000310629
      94.7000   0.000307129
      94.8000   0.000303662
      94.9000   0.000300229
      95.0000   0.000296834
      95.1000   0.000293487
      95.2000   0.000290164
      95.3000   0.000286866
      95.4000   0.000283604
      95.5000   0.000280429
      95.6000   0.000277286
      95.7000   0.000274173
      95.8000   0.000271056
      95.9000   0.000267956
      96.0000   0.000264885
      96.1000   0.000261843
      96.2000   0.000258827
      96.3000   0.000255850
      96.4000   0.000252901
      96.5000   0.000249985
      96.6000   0.000247113
      96.7000   0.000244286
      96.8000   0.000241480
      96.9000   0.000238697
      97.0000   0.000235940
      97.1000   0.000233226
      97.2000   0.000230537
      97.3000   0.000227839
      97.4000   0.000225138
      97.5000   0.000222475
      97.6000   0.000219843
      97.7000   0.000217254
      97.8000   0.000214704
      97.9000   0.000212185
      98.0000   0.000209689
      98.1000   0.000207215
      98.2000   0.000204772
      98.3000   0.000202514
      98.4000   0.000200353
      98.5000   0.000198260
      98.6000   0.000196189
      98.7000   0.000194138
      98.8000   0.000192105
      98.9000   0.000190089
      99.0000   0.000188098
      99.1000   0.000186124
      99.2000   0.000184157
      99.3000   0.000182154
      99.4000   0.000180178
      99.5000   0.000178220
      99.6000   0.000176292
      99.7000   0.000174466
      99.8000   0.000172697
      99.9000   0.000171273
      100.000   0.000170367
      100.100   0.000169406
      100.200   0.000168446
      100.300   0.000167489
      100.400   0.000166537
      100.500   0.000165613
      100.600   0.000164690
      100.700   0.000163768
      100.800   0.000162846
      100.900   0.000161928
      101.000   0.000161015
      101.100   0.000160107
      101.200   0.000159203
      101.300   0.000158302
      101.400   0.000157402
      101.500   0.000156508
      101.600   0.000155619
      101.700   0.000154749
      101.800   0.000153887
      101.900   0.000153027
      102.000   0.000152174
      102.100   0.000151349
      102.200   0.000150540
      102.300   0.000149736
      102.400   0.000148933
      102.500   0.000148131
      102.600   0.000147330
      102.700   0.000146531
      102.800   0.000145734
      102.900   0.000144939
      103.000   0.000144145
      103.100   0.000143352
      103.200   0.000142561
      103.300   0.000141773
      103.400   0.000140988
      103.500   0.000140205
      103.600   0.000139425
      103.700   0.000138643
      103.800   0.000137832
      103.900   0.000136986
      104.000   0.000136145
      104.100   0.000135310
      104.200   0.000134495
      104.300   0.000133780
      104.400   0.000133071
      104.500   0.000132365
      104.600   0.000131661
      104.700   0.000130928
      104.800   0.000130184
      104.900   0.000129441
      105.000   0.000128700
      105.100   0.000127985
      105.200   0.000127327
      105.300   0.000126673
      105.400   0.000126019
      105.500   0.000125366
      105.600   0.000124726
      105.700   0.000124089
      105.800   0.000123453
      105.900   0.000122820
      106.000   0.000122207
      106.100   0.000121634
      106.200   0.000121064
      106.300   0.000120496
      106.400   0.000119929
      106.500   0.000119364
      106.600   0.000118801
      106.700   0.000118240
      106.800   0.000117678
      106.900   0.000117119
      107.000   0.000116561
      107.100   0.000116007
      107.200   0.000115456
      107.300   0.000114906
      107.400   0.000114356
      107.500   0.000113804
      107.600   0.000113253
      107.700   0.000112704
      107.800   0.000112157
      107.900   0.000111603
      108.000   0.000111050
      108.100   0.000110497
      108.200   0.000109945
      108.300   0.000109394
      108.400   0.000108836
      108.500   0.000108280
      108.600   0.000107725
      108.700   0.000107170
      108.800   0.000106589
      108.900   0.000105971
      109.000   0.000105354
      109.100   0.000104740
      109.200   0.000104128
      109.300   0.000103519
      109.400   0.000102912
      109.500   0.000102307
      109.600   0.000101706
      109.700   0.000101107
      109.800   0.000100512
      109.900   9.99197e-05
      110.000   9.93298e-05
      110.100   9.87418e-05
      110.200   9.81557e-05
      110.300   9.75883e-05
      110.400   9.70250e-05
      110.500   9.64647e-05
      110.600   9.59069e-05
      110.700   9.53509e-05
      110.800   9.47960e-05
      110.900   9.42424e-05
      111.000   9.36901e-05
      111.100   9.31391e-05
      111.200   9.25913e-05
      111.300   9.20767e-05
      111.400   9.15635e-05
      111.500   9.10511e-05
      111.600   9.05402e-05
      111.700   9.00328e-05
      111.800   8.95475e-05
      111.900   8.90654e-05
      112.000   8.85852e-05
      112.100   8.81064e-05
      112.200   8.76288e-05
      112.300   8.71326e-05
      112.400   8.66373e-05
      112.500   8.61444e-05
      112.600   8.56538e-05
      112.700   8.51686e-05
      112.800   8.47043e-05
      112.900   8.41950e-05
      113.000   8.37036e-05
      113.100   8.32211e-05
      113.200   8.27317e-05
      113.300   8.22548e-05
      113.400   8.16752e-05
      113.500   8.10720e-05
      113.600   8.05615e-05
      113.700   8.00254e-05
      113.800   7.94306e-05
      113.900   7.89270e-05
      114.000   7.84256e-05
      114.100   7.78640e-05
      114.200   7.73364e-05
      114.300   7.68607e-05
      114.400   7.63734e-05
      114.500   7.58741e-05
      114.600   7.54410e-05
      114.700   7.49610e-05
      114.800   7.45150e-05
      114.900   7.41457e-05
      115.000   7.37224e-05
      115.100   7.32680e-05
      115.200   7.28118e-05
      115.300   7.24251e-05
      115.400   7.19755e-05
      115.500   7.15599e-05
      115.600   7.11193e-05
      115.700   7.06402e-05
      115.800   7.02171e-05
      115.900   6.97669e-05
      116.000   6.93648e-05
      116.100   6.90357e-05
      116.200   6.87018e-05
      116.300   6.83560e-05
      116.400   6.79882e-05
      116.500   6.76718e-05
      116.600   6.73399e-05
      116.700   6.70213e-05
      116.800   6.66884e-05
      116.900   6.62950e-05
      117.000   6.59722e-05
      117.100   6.58483e-05
      117.200   6.58633e-05
      117.300   6.57400e-05
      117.400   6.56067e-05
      117.500   6.54749e-05
      117.600   6.52631e-05
      117.700   6.50205e-05
      117.800   6.47368e-05
      117.900   6.44327e-05
      118.000   6.40897e-05
      118.100   6.37095e-05
      118.200   6.33607e-05
      118.300   6.30256e-05
      118.400   6.25429e-05
      118.500   6.20745e-05
      118.600   6.16762e-05
      118.700   6.12555e-05
      118.800   6.08037e-05
      118.900   6.03764e-05
      119.000   5.98713e-05
      119.100   5.92784e-05
      119.200   5.87647e-05
      119.300   5.83180e-05
      119.400   5.79103e-05
      119.500   5.75208e-05
      119.600   5.70814e-05
      119.700   5.65837e-05
      119.800   5.59691e-05
      119.900   5.52002e-05
      120.000   5.44864e-05
      120.100   5.38174e-05
      120.200   5.33457e-05
      120.300   5.29875e-05
      120.400   5.26292e-05
      120.500   5.21158e-05
      120.600   5.14864e-05
      120.700   5.08227e-05
      120.800   5.01881e-05
      120.900   4.97594e-05
      121.000   4.96480e-05
      121.100   4.94804e-05
      121.200   4.91557e-05
      121.300   4.87207e-05
      121.400   4.82031e-05
      121.500   4.76245e-05
      121.600   4.68021e-05
      121.700   4.60840e-05
      121.800   4.52842e-05
      121.900   4.44789e-05
      122.000   4.36208e-05
      122.100   4.28131e-05
      122.200   4.20190e-05
      122.300   4.14364e-05
      122.400   4.10802e-05
      122.500   4.07730e-05
      122.600   4.04387e-05
      122.700   4.01040e-05
      122.800   3.97207e-05
      122.900   3.93681e-05
      123.000   3.92737e-05
      123.100   3.96247e-05
      123.200   4.00038e-05
      123.300   4.06096e-05
      123.400   4.14020e-05
      123.500   4.24610e-05
      123.600   4.33625e-05
      123.700   4.38070e-05
      123.800   4.41208e-05
      123.900   4.45625e-05
      124.000   4.52119e-05
      124.100   4.65401e-05
      124.200   4.93134e-05
      124.300   5.34888e-05
      124.400   5.75038e-05
      124.500   5.86183e-05
      124.600   5.83928e-05
      124.700   5.80143e-05
      124.800   5.76532e-05
      124.900   5.72925e-05
      125.000   5.69315e-05
      125.100   5.65575e-05
      125.200   5.61836e-05
      125.300   5.58113e-05
      125.400   5.54407e-05
      125.500   5.50719e-05
      125.600   5.47045e-05
      125.700   5.43391e-05
      125.800   5.39754e-05
      125.900   5.36137e-05
      126.000   5.32542e-05
      126.100   5.28967e-05
      126.200   5.25414e-05
      126.300   5.21881e-05
      126.400   5.18366e-05
      126.500   5.14869e-05
      126.600   5.11389e-05
      126.700   5.07927e-05
      126.800   5.04482e-05
      126.900   5.01053e-05
      127.000   4.97628e-05
      127.100   4.94170e-05
      127.200   4.90706e-05
      127.300   4.87253e-05
      127.400   4.83818e-05
      127.500   4.80399e-05
      127.600   4.77000e-05
      127.700   4.73620e-05
      127.800   4.70258e-05
      127.900   4.66915e-05
      128.000   4.63591e-05
      128.100   4.60284e-05
      128.200   4.56993e-05
      128.300   4.53719e-05
      128.400   4.50461e-05
      128.500   4.47219e-05
      128.600   4.43991e-05
      128.700   4.40783e-05
      128.800   4.37590e-05
      128.900   4.34415e-05
      129.000   4.31258e-05
      129.100   4.28110e-05
      129.200   4.24953e-05
      129.300   4.21812e-05
      129.400   4.18690e-05
      129.500   4.15587e-05
      129.600   4.12503e-05
      129.700   4.09439e-05
      129.800   4.06393e-05
      129.900   4.03368e-05
      130.000   4.00361e-05
      130.100   3.97374e-05
      130.200   3.94404e-05
      130.300   3.91454e-05
      130.400   3.88525e-05
      130.500   3.85614e-05
      130.600   3.82722e-05
      130.700   3.79851e-05
      130.800   3.77000e-05
      130.900   3.74168e-05
      131.000   3.71353e-05
      131.100   3.68556e-05
      131.200   3.65772e-05
      131.300   3.62998e-05
      131.400   3.60239e-05
      131.500   3.57496e-05
      131.600   3.54769e-05
      131.700   3.52057e-05
      131.800   3.49361e-05
      131.900   3.46679e-05
      132.000   3.44013e-05
      132.100   3.41362e-05
      132.200   3.38726e-05
      132.300   3.36106e-05
      132.400   3.33502e-05
      132.500   3.30915e-05
      132.600   3.28345e-05
      132.700   3.25791e-05
      132.800   3.23254e-05
      132.900   3.20733e-05
      133.000   3.18226e-05
      133.100   3.15735e-05
      133.200   3.13260e-05
      133.300   3.10798e-05
      133.400   3.08350e-05
      133.500   3.05916e-05
      133.600   3.03499e-05
      133.700   3.01098e-05
      133.800   2.98713e-05
      133.900   2.96346e-05
      134.000   2.93995e-05
      134.100   2.91660e-05
      134.200   2.89341e-05
      134.300   2.87037e-05
      134.400   2.84750e-05
      134.500   2.82480e-05
      134.600   2.80224e-05
      134.700   2.77985e-05
      134.800   2.75762e-05
      134.900   2.73553e-05
      135.000   2.71360e-05
      135.100   2.69182e-05
      135.200   2.67019e-05
      135.300   2.64872e-05
      135.400   2.62739e-05
      135.500   2.60613e-05
      135.600   2.58497e-05
      135.700   2.56395e-05
      135.800   2.54308e-05
      135.900   2.52234e-05
      136.000   2.50174e-05
      136.100   2.48127e-05
      136.200   2.46096e-05
      136.300   2.44076e-05
      136.400   2.42069e-05
      136.500   2.40076e-05
      136.600   2.38094e-05
      136.700   2.36125e-05
      136.800   2.34169e-05
      136.900   2.32226e-05
      137.000   2.30295e-05
      137.100   2.28377e-05
      137.200   2.26472e-05
      137.300   2.24582e-05
      137.400   2.22704e-05
      137.500   2.20840e-05
      137.600   2.18989e-05
      137.700   2.17148e-05
      137.800   2.15318e-05
      137.900   2.13501e-05
      138.000   2.11698e-05
      138.100   2.09908e-05
      138.200   2.08133e-05
      138.300   2.06371e-05
      138.400   2.04622e-05
      138.500   2.02886e-05
      138.600   2.01162e-05
      138.700   1.99452e-05
      138.800   1.97756e-05
      138.900   1.96071e-05
      139.000   1.94400e-05
      139.100   1.92741e-05
      139.200   1.91097e-05
      139.300   1.89464e-05
      139.400   1.87843e-05
      139.500   1.86235e-05
      139.600   1.84638e-05
      139.700   1.83053e-05
      139.800   1.81479e-05
      139.900   1.79917e-05
      140.000   1.78365e-05
      140.100   1.76825e-05
      140.200   1.75296e-05
      140.300   1.73778e-05
      140.400   1.72271e-05
      140.500   1.70774e-05
      140.600   1.69289e-05
      140.700   1.67814e-05
      140.800   1.66351e-05
      140.900   1.64900e-05
      141.000   1.63459e-05
      141.100   1.62028e-05
      141.200   1.60608e-05
      141.300   1.59198e-05
      141.400   1.57798e-05
      141.500   1.56409e-05
      141.600   1.55030e-05
      141.700   1.53662e-05
      141.800   1.52303e-05
      141.900   1.50954e-05
      142.000   1.49616e-05
      142.100   1.48346e-05
      142.200   1.47254e-05
      142.300   1.46315e-05
      142.400   1.45381e-05
      142.500   1.44449e-05
      142.600   1.43522e-05
      142.700   1.42598e-05
      142.800   1.41678e-05
      142.900   1.40763e-05
      143.000   1.39851e-05
      143.100   1.38944e-05
      143.200   1.38042e-05
      143.300   1.37143e-05
      143.400   1.36250e-05
      143.500   1.35360e-05
      143.600   1.34474e-05
      143.700   1.33592e-05
      143.800   1.32714e-05
      143.900   1.31841e-05
      144.000   1.30972e-05
      144.100   1.30106e-05
      144.200   1.29245e-05
      144.300   1.28386e-05
      144.400   1.27546e-05
      144.500   1.26901e-05
      144.600   1.26316e-05
      144.700   1.25738e-05
      144.800   1.25160e-05
      144.900   1.24581e-05
      145.000   1.24002e-05
      145.100   1.23423e-05
      145.200   1.22844e-05
      145.300   1.22264e-05
      145.400   1.21684e-05
      145.500   1.21104e-05
      145.600   1.20524e-05
      145.700   1.19943e-05
      145.800   1.19362e-05
      145.900   1.18782e-05
      146.000   1.18201e-05
      146.100   1.17619e-05
      146.200   1.17038e-05
      146.300   1.16457e-05
      146.400   1.15876e-05
      146.500   1.15296e-05
      146.600   1.14715e-05
      146.700   1.14136e-05
      146.800   1.13550e-05
      146.900   1.12954e-05
      147.000   1.12359e-05
      147.100   1.11765e-05
      147.200   1.11171e-05
      147.300   1.10578e-05
      147.400   1.09987e-05
      147.500   1.09395e-05
      147.600   1.08805e-05
      147.700   1.08216e-05
      147.800   1.07628e-05
      147.900   1.07040e-05
      148.000   1.06454e-05
      148.100   1.05869e-05
      148.200   1.05285e-05
      148.300   1.04702e-05
      148.400   1.04121e-05
      148.500   1.03541e-05
      148.600   1.02962e-05
      148.700   1.02385e-05
      148.800   1.01809e-05
      148.900   1.01235e-05
      149.000   1.00662e-05
      149.100   1.00091e-05
      149.200   9.95208e-06
      149.300   9.89515e-06
      149.400   9.83836e-06
      149.500   9.78174e-06
      149.600   9.72524e-06
      149.700   9.66887e-06
      149.800   9.61263e-06
      149.900   9.55653e-06
      150.000   9.50054e-06
      150.100   9.44471e-06
      150.200   9.38897e-06
      150.300   9.33339e-06
      150.400   9.27794e-06
      150.500   9.22260e-06
      150.600   9.16740e-06
      150.700   9.11230e-06
      150.800   9.05736e-06
      150.900   9.00255e-06
      151.000   8.94783e-06
      151.100   8.89326e-06
      151.200   8.83881e-06
      151.300   8.78449e-06
      151.400   8.73030e-06
      151.500   8.67628e-06
      151.600   8.62250e-06
      151.700   8.56901e-06
      151.800   8.51565e-06
      151.900   8.46240e-06
      152.000   8.40933e-06
      152.100   8.35642e-06
      152.200   8.30368e-06
      152.300   8.25108e-06
      152.400   8.19866e-06
      152.500   8.14641e-06
      152.600   8.09434e-06
      152.700   8.04245e-06
      152.800   7.99074e-06
      152.900   7.93927e-06
      153.000   7.88795e-06
      153.100   7.83685e-06
      153.200   7.78593e-06
      153.300   7.73522e-06
      153.400   7.68471e-06
      153.500   7.63436e-06
      153.600   7.58423e-06
      153.700   7.53431e-06
      153.800   7.48457e-06
      153.900   7.43503e-06
      154.000   7.38655e-06
      154.100   7.34021e-06
      154.200   7.29468e-06
      154.300   7.24929e-06
      154.400   7.20406e-06
      154.500   7.15897e-06
      154.600   7.11403e-06
      154.700   7.06924e-06
      154.800   7.02459e-06
      154.900   6.98008e-06
      155.000   6.93571e-06
      155.100   6.89151e-06
      155.200   6.84743e-06
      155.300   6.80353e-06
      155.400   6.75977e-06
      155.500   6.71617e-06
      155.600   6.67269e-06
      155.700   6.62937e-06
      155.800   6.58620e-06
      155.900   6.54316e-06
      156.000   6.50028e-06
      156.100   6.45754e-06
      156.200   6.41495e-06
      156.300   6.37248e-06
      156.400   6.33015e-06
      156.500   6.28774e-06
      156.600   6.24402e-06
      156.700   6.20045e-06
      156.800   6.15704e-06
      156.900   6.11380e-06
      157.000   6.07076e-06
      157.100   6.02786e-06
      157.200   5.98515e-06
      157.300   5.94260e-06
      157.400   5.90024e-06
      157.500   5.85803e-06
      157.600   5.81600e-06
      157.700   5.77414e-06
      157.800   5.73248e-06
      157.900   5.69099e-06
      158.000   5.64969e-06
      158.100   5.60857e-06
      158.200   5.56764e-06
      158.300   5.52690e-06
      158.400   5.48635e-06
      158.500   5.44600e-06
      158.600   5.40583e-06
      158.700   5.36584e-06
      158.800   5.32607e-06
      158.900   5.28648e-06
      159.000   5.24712e-06
      159.100   5.20791e-06
      159.200   5.16890e-06
      159.300   5.13009e-06
      159.400   5.09148e-06
      159.500   5.05309e-06
      159.600   5.01489e-06
      159.700   4.97691e-06
      159.800   4.93911e-06
      159.900   4.90153e-06
      160.000   4.86415e-06
      160.100   4.82697e-06
      160.200   4.79000e-06
      160.300   4.75322e-06
      160.400   4.71664e-06
      160.500   4.68024e-06
      160.600   4.64405e-06
      160.700   4.60805e-06
      160.800   4.57224e-06
      160.900   4.53662e-06
      161.000   4.50118e-06
      161.100   4.46593e-06
      161.200   4.43088e-06
      161.300   4.39602e-06
      161.400   4.36135e-06
      161.500   4.32687e-06
      161.600   4.29255e-06
      161.700   4.25839e-06
      161.800   4.22440e-06
      161.900   4.19060e-06
      162.000   4.15699e-06
      162.100   4.12356e-06
      162.200   4.09031e-06
      162.300   4.05726e-06
      162.400   4.02438e-06
      162.500   3.99169e-06
      162.600   3.95920e-06
      162.700   3.92689e-06
      162.800   3.89477e-06
      162.900   3.86283e-06
      163.000   3.83107e-06
      163.100   3.79951e-06
      163.200   3.76811e-06
      163.300   3.73691e-06
      163.400   3.70588e-06
      163.500   3.67504e-06
      163.600   3.64439e-06
      163.700   3.61391e-06
      163.800   3.58363e-06
      163.900   3.55355e-06
      164.000   3.52363e-06
      164.100   3.49391e-06
      164.200   3.46439e-06
      164.300   3.43526e-06
      164.400   3.40631e-06
      164.500   3.37756e-06
      164.600   3.34899e-06
      164.700   3.32060e-06
      164.800   3.29240e-06
      164.900   3.26437e-06
      165.000   3.23654e-06
      165.100   3.20889e-06
      165.200   3.18143e-06
      165.300   3.15415e-06
      165.400   3.12706e-06
      165.500   3.10015e-06
      165.600   3.07343e-06
      165.700   3.04688e-06
      165.800   3.02053e-06
      165.900   2.99435e-06
      166.000   2.96838e-06
      166.100   2.94257e-06
      166.200   2.91695e-06
      166.300   2.89151e-06
      166.400   2.86625e-06
      166.500   2.84116e-06
      166.600   2.81625e-06
      166.700   2.79153e-06
      166.800   2.76694e-06
      166.900   2.74254e-06
      167.000   2.71836e-06
      167.100   2.69431e-06
      167.200   2.67043e-06
      167.300   2.64672e-06
      167.400   2.62317e-06
      167.500   2.59979e-06
      167.600   2.57658e-06
      167.700   2.55353e-06
      167.800   2.53064e-06
      167.900   2.50791e-06
      168.000   2.48534e-06
      168.100   2.46292e-06
      168.200   2.44067e-06
      168.300   2.41856e-06
      168.400   2.39662e-06
      168.500   2.37484e-06
      168.600   2.35320e-06
      168.700   2.33171e-06
      168.800   2.31038e-06
      168.900   2.28921e-06
      169.000   2.26818e-06
      169.100   2.24730e-06
      169.200   2.22658e-06
      169.300   2.20600e-06
      169.400   2.18557e-06
      169.500   2.16517e-06
      169.600   2.14441e-06
      169.700   2.12324e-06
      169.800   2.10207e-06
      169.900   2.08105e-06
      170.000   2.06018e-06
      170.100   2.03947e-06
      170.200   2.01892e-06
      170.300   2.65071e-06
      170.400   5.73510e-06
      170.500   1.09347e-05
      170.600   1.61953e-05
      170.700   2.04651e-05
      170.800   2.25250e-05
      170.900   2.27100e-05
      171.000   2.24302e-05
      171.100   2.21522e-05
      171.200   2.18761e-05
      171.300   2.16019e-05
      171.400   2.13297e-05
      171.500   2.10595e-05
      171.600   2.07914e-05
      171.700   2.05255e-05
      171.800   2.02621e-05
      171.900   2.00012e-05
      172.000   1.97433e-05
      172.100   1.94881e-05
      172.200   1.92362e-05
      172.300   1.89866e-05
      172.400   1.87366e-05
      172.500   1.84889e-05
      172.600   1.82446e-05
      172.700   1.80037e-05
      172.800   1.77660e-05
      172.900   1.75315e-05
      173.000   1.73003e-05
      173.100   1.70723e-05
      173.200   1.68475e-05
      173.300   1.66258e-05
      173.400   1.64072e-05
      173.500   1.61916e-05
      173.600   1.59791e-05
      173.700   1.57694e-05
      173.800   1.55626e-05
      173.900   1.53588e-05
      174.000   1.51576e-05
      174.100   1.49591e-05
      174.200   1.47633e-05
      174.300   1.45701e-05
      174.400   1.43794e-05
      174.500   1.41912e-05
      174.600   1.40053e-05
      174.700   1.38219e-05
      174.800   1.36409e-05
      174.900   1.34620e-05
      175.000   1.32853e-05
      175.100   1.31107e-05
      175.200   1.29388e-05
      175.300   1.27690e-05
      175.400   1.26011e-05
      175.500   1.24354e-05
      175.600   1.22717e-05
      175.700   1.21100e-05
      175.800   1.19502e-05
      175.900   1.17924e-05
      176.000   1.16365e-05
      176.100   1.14826e-05
      176.200   1.13305e-05
      176.300   1.11803e-05
      176.400   1.10320e-05
      176.500   1.08854e-05
      176.600   1.07407e-05
      176.700   1.05977e-05
      176.800   1.04566e-05
      176.900   1.03172e-05
      177.000   1.01794e-05
      177.100   1.00434e-05
      177.200   9.90908e-06
      177.300   9.77642e-06
      177.400   9.64533e-06
      177.500   9.51584e-06
      177.600   9.38795e-06
      177.700   9.26165e-06
      177.800   9.13689e-06
      177.900   9.01355e-06
      178.000   8.89234e-06
      178.100   8.77268e-06
      178.200   8.65442e-06
      178.300   8.53760e-06
      178.400   8.42227e-06
      178.500   8.30832e-06
      178.600   8.19576e-06
      178.700   8.08454e-06
      178.800   7.97473e-06
      178.900   7.86631e-06
      179.000   7.75920e-06
      179.100   7.65340e-06
      179.200   7.54895e-06
      179.300   7.44583e-06
      179.400   7.34401e-06
      179.500   7.24355e-06
      179.600   7.14437e-06
      179.700   7.04653e-06
      179.800   6.94994e-06
      179.900   6.85463e-06
      180.000   6.76055e-06
      180.100   6.66777e-06
      180.200   6.57625e-06
      180.300   6.48597e-06
      180.400   6.39689e-06
      180.500   6.30908e-06
      180.600   6.22245e-06
      180.700   6.13703e-06
      180.800   6.05280e-06
      180.900   5.96971e-06
      181.000   5.88776e-06
      181.100   5.80698e-06
      181.200   5.72730e-06
      181.300   5.64872e-06
      181.400   5.57126e-06
      181.500   5.49486e-06
      181.600   5.41952e-06
      181.700   5.34520e-06
      181.800   5.27191e-06
      181.900   5.19962e-06
      182.000   5.12835e-06
      182.100   5.05802e-06
      182.200   4.98870e-06
      182.300   4.92030e-06
      182.400   4.85284e-06
      182.500   4.78628e-06
      182.600   4.72059e-06
      182.700   4.65579e-06
      182.800   4.59186e-06
      182.900   4.52876e-06
      183.000   4.46651e-06
      183.100   4.40510e-06
      183.200   4.34449e-06
      183.300   4.28466e-06
      183.400   4.22563e-06
      183.500   4.16740e-06
      183.600   4.10992e-06
      183.700   4.05321e-06
      183.800   3.99730e-06
      183.900   3.94214e-06
      184.000   3.88772e-06
      184.100   3.83403e-06
      184.200   3.78107e-06
      184.300   3.72880e-06
      184.400   3.67724e-06
      184.500   3.62637e-06
      184.600   3.57617e-06
      184.700   3.52663e-06
      184.800   3.47776e-06
      184.900   3.42954e-06
      185.000   3.38195e-06
      185.100   3.33499e-06
      185.200   3.28864e-06
      185.300   3.24294e-06
      185.400   3.19782e-06
      185.500   3.15330e-06
      185.600   3.10937e-06
      185.700   3.06600e-06
      185.800   3.02324e-06
      185.900   2.98106e-06
      186.000   2.93940e-06
      186.100   2.89830e-06
      186.200   2.85773e-06
      186.300   2.81768e-06
      186.400   2.77815e-06
      186.500   2.73913e-06
      186.600   2.70061e-06
      186.700   2.66257e-06
      186.800   2.62502e-06
      186.900   2.58794e-06
      187.000   2.55134e-06
      187.100   2.51520e-06
      187.200   2.47953e-06
      187.300   2.44434e-06
      187.400   2.40961e-06
      187.500   2.37533e-06
      187.600   2.34149e-06
      187.700   2.30808e-06
      187.800   2.27511e-06
      187.900   2.24256e-06
      188.000   2.21045e-06
      188.100   2.17876e-06
      188.200   2.14748e-06
      188.300   2.11661e-06
      188.400   2.08614e-06
      188.500   2.05610e-06
      188.600   2.02647e-06
      188.700   1.99726e-06
      188.800   1.96844e-06
      188.900   1.94004e-06
      189.000   1.91201e-06
      189.100   1.88437e-06
      189.200   1.85710e-06
      189.300   1.83023e-06
      189.400   1.80373e-06
      189.500   1.77760e-06
      189.600   1.75183e-06
      189.700   1.72643e-06
      189.800   1.70154e-06
      189.900   1.67703e-06
      190.000   1.65287e-06
      190.100   1.62905e-06
      190.200   1.60558e-06
      190.300   1.58243e-06
      190.400   1.55961e-06
      190.500   1.53711e-06
      190.600   1.51493e-06
      190.700   1.49307e-06
      190.800   1.47151e-06
      190.900   1.45027e-06
      191.000   1.42933e-06
      191.100   1.40871e-06
      191.200   1.38837e-06
      191.300   1.36832e-06
      191.400   1.34856e-06
      191.500   1.32906e-06
      191.600   1.30985e-06
      191.700   1.29091e-06
      191.800   1.27222e-06
      191.900   1.25380e-06
      192.000   1.23565e-06
      192.100   1.21776e-06
      192.200   1.20014e-06
      192.300   1.18276e-06
      192.400   1.16563e-06
      192.500   1.14873e-06
      192.600   1.13207e-06
      192.700   1.11565e-06
      192.800   1.09945e-06
      192.900   1.08348e-06
      193.000   1.06773e-06
      193.100   1.05221e-06
      193.200   1.03692e-06
      193.300   1.02186e-06
      193.400   1.00701e-06
      193.500   9.92368e-07
      193.600   9.77930e-07
      193.700   9.63698e-07
      193.800   9.49674e-07
      193.900   9.35852e-07
      194.000   9.22223e-07
      194.100   9.08800e-07
      194.200   8.95583e-07
      194.300   8.82553e-07
      194.400   8.69706e-07
      194.500   8.57042e-07
      194.600   8.44555e-07
      194.700   8.32249e-07
      194.800   8.20120e-07
      194.900   8.08158e-07
      195.000   7.96364e-07
      195.100   7.84753e-07
      195.200   7.73308e-07
      195.300   7.62025e-07
      195.400   7.50895e-07
      195.500   7.39919e-07
      195.600   7.29094e-07
      195.700   7.18420e-07
      195.800   7.07891e-07
      195.900   6.97504e-07
      196.000   6.87138e-07
      196.100   6.76913e-07
      196.200   6.66831e-07
      196.300   6.56887e-07
      196.400   6.47080e-07
      196.500   6.37403e-07
      196.600   6.27862e-07
      196.700   6.18450e-07
      196.800   6.09174e-07
      196.900   6.00031e-07
      197.000   5.91016e-07
      197.100   5.82124e-07
      197.200   5.73353e-07
      197.300   5.64700e-07
      197.400   5.56161e-07
      197.500   5.47742e-07
      197.600   5.39439e-07
      197.700   5.31264e-07
      197.800   5.23205e-07
      197.900   5.15253e-07
      198.000   5.07412e-07
      198.100   4.99682e-07
      198.200   4.92056e-07
      198.300   4.84535e-07
      198.400   4.77123e-07
      198.500   4.69826e-07
      198.600   4.62635e-07
      198.700   4.55546e-07
      198.800   4.48556e-07
      198.900   4.41668e-07
      199.000   4.34876e-07
      199.100   4.28181e-07
      199.200   4.21583e-07
      199.300   4.15091e-07
      199.400   4.08697e-07
      199.500   4.02396e-07
      199.600   3.96185e-07
      199.700   3.90065e-07
      199.800   3.84034e-07
      199.900   3.78091e-07
      200.000   3.72235e-07
      200.100   3.66492e-07
      200.200   3.60818e-07
      200.300   3.55231e-07
      200.400   3.49726e-07
      200.500   3.44303e-07
      200.600   3.38961e-07
      200.700   3.33700e-07
      200.800   3.28514e-07
      200.900   3.23408e-07
      201.000   3.18383e-07
      201.100   3.13434e-07
      201.200   3.08559e-07
      201.300   3.03758e-07
      201.400   2.99031e-07
      201.500   2.94371e-07
      201.600   2.89783e-07
      201.700   2.85265e-07
      201.800   2.80814e-07
      201.900   2.76432e-07
      202.000   2.72122e-07
      202.100   2.67873e-07
      202.200   2.63691e-07
      202.300   2.59721e-07
      202.400   2.56078e-07
      202.500   2.52563e-07
      202.600   2.49094e-07
      202.700   2.45673e-07
      202.800   2.42299e-07
      202.900   2.38973e-07
      203.000   2.35692e-07
      203.100   2.32458e-07
      203.200   2.29267e-07
      203.300   2.26118e-07
      203.400   2.23013e-07
      203.500   2.19951e-07
      203.600   2.16930e-07
      203.700   2.13952e-07
      203.800   2.11017e-07
      203.900   2.08123e-07
      204.000   2.05269e-07
      204.100   2.02456e-07
      204.200   1.99682e-07
      204.300   1.96945e-07
      204.400   1.94247e-07
      204.500   1.91586e-07
      204.600   1.88962e-07
      204.700   1.86374e-07
      204.800   1.83825e-07
      204.900   1.81312e-07
      205.000   1.78833e-07
      205.100   1.76390e-07
      205.200   1.73979e-07
      205.300   1.71602e-07
      205.400   1.69258e-07
      205.500   1.66946e-07
      205.600   1.64727e-07
      205.700   1.62593e-07
      205.800   1.60494e-07
      205.900   1.58423e-07
      206.000   1.56381e-07
      206.100   1.54364e-07
      206.200   1.52372e-07
      206.300   1.50406e-07
      206.400   1.48466e-07
      206.500   1.46549e-07
      206.600   1.44657e-07
      206.700   1.42789e-07
      206.800   1.40943e-07
      206.900   1.39121e-07
      207.000   1.37321e-07
      207.100   1.35544e-07
      207.200   1.33790e-07
      207.300   1.32058e-07
      207.400   1.30346e-07
      207.500   1.28655e-07
      207.600   1.26985e-07
      207.700   1.25335e-07
      207.800   1.23704e-07
      207.900   1.22094e-07
      208.000   1.20503e-07
      208.100   1.18931e-07
      208.200   1.17379e-07
      208.300   1.15845e-07
      208.400   1.14330e-07
      208.500   1.12834e-07
      208.600   1.11356e-07
      208.700   1.09895e-07
      208.800   1.08452e-07
      208.900   1.07024e-07
      209.000   1.05604e-07
      209.100   1.04201e-07
      209.200   1.02815e-07
      209.300   1.01446e-07
      209.400   1.00095e-07
      209.500   9.87597e-08
      209.600   9.74411e-08
      209.700   9.61392e-08
      209.800   9.48548e-08
      209.900   9.35856e-08
      210.000   9.23327e-08
      210.100   9.10955e-08
      210.200   8.98738e-08
      210.300   8.86676e-08
      210.400   8.74767e-08
      210.500   8.63006e-08
      210.600   8.51397e-08
      210.700   8.39935e-08
      210.800   8.28619e-08
      210.900   8.17446e-08
      211.000   8.06417e-08
      211.100   7.95530e-08
      211.200   7.84781e-08
      211.300   7.74178e-08
      211.400   7.63717e-08
      211.500   7.53383e-08
      211.600   7.43186e-08
      211.700   7.33122e-08
      211.800   7.23182e-08
      211.900   7.13372e-08
      212.000   7.03694e-08
      212.100   6.94138e-08
      212.200   6.84704e-08
      212.300   6.75399e-08
      212.400   6.66216e-08
      212.500   6.57153e-08
      212.600   6.48209e-08
      212.700   6.39381e-08
      212.800   6.30668e-08
      212.900   6.22072e-08
      213.000   6.13584e-08
      213.100   6.05216e-08
      213.200   5.96957e-08
      213.300   5.88805e-08
      213.400   5.80761e-08
      213.500   5.72823e-08
      213.600   5.64989e-08
      213.700   5.57260e-08
      213.800   5.49632e-08
      213.900   5.42110e-08
      214.000   5.34685e-08
      214.100   5.27360e-08
      214.200   5.20136e-08
      214.300   5.13006e-08
      214.400   5.05972e-08
      214.500   4.99035e-08
      214.600   4.92192e-08
      214.700   4.85443e-08
      214.800   4.78785e-08
      214.900   4.72220e-08
      215.000   4.65742e-08
      215.100   4.59355e-08
      215.200   4.53057e-08
      215.300   4.46850e-08
      215.400   4.40726e-08
      215.500   4.34688e-08
      215.600   4.28737e-08
      215.700   4.22865e-08
      215.800   4.17072e-08
      215.900   4.11363e-08
      216.000   4.05733e-08
      216.100   4.00180e-08
      216.200   3.94707e-08
      216.300   3.89311e-08
      216.400   3.83990e-08
      216.500   3.78743e-08
      216.600   3.73571e-08
      216.700   3.68473e-08
      216.800   3.63445e-08
      216.900   3.58488e-08
      217.000   3.53601e-08
      217.100   3.48781e-08
      217.200   3.44030e-08
      217.300   3.39345e-08
      217.400   3.34725e-08
      217.500   3.30172e-08
      217.600   3.25679e-08
      217.700   3.21248e-08
      217.800   3.16880e-08
      217.900   3.12575e-08
      218.000   3.08328e-08
      218.100   3.04140e-08
      218.200   3.00009e-08
      218.300   2.95935e-08
      218.400   2.91919e-08
      218.500   2.87954e-08
      218.600   2.84045e-08
      218.700   2.80188e-08
      218.800   2.76383e-08
      218.900   2.72631e-08
      219.000   2.68928e-08
      219.100   2.65275e-08
      219.200   2.61670e-08
      219.300   2.58114e-08
      219.400   2.54604e-08
      219.500   2.51142e-08
      219.600   2.47725e-08
      219.700   2.44354e-08
      219.800   2.41028e-08
      219.900   2.37745e-08
      220.000   2.34505e-08
      220.100   2.31308e-08
      220.200   2.28153e-08
      220.300   2.25040e-08
      220.400   2.21967e-08
      220.500   2.18935e-08
      220.600   2.15944e-08
      220.700   2.12991e-08
      220.800   2.10075e-08
      220.900   2.07200e-08
      221.000   2.04362e-08
      221.100   2.01560e-08
      221.200   1.98796e-08
      221.300   1.96068e-08
      221.400   1.93375e-08
      221.500   1.90719e-08
      221.600   1.88097e-08
      221.700   1.85509e-08
      221.800   1.82954e-08
      221.900   1.80434e-08
      222.000   1.77948e-08
      222.100   1.75493e-08
      222.200   1.73071e-08
      222.300   1.70681e-08
      222.400   1.68322e-08
      222.500   1.65994e-08
      222.600   1.63698e-08
      222.700   1.61431e-08
      222.800   1.59193e-08
      222.900   1.56986e-08
      223.000   1.54807e-08
      223.100   1.52656e-08
      223.200   1.50534e-08
      223.300   1.48441e-08
      223.400   1.46375e-08
      223.500   1.44336e-08
      223.600   1.42325e-08
      223.700   1.40339e-08
      223.800   1.38380e-08
      223.900   1.36449e-08
      224.000   1.34541e-08
      224.100   1.32659e-08
      224.200   1.30802e-08
      224.300   1.28970e-08
      224.400   1.27162e-08
      224.500   1.25378e-08
      224.600   1.23617e-08
      224.700   1.21881e-08
      224.800   1.20168e-08
      224.900   1.18476e-08
      225.000   1.16808e-08
      225.100   1.15161e-08
      225.200   1.13537e-08
      225.300   1.11935e-08
      225.400   1.10353e-08
      225.500   1.08792e-08
      225.600   1.07253e-08
      225.700   1.05735e-08
      225.800   1.04236e-08
      225.900   1.02757e-08
      226.000   1.01299e-08
      226.100   9.98607e-09
      226.200   9.84419e-09
      226.300   9.70488e-09
      226.400   9.56809e-09
      226.500   9.43299e-09
      226.600   9.29952e-09
      226.700   9.16778e-09
      226.800   9.03768e-09
      226.900   8.90929e-09
      227.000   8.78267e-09
      227.100   8.65772e-09
      227.200   8.53453e-09
      227.300   8.41303e-09
      227.400   8.29321e-09
      227.500   8.17503e-09
      227.600   8.05850e-09
      227.700   7.94358e-09
      227.800   7.83029e-09
      227.900   7.71857e-09
      228.000   7.60842e-09
      228.100   7.49982e-09
      228.200   7.39271e-09
      228.300   7.28714e-09
      228.400   7.18308e-09
      228.500   7.08046e-09
      228.600   6.97933e-09
      228.700   6.87963e-09
      228.800   6.78132e-09
      228.900   6.68447e-09
      229.000   6.58897e-09
      229.100   6.49485e-09
      229.200   6.40208e-09
      229.300   6.31065e-09
      229.400   6.22054e-09
      229.500   6.13174e-09
      229.600   6.04420e-09
      229.700   5.95794e-09
      229.800   5.87291e-09
      229.900   5.78912e-09
      230.000   5.70613e-09
      230.100   5.62143e-09
      230.200   5.53789e-09
      230.300   5.45567e-09
      230.400   5.37464e-09
      230.500   5.29485e-09
      230.600   5.21627e-09
      230.700   5.13886e-09
      230.800   5.06263e-09
      230.900   4.98755e-09
      231.000   4.91357e-09
      231.100   4.84071e-09
      231.200   4.76894e-09
      231.300   4.69826e-09
      231.400   4.62866e-09
      231.500   4.56006e-09
      231.600   4.49248e-09
      231.700   4.42593e-09
      231.800   4.36038e-09
      231.900   4.29579e-09
      232.000   4.23216e-09
      232.100   4.16948e-09
      232.200   4.10774e-09
      232.300   4.04692e-09
      232.400   3.98699e-09
      232.500   3.92793e-09
      232.600   3.86977e-09
      232.700   3.81246e-09
      232.800   3.75600e-09
      232.900   3.70038e-09
      233.000   3.64557e-09
      233.100   3.59158e-09
      233.200   3.53837e-09
      233.300   3.48595e-09
      233.400   3.43432e-09
      233.500   3.38344e-09
      233.600   3.33333e-09
      233.700   3.28393e-09
      233.800   3.22989e-09
      233.900   3.17604e-09
      234.000   3.12303e-09
      234.100   3.07092e-09
      234.200   3.01967e-09
      234.300   2.96925e-09
      234.400   2.91965e-09
      234.500   2.87088e-09
      234.600   2.82289e-09
      234.700   2.77570e-09
      234.800   2.72929e-09
      234.900   2.68363e-09
      235.000   2.63871e-09
      235.100   2.59453e-09
      235.200   2.55108e-09
      235.300   2.50834e-09
      235.400   2.46629e-09
      235.500   2.42494e-09
      235.600   2.38428e-09
      235.700   2.34426e-09
      235.800   2.30495e-09
      235.900   2.26627e-09
      236.000   2.22823e-09
      236.100   2.19080e-09
      236.200   2.15399e-09
      236.300   2.11777e-09
      236.400   2.08216e-09
      236.500   2.04712e-09
      236.600   2.01266e-09
      236.700   1.97876e-09
      236.800   1.94541e-09
      236.900   1.91261e-09
      237.000   1.88034e-09
      237.100   1.84859e-09
      237.200   1.81737e-09
      237.300   1.78665e-09
      237.400   1.75644e-09
      237.500   1.72671e-09
      237.600   1.69745e-09
      237.700   1.66869e-09
      237.800   1.64040e-09
      237.900   1.61257e-09
      238.000   1.58520e-09
      238.100   1.55827e-09
      238.200   1.53177e-09
      238.300   1.50571e-09
      238.400   1.48007e-09
      238.500   1.45484e-09
      238.600   1.43003e-09
      238.700   1.40562e-09
      238.800   1.38161e-09
      238.900   1.35799e-09
      239.000   1.33474e-09
      239.100   1.31188e-09
      239.200   1.28940e-09
      239.300   1.26728e-09
      239.400   1.24554e-09
      239.500   1.22416e-09
      239.600   1.20312e-09
      239.700   1.18243e-09
      239.800   1.16207e-09
      239.900   1.14204e-09
      240.000   1.12235e-09
      240.100   1.10297e-09
      240.200   1.08390e-09
      240.300   1.06515e-09
      240.400   1.04670e-09
      240.500   1.02856e-09
      240.600   1.01072e-09
      240.700   9.93174e-10
      240.800   9.75921e-10
      240.900   9.58962e-10
      241.000   9.42283e-10
      241.100   9.25880e-10
      241.200   9.09749e-10
      241.300   8.93881e-10
      241.400   8.78278e-10
      241.500   8.62932e-10
      241.600   8.47842e-10
      241.700   8.33003e-10
      241.800   8.18409e-10
      241.900   8.04057e-10
      242.000   7.89947e-10
      242.100   7.76077e-10
      242.200   7.62449e-10
      242.300   7.49058e-10
      242.400   7.35889e-10
      242.500   7.22943e-10
      242.600   7.10216e-10
      242.700   6.97702e-10
      242.800   6.85404e-10
      242.900   6.73312e-10
      243.000   6.61426e-10
      243.100   6.49743e-10
      243.200   6.38256e-10
      243.300   6.26966e-10
      243.400   6.15874e-10
      243.500   6.04976e-10
      243.600   5.94276e-10
      243.700   5.83755e-10
      243.800   5.73415e-10
      243.900   5.63258e-10
      244.000   5.53271e-10
      244.100   5.43458e-10
      244.200   5.33816e-10
      244.300   5.24337e-10
      244.400   5.15025e-10
      244.500   5.05874e-10
      244.600   4.96880e-10
      244.700   4.88050e-10
      244.800   4.79381e-10
      244.900   4.70863e-10
      245.000   4.62490e-10
      245.100   4.54265e-10
      245.200   4.46186e-10
      245.300   4.38247e-10
      245.400   4.30444e-10
      245.500   4.22780e-10
      245.600   4.15250e-10
      245.700   4.07849e-10
      245.800   4.00577e-10
      245.900   3.93443e-10
      246.000   3.86439e-10
      246.100   3.79556e-10
      246.200   3.72793e-10
      246.300   3.66149e-10
      246.400   3.59623e-10
      246.500   3.53210e-10
      246.600   3.46910e-10
      246.700   3.40722e-10
      246.800   3.34639e-10
      246.900   3.28664e-10
      247.000   3.22804e-10
      247.100   3.17047e-10
      247.200   3.11393e-10
      247.300   3.05839e-10
      247.400   3.00381e-10
      247.500   2.95020e-10
      247.600   2.89753e-10
      247.700   2.84578e-10
      247.800   2.79494e-10
      247.900   2.74499e-10
      248.000   2.69593e-10
      248.100   2.64785e-10
      248.200   2.60060e-10
      248.300   2.55418e-10
      248.400   2.50857e-10
      248.500   2.46375e-10
      248.600   2.41973e-10
      248.700   2.37649e-10
      248.800   2.33401e-10
      248.900   2.29228e-10
      249.000   2.25128e-10
      249.100   2.21107e-10
      249.200   2.17159e-10
      249.300   2.13279e-10
      249.400   2.09467e-10
      249.500   2.05723e-10
      249.600   2.02044e-10
      249.700   1.98430e-10
      249.800   1.94880e-10
      249.900   1.91391e-10
      250.000   1.87966e-10
      250.100   1.84605e-10
      250.200   1.81303e-10
      250.300   1.78062e-10
      250.400   1.74877e-10
      250.500   1.71750e-10
      250.600   1.68678e-10
      250.700   1.65659e-10
      250.800   1.62694e-10
      250.900   1.59782e-10
      251.000   1.56920e-10
      251.100   1.54110e-10
      251.200   1.51351e-10
      251.300   1.48643e-10
      251.400   1.45983e-10
      251.500   1.43369e-10
      251.600   1.40802e-10
      251.700   1.38281e-10
      251.800   1.35804e-10
      251.900   1.33370e-10
      252.000   1.30979e-10
      252.100   1.28632e-10
      252.200   1.26324e-10
      252.300   1.24060e-10
      252.400   1.21835e-10
      252.500   1.19652e-10
      252.600   1.17506e-10
      252.700   1.15398e-10
      252.800   1.13327e-10
      252.900   1.11292e-10
      253.000   1.09294e-10
      253.100   1.07331e-10
      253.200   1.05402e-10
      253.300   1.03543e-10
      253.400   1.01732e-10
      253.500   9.99529e-11
      253.600   9.82058e-11
      253.700   9.64882e-11
      253.800   9.48004e-11
      253.900   9.31416e-11
      254.000   9.15105e-11
      254.100   8.99071e-11
      254.200   8.83310e-11
      254.300   8.67819e-11
      254.400   8.52591e-11
      254.500   8.37620e-11
      254.600   8.22904e-11
      254.700   8.08443e-11
      254.800   7.94241e-11
      254.900   7.80278e-11
      255.000   7.66555e-11
      255.100   7.53056e-11
      255.200   7.39790e-11
      255.300   7.26751e-11
      255.400   7.13931e-11
      255.500   7.01332e-11
      255.600   6.88947e-11
      255.700   6.76771e-11
      255.800   6.64801e-11
      255.900   6.53032e-11
      256.000   6.41463e-11
      256.100   6.30098e-11
      256.200   6.18928e-11
      256.300   6.07948e-11
      256.400   5.97163e-11
      256.500   5.86551e-11
      256.600   5.76125e-11
      256.700   5.65877e-11
      256.800   5.55800e-11
      256.900   5.45894e-11
      257.000   5.36159e-11
      257.100   5.26588e-11
      257.200   5.17184e-11
      257.300   5.07939e-11
      257.400   4.98952e-11
      257.500   4.90154e-11
      257.600   4.81515e-11
      257.700   4.73021e-11
      257.800   4.64670e-11
      257.900   4.56462e-11
      258.000   4.48392e-11
      258.100   4.40457e-11
      258.200   4.32658e-11
      258.300   4.24993e-11
      258.400   4.17454e-11
      258.500   4.10041e-11
      258.600   4.02758e-11
      258.700   3.95598e-11
      258.800   3.88558e-11
      258.900   3.81642e-11
      259.000   3.74839e-11
      259.100   3.68157e-11
      259.200   3.61586e-11
      259.300   3.55136e-11
      259.400   3.48793e-11
      259.500   3.42559e-11
      259.600   3.36433e-11
      259.700   3.30414e-11
      259.800   3.24495e-11
      259.900   3.18677e-11
      260.000   3.12962e-11
      260.100   3.07345e-11
      260.200   3.01826e-11
      260.300   2.96401e-11
      260.400   2.91071e-11
      260.500   2.85835e-11
      260.600   2.80687e-11
      260.700   2.75629e-11
      260.800   2.70663e-11
      260.900   2.65779e-11
      261.000   2.60984e-11
      261.100   2.56274e-11
      261.200   2.51645e-11
      261.300   2.47098e-11
      261.400   2.42632e-11
      261.500   2.38250e-11
      261.600   2.33963e-11
      261.700   2.29755e-11
      261.800   2.25621e-11
      261.900   2.21557e-11
      262.000   2.17566e-11
      262.100   2.13644e-11
      262.200   2.09793e-11
      262.300   2.06007e-11
      262.400   2.02289e-11
      262.500   1.98636e-11
      262.600   1.95046e-11
      262.700   1.91521e-11
      262.800   1.88058e-11
      262.900   1.84654e-11
      263.000   1.81315e-11
      263.100   1.78032e-11
      263.200   1.74809e-11
      263.300   1.71643e-11
      263.400   1.68533e-11
      263.500   1.65480e-11
      263.600   1.62480e-11
      263.700   1.59534e-11
      263.800   1.56639e-11
      263.900   1.53798e-11
      264.000   1.51006e-11
      264.100   1.48264e-11
      264.200   1.45570e-11
      264.300   1.42926e-11
      264.400   1.40329e-11
      264.500   1.37777e-11
      264.600   1.35271e-11
      264.700   1.32811e-11
      264.800   1.30394e-11
      264.900   1.28021e-11
      265.000   1.25691e-11
      265.100   1.23402e-11
      265.200   1.21155e-11
      265.300   1.18948e-11
      265.400   1.16781e-11
      265.500   1.14652e-11
      265.600   1.12563e-11
      265.700   1.10510e-11
      265.800   1.08499e-11
      265.900   1.06523e-11
      266.000   1.04584e-11
      266.100   1.02680e-11
      266.200   1.00810e-11
      266.300   9.89734e-12
      266.400   9.71710e-12
      266.500   9.54001e-12
      266.600   9.36621e-12
      266.700   9.19553e-12
      266.800   9.02802e-12
      266.900   8.86349e-12
      267.000   8.70190e-12
      267.100   8.54326e-12
      267.200   8.38761e-12
      267.300   8.23473e-12
      267.400   8.08458e-12
      267.500   7.93718e-12
      267.600   7.79248e-12
      267.700   7.65041e-12
      267.800   7.51087e-12
      267.900   7.37391e-12
      268.000   7.23946e-12
      268.100   7.10745e-12
      268.200   6.97786e-12
      268.300   6.85067e-12
      268.400   6.72573e-12
      268.500   6.60308e-12
      268.600   6.48264e-12
      268.700   6.36445e-12
      268.800   6.24838e-12
      268.900   6.13447e-12
      269.000   6.02263e-12
      269.100   5.91280e-12
      269.200   5.80503e-12
      269.300   5.69921e-12
      269.400   5.59525e-12
      269.500   5.49322e-12
      269.600   5.39307e-12
      269.700   5.29477e-12
      269.800   5.19825e-12
      269.900   5.10347e-12
      270.000   5.01046e-12
      270.100   4.91928e-12
      270.200   4.82988e-12
      270.300   4.74208e-12
      270.400   4.65586e-12
      270.500   4.57123e-12
      270.600   4.48812e-12
      270.700   4.40653e-12
      270.800   4.32644e-12
      270.900   4.24775e-12
      271.000   4.17054e-12
      271.100   4.09471e-12
      271.200   4.02023e-12
      271.300   3.94714e-12
      271.400   3.87535e-12
      271.500   3.80488e-12
      271.600   3.73565e-12
      271.700   3.66769e-12
      271.800   3.60098e-12
      271.900   3.53546e-12
      272.000   3.47114e-12
      272.100   3.40796e-12
      272.200   3.34594e-12
      272.300   3.28501e-12
      272.400   3.22519e-12
      272.500   3.16646e-12
      272.600   3.10878e-12
      272.700   3.05214e-12
      272.800   2.99652e-12
      272.900   2.94191e-12
      273.000   2.88829e-12
      273.100   2.83562e-12
      273.200   2.78389e-12
      273.300   2.73312e-12
      273.400   2.68324e-12
      273.500   2.63427e-12
      273.600   2.58617e-12
      273.700   2.53893e-12
      273.800   2.49254e-12
      273.900   2.44700e-12
      274.000   2.40227e-12
      274.100   2.35833e-12
      274.200   2.31518e-12
      274.300   2.27281e-12
      274.400   2.22941e-12
      274.500   2.18293e-12
      274.600   2.13657e-12
      274.700   2.09118e-12
      274.800   2.04671e-12
      274.900   2.00316e-12
      275.000   1.96052e-12
      275.100   1.91876e-12
      275.200   1.87788e-12
      275.300   1.83784e-12
      275.400   1.79863e-12
      275.500   1.76025e-12
      275.600   1.72264e-12
      275.700   1.68583e-12
      275.800   1.64979e-12
      275.900   1.61449e-12
      276.000   1.57993e-12
      276.100   1.54608e-12
      276.200   1.51294e-12
      276.300   1.48048e-12
      276.400   1.44871e-12
      276.500   1.41759e-12
      276.600   1.38713e-12
      276.700   1.35729e-12
      276.800   1.32809e-12
      276.900   1.29949e-12
      277.000   1.27149e-12
      277.100   1.24407e-12
      277.200   1.21722e-12
      277.300   1.19095e-12
      277.400   1.16521e-12
      277.500   1.14001e-12
      277.600   1.11535e-12
      277.700   1.09120e-12
      277.800   1.06755e-12
      277.900   1.04440e-12
      278.000   1.02175e-12
      278.100   9.99564e-13
      278.200   9.77843e-13
      278.300   9.56586e-13
      278.400   9.35778e-13
      278.500   9.15397e-13
      278.600   8.95446e-13
      278.700   8.75925e-13
      278.800   8.56815e-13
      278.900   8.37918e-13
      279.000   8.19366e-13
      279.100   8.01215e-13
      279.200   7.83448e-13
      279.300   7.66068e-13
      279.400   7.49051e-13
      279.500   7.32410e-13
      279.600   7.16123e-13
      279.700   7.00194e-13
      279.800   6.84601e-13
      279.900   6.69340e-13
      280.000   6.54414e-13
      280.100   6.39805e-13
      280.200   6.25518e-13
      280.300   6.11536e-13
      280.400   5.97853e-13
      280.500   5.84478e-13
      280.600   5.71389e-13
      280.700   5.58581e-13
      280.800   5.46053e-13
      280.900   5.33796e-13
      281.000   5.21806e-13
      281.100   5.10076e-13
      281.200   4.98600e-13
      281.300   4.87375e-13
      281.400   4.76399e-13
      281.500   4.65657e-13
      281.600   4.55151e-13
      281.700   4.44874e-13
      281.800   4.34828e-13
      281.900   4.24997e-13
      282.000   4.15380e-13
      282.100   4.05975e-13
      282.200   3.96784e-13
      282.300   3.87789e-13
      282.400   3.78991e-13
      282.500   3.70386e-13
      282.600   3.61974e-13
      282.700   3.53745e-13
      282.800   3.45695e-13
      282.900   3.37832e-13
      283.000   3.30137e-13
      283.100   3.22618e-13
      283.200   3.15265e-13
      283.300   3.08077e-13
      283.400   3.01047e-13
      283.500   2.94174e-13
      283.600   2.87450e-13
      283.700   2.80875e-13
      283.800   2.74449e-13
      283.900   2.68168e-13
      284.000   2.62024e-13
      284.100   2.56018e-13
      284.200   2.50145e-13
      284.300   2.44406e-13
      284.400   2.38793e-13
      284.500   2.33307e-13
      284.600   2.27943e-13
      284.700   2.22702e-13
      284.800   2.17577e-13
      284.900   2.12567e-13
      285.000   2.07668e-13
      285.100   2.02881e-13
      285.200   1.98202e-13
      285.300   1.93628e-13
      285.400   1.89156e-13
      285.500   1.84786e-13
      285.600   1.80516e-13
      285.700   1.76341e-13
      285.800   1.72263e-13
      285.900   1.68278e-13
      286.000   1.64384e-13
      286.100   1.60580e-13
      286.200   1.56860e-13
      286.300   1.53226e-13
      286.400   1.49676e-13
      286.500   1.46204e-13
      286.600   1.42812e-13
      286.700   1.39497e-13
      286.800   1.36258e-13
      286.900   1.33092e-13
      287.000   1.29999e-13
      287.100   1.26977e-13
      287.200   1.24024e-13
      287.300   1.21138e-13
      287.400   1.18318e-13
      287.500   1.15562e-13
      287.600   1.12870e-13
      287.700   1.10239e-13
      287.800   1.07669e-13
      287.900   1.05158e-13
      288.000   1.02706e-13
      288.100   1.00309e-13
      288.200   9.79706e-14
      288.300   9.56861e-14
      288.400   9.34528e-14
      288.500   9.12724e-14
      288.600   8.91404e-14
      288.700   8.70585e-14
      288.800   8.50241e-14
      288.900   8.30378e-14
      289.000   8.10963e-14
      289.100   7.91996e-14
      289.200   7.73472e-14
      289.300   7.55375e-14
      289.400   7.37690e-14
      289.500   7.20419e-14
      289.600   7.03545e-14
      289.700   6.87071e-14
      289.800   6.70968e-14
      289.900   6.55236e-14
      290.000   6.39874e-14
      290.100   6.24877e-14
      290.200   6.10237e-14
      290.300   5.95935e-14
      290.400   5.81965e-14
      290.500   5.68324e-14
      290.600   5.54992e-14
      290.700   5.41971e-14
      290.800   5.29259e-14
      290.900   5.16836e-14
      291.000   5.04697e-14
      291.100   4.92840e-14
      291.200   4.81262e-14
      291.300   4.69951e-14
      291.400   4.58907e-14
      291.500   4.48117e-14
      291.600   4.37575e-14
      291.700   4.27286e-14
      291.800   4.17234e-14
      291.900   4.07430e-14
      292.000   3.97852e-14
      292.100   3.88496e-14
      292.200   3.79362e-14
      292.300   3.70434e-14
      292.400   3.61716e-14
      292.500   3.53198e-14
      292.600   3.44879e-14
      292.700   3.36756e-14
      292.800   3.28823e-14
      292.900   3.21074e-14
      293.000   3.13506e-14
      293.100   3.06111e-14
      293.200   2.98889e-14
      293.300   2.91837e-14
      293.400   2.84954e-14
      293.500   2.78235e-14
      293.600   2.71674e-14
      293.700   2.65264e-14
      293.800   2.59004e-14
      293.900   2.52892e-14
      294.000   2.46920e-14
      294.100   2.41087e-14
      294.200   2.35392e-14
      294.300   2.29830e-14
      294.400   2.24393e-14
      294.500   2.19086e-14
      294.600   2.13901e-14
      294.700   2.08837e-14
      294.800   2.03892e-14
      294.900   1.99065e-14
      295.000   1.94354e-14
      295.100   1.89756e-14
      295.200   1.85263e-14
      295.300   1.80874e-14
      295.400   1.76589e-14
      295.500   1.72404e-14
      295.600   1.68316e-14
      295.700   1.64322e-14
      295.800   1.60423e-14
      295.900   1.56612e-14
      296.000   1.52891e-14
      296.100   1.49256e-14
      296.200   1.45707e-14
      296.300   1.42244e-14
      296.400   1.38867e-14
      296.500   1.35566e-14
      296.600   1.32341e-14
      296.700   1.29193e-14
      296.800   1.26119e-14
      296.900   1.23115e-14
      297.000   1.20181e-14
      297.100   1.17316e-14
      297.200   1.14518e-14
      297.300   1.11785e-14
      297.400   1.09116e-14
      297.500   1.06508e-14
      297.600   1.03964e-14
      297.700   1.01481e-14
      297.800   9.90564e-15
      297.900   9.66890e-15
      298.000   9.43775e-15
      298.100   9.21193e-15
      298.200   8.99138e-15
      298.300   8.77604e-15
      298.400   8.56566e-15
      298.500   8.36018e-15
      298.600   8.15947e-15
      298.700   7.96352e-15
      298.800   7.77207e-15
      298.900   7.58557e-15
      299.000   7.40350e-15
      299.100   7.22563e-15
      299.200   7.05187e-15
      299.300   6.88224e-15
      299.400   6.71653e-15
      299.500   6.55471e-15
      299.600   6.39671e-15
      299.700   6.24241e-15
      299.800   6.09161e-15
      299.900   5.94450e-15
      300.000   5.80081e-15
      300.100   5.66058e-15
      300.192   5.53455e-15
      300.285   5.40991e-15
      300.377   5.28934e-15
      300.470   5.17017e-15
      300.562   5.05486e-15
      300.654   4.94202e-15
      300.747   4.83044e-15
      300.839   4.72255e-15
      300.932   4.61580e-15
      301.025   4.51143e-15
      301.117   4.41049e-15
      301.210   4.31064e-15
      301.303   4.21302e-15
      301.395   4.11867e-15
      301.488   4.02522e-15
      301.581   3.93399e-15
      301.674   3.84467e-15
      301.766   3.75831e-15
      301.859   3.67290e-15
      301.952   3.58943e-15
      302.045   3.50775e-15
      302.138   3.42797e-15
      302.231   3.35002e-15
      302.324   3.27382e-15
      302.417   3.19929e-15
      302.510   3.12638e-15
      302.603   3.05519e-15
      302.696   2.98551e-15
      302.789   2.91737e-15
      302.882   2.85074e-15
      302.976   2.78495e-15
      303.069   2.72129e-15
      303.162   2.65906e-15
      303.255   2.59818e-15
      303.349   2.53805e-15
      303.442   2.47986e-15
      303.535   2.42303e-15
      303.629   2.36686e-15
      303.722   2.31254e-15
      303.816   2.25885e-15
      303.909   2.20694e-15
      304.003   2.15565e-15
      304.096   2.10603e-15
      304.190   2.05700e-15
      304.283   2.00960e-15
      304.377   1.96281e-15
      304.471   1.91703e-15
      304.564   1.87278e-15
      304.658   1.82908e-15
      304.752   1.78632e-15
      304.846   1.74458e-15
      304.939   1.70421e-15
      305.033   1.66432e-15
      305.127   1.62535e-15
      305.221   1.58726e-15
      305.315   1.55006e-15
      305.409   1.51369e-15
      305.503   1.47816e-15
      305.597   1.44344e-15
      305.691   1.40951e-15
      305.785   1.37635e-15
      305.879   1.34396e-15
      305.973   1.31232e-15
      306.067   1.28139e-15
      306.161   1.25119e-15
      306.255   1.22167e-15
      306.350   1.19252e-15
      306.444   1.16435e-15
      306.538   1.13682e-15
      306.633   1.10966e-15
      306.727   1.08340e-15
      306.821   1.05774e-15
      306.916   1.03242e-15
      307.010   1.00795e-15
      307.105   9.83797e-16
      307.199   9.60457e-16
      307.294   9.37408e-16
      307.388   9.15141e-16
      307.483   8.93165e-16
      307.577   8.71923e-16
      307.672   8.50956e-16
      307.767   8.30485e-16
      307.861   8.10706e-16
      307.956   7.91169e-16
      308.051   7.72096e-16
      308.146   7.53482e-16
      308.240   7.35495e-16
      308.335   7.17739e-16
      308.430   7.00393e-16
      308.525   6.83460e-16
      308.620   6.66935e-16
      308.715   6.50796e-16
      308.810   6.35041e-16
      308.905   6.19657e-16
      309.000   6.04640e-16
      309.095   5.89978e-16
      309.190   5.75670e-16
      309.285   5.61694e-16
      309.380   5.48051e-16
      309.476   5.34600e-16
      309.571   5.21602e-16
      309.666   5.08910e-16
      309.761   4.96526e-16
      309.857   4.84311e-16
      309.952   4.72512e-16
      310.047   4.61000e-16
      310.143   4.49641e-16
      310.238   4.38672e-16
      310.334   4.27854e-16
      310.429   4.17402e-16
      310.525   4.07100e-16
      310.620   3.97150e-16
      310.716   3.87335e-16
      310.811   3.77860e-16
      310.907   3.68519e-16
      311.003   3.59403e-16
      311.098   3.50597e-16
      311.194   3.41914e-16
      311.290   3.33444e-16
      311.386   3.25182e-16
      311.481   3.17202e-16
      311.577   3.09337e-16
      311.673   3.01660e-16
      311.769   2.94170e-16
      311.865   2.86868e-16
      311.961   2.79793e-16
      312.057   2.73105e-16
      312.153   2.66646e-16
      312.249   2.60336e-16
      312.345   2.54175e-16
      312.441   2.48154e-16
      312.537   2.42276e-16
      312.633   2.36538e-16
      312.730   2.30870e-16
      312.826   2.25397e-16
      312.922   2.20053e-16
      313.018   2.14833e-16
      313.115   2.09682e-16
      313.211   2.04703e-16
      313.307   1.99843e-16
      313.404   1.95047e-16
      313.500   1.90412e-16
      313.597   1.85842e-16
      313.693   1.81426e-16
      313.790   1.77068e-16
      313.886   1.72857e-16
      313.983   1.68700e-16
      314.079   1.64685e-16
      314.176   1.60726e-16
      314.273   1.56859e-16
      314.369   1.53125e-16
      314.466   1.49440e-16
      314.563   1.45843e-16
      314.660   1.42333e-16
      314.756   1.38940e-16
      314.853   1.35593e-16
      314.950   1.32326e-16
      315.047   1.29138e-16
      315.144   1.26025e-16
      315.241   1.22987e-16
      315.338   1.20021e-16
      315.435   1.17127e-16
      315.532   1.14302e-16
      315.629   1.11545e-16
      315.726   1.08854e-16
      315.823   1.06225e-16
      315.921   1.03635e-16
      316.018   1.01133e-16
      316.115   9.86910e-17
      316.212   9.63067e-17
      316.310   9.39567e-17
      316.407   9.16867e-17
      316.504   8.94703e-17
      316.602   8.72856e-17
      316.699   8.51759e-17
      316.796   8.31170e-17
      316.894   8.10869e-17
      316.991   7.91369e-17
      317.089   7.72791e-17
      317.187   7.54968e-17
      317.284   7.37736e-17
      317.382   7.20722e-17
      317.479   7.04261e-17
      317.577   6.88017e-17
      317.675   6.72150e-17
      317.773   6.56642e-17
      317.870   6.41648e-17
      317.968   6.26835e-17
      318.066   6.12366e-17
      318.164   5.98230e-17
      318.262   5.84422e-17
      318.360   5.70926e-17
      318.458   5.57748e-17
      318.556   5.44876e-17
      318.654   5.32296e-17
      318.752   5.20004e-17
      318.850   5.07996e-17
      318.948   4.96262e-17
      319.046   4.84799e-17
      319.144   4.73596e-17
      319.242   4.62656e-17
      319.341   4.51858e-17
      319.439   4.41417e-17
      319.537   4.31218e-17
      319.635   4.21253e-17
      319.734   4.11419e-17
      319.832   4.01910e-17
      319.930   3.92617e-17
      320.029   3.83450e-17
      320.127   3.74585e-17
      320.226   3.65837e-17
      320.324   3.57374e-17
      320.423   3.49021e-17
      320.522   3.40870e-17
      320.620   3.32986e-17
      320.719   3.25204e-17
      320.818   3.17605e-17
      320.916   3.10255e-17
      321.015   3.03001e-17
      321.114   2.95916e-17
      321.213   2.88997e-17
      321.311   2.82307e-17
      321.410   2.75707e-17
      321.509   2.69257e-17
      321.608   2.62960e-17
      321.707   2.56809e-17
      321.806   2.50799e-17
      321.905   2.44931e-17
      322.004   2.39197e-17
      322.103   2.33600e-17
      322.202   2.28131e-17
      322.301   2.22791e-17
      322.401   2.17524e-17
      322.500   2.12430e-17
      322.599   2.07456e-17
      322.698   2.02598e-17
      322.798   1.97805e-17
      322.897   1.93169e-17
      322.996   1.88644e-17
      323.096   1.84177e-17
      323.195   1.79859e-17
      323.294   1.75642e-17
      323.394   1.71483e-17
      323.493   1.67461e-17
      323.593   1.63494e-17
      323.692   1.59658e-17
      323.792   1.55875e-17
      323.892   1.52180e-17
      323.991   1.48606e-17
      324.091   1.45083e-17
      324.191   1.41641e-17
      324.291   1.38281e-17
      324.390   1.35033e-17
      324.490   1.31827e-17
      324.590   1.28698e-17
      324.690   1.25643e-17
      324.790   1.22659e-17
      324.890   1.19746e-17
      324.990   1.16900e-17
      325.090   1.14121e-17
      325.190   1.11408e-17
      325.290   1.08760e-17
      325.390   1.06172e-17
      325.490   1.03647e-17
      325.590   1.01181e-17
      325.690   9.87715e-18
      325.790   9.64197e-18
      325.891   9.41008e-18
      325.991   9.18589e-18
      326.091   8.96691e-18
      326.192   8.75104e-18
      326.292   8.54234e-18
      326.392   8.33862e-18
      326.493   8.13767e-18
      326.593   7.94340e-18
      326.694   7.75197e-18
      326.794   7.56681e-18
      326.895   7.38424e-18
      326.995   7.20771e-18
      327.096   7.03373e-18
      327.197   6.86385e-18
      327.297   6.69960e-18
      327.398   6.53766e-18
      327.499   6.37959e-18
      327.599   6.22675e-18
      327.700   6.07602e-18
      327.801   5.92891e-18
      327.902   5.78539e-18
      328.003   5.64520e-18
      328.104   5.50836e-18
      328.205   5.37480e-18
      328.306   5.24442e-18
      328.407   5.11717e-18
      328.508   4.99290e-18
      328.609   4.87162e-18
      328.710   4.75326e-18
      328.811   4.63772e-18
      328.912   4.52494e-18
      329.013   4.41483e-18
      329.115   4.30635e-18
      329.216   4.20148e-18
      329.317   4.09912e-18
      329.419   3.99829e-18
      329.520   3.90077e-18
      329.621   3.80557e-18
      329.723   3.71175e-18
      329.824   3.62118e-18
      329.926   3.53187e-18
      330.027   3.44553e-18
      330.129   3.36044e-18
      330.230   3.27827e-18
      330.332   3.19722e-18
      330.434   3.11818e-18
      330.535   3.04177e-18
      330.637   2.96647e-18
      330.739   2.89303e-18
      330.840   2.82204e-18
      330.942   2.75207e-18
      331.044   2.68382e-18
      331.146   2.61723e-18
      331.248   2.55225e-18
      331.350   2.48886e-18
      331.452   2.42708e-18
      331.554   2.36832e-18
      331.656   2.31329e-18
      331.758   2.25953e-18
      331.860   2.20696e-18
      331.962   2.15559e-18
      332.064   2.10539e-18
      332.166   2.05636e-18
      332.268   2.00840e-18
      332.371   1.96112e-18
      332.473   1.91534e-18
      332.575   1.87058e-18
      332.677   1.82688e-18
      332.780   1.78376e-18
      332.882   1.74203e-18
      332.985   1.70087e-18
      333.087   1.66101e-18
      333.190   1.62171e-18
      333.292   1.58312e-18
      333.395   1.54358e-18
      333.497   1.50483e-18
      333.600   1.46666e-18
      333.702   1.42979e-18
      333.805   1.39351e-18
      333.908   1.35809e-18
      334.011   1.32357e-18
      334.113   1.29023e-18
      334.216   1.25738e-18
      334.319   1.22536e-18
      334.422   1.19414e-18
      334.525   1.16369e-18
      334.628   1.13400e-18
      334.731   1.10507e-18
      334.834   1.07685e-18
      334.937   1.04933e-18
      335.040   1.02249e-18
      335.143   9.96345e-19
      335.246   9.70842e-19
      335.349   9.45979e-19
      335.452   9.21739e-19
      335.555   8.98111e-19
      335.659   8.74846e-19
      335.762   8.52387e-19
      335.865   8.30503e-19
      335.969   8.08956e-19
      336.072   7.88145e-19
      336.175   7.67878e-19
      336.279   7.47930e-19
      336.382   7.28669e-19
      336.486   7.09708e-19
      336.589   6.91406e-19
      336.693   6.73409e-19
      336.796   6.56033e-19
      336.900   6.38929e-19
      337.004   6.22254e-19
      337.107   6.06177e-19
      337.211   5.90344e-19
      337.315   5.74931e-19
      337.419   5.59901e-19
      337.523   5.45254e-19
      337.626   5.31123e-19
      337.730   5.17222e-19
      337.834   5.03673e-19
      337.938   4.90478e-19
      338.042   4.77642e-19
      338.146   4.65224e-19
      338.250   4.53137e-19
      338.354   4.41356e-19
      338.458   4.29871e-19
      338.562   4.18680e-19
      338.667   4.07677e-19
      338.771   3.97053e-19
      338.875   3.86703e-19
      338.979   3.76615e-19
      339.084   3.66701e-19
      339.188   3.57129e-19
      339.292   3.47806e-19
      339.397   3.38631e-19
      339.501   3.29783e-19
      339.606   3.21073e-19
      339.710   3.12674e-19
      339.815   3.04412e-19
      339.919   2.96443e-19
      340.024   2.88601e-19
      340.128   2.81042e-19
      340.233   2.73601e-19
      340.338   2.66361e-19
      340.442   2.59369e-19
      340.547   2.52497e-19
      340.652   2.45802e-19
      340.757   2.39284e-19
      340.862   2.32935e-19
      340.966   2.26811e-19
      341.071   2.20789e-19
      341.176   2.14924e-19
      341.281   2.09213e-19
      341.386   2.03654e-19
      341.491   1.98236e-19
      341.596   1.92964e-19
      341.702   1.87781e-19
      341.807   1.82782e-19
      341.912   1.77915e-19
      342.017   1.73175e-19
      342.122   1.68558e-19
      342.228   1.64025e-19
      342.333   1.59651e-19
      342.438   1.55392e-19
      342.544   1.51208e-19
      342.649   1.47171e-19
      342.754   1.43244e-19
      342.860   1.39381e-19
      342.965   1.35655e-19
      343.071   1.31998e-19
      343.176   1.28470e-19
      343.282   1.25001e-19
      343.388   1.21627e-19
      343.493   1.18385e-19
      343.599   1.15296e-19
      343.705   1.12297e-19
      343.810   1.09400e-19
      343.916   1.06553e-19
      344.022   1.03780e-19
      344.128   1.01078e-19
      344.234   9.84435e-20
      344.340   9.58789e-20
      344.446   9.33793e-20
      344.552   9.09445e-20
      344.658   8.85734e-20
      344.764   8.62645e-20
      344.870   8.40133e-20
      344.976   8.18219e-20
      345.082   7.96860e-20
      345.188   7.76070e-20
      345.294   7.55797e-20
      345.401   7.35878e-20
      345.507   7.16656e-20
      345.613   6.97936e-20
      345.719   6.79698e-20
      345.826   6.61770e-20
      345.932   6.44469e-20
      346.039   6.27465e-20
      346.145   6.11054e-20
      346.252   5.94927e-20
      346.358   5.79362e-20
      346.465   5.64071e-20
      346.571   5.49311e-20
      346.678   5.34798e-20
      346.785   5.20666e-20
      346.891   5.07037e-20
      346.998   4.93644e-20
      347.105   4.80599e-20
      347.212   4.67895e-20
      347.319   4.55523e-20
      347.425   4.43583e-20
      347.532   4.31851e-20
      347.639   4.20431e-20
      347.746   4.09309e-20
      347.853   3.98474e-20
      347.960   3.87931e-20
      348.067   3.77668e-20
      348.174   3.67674e-20
      348.281   3.57941e-20
      348.389   3.48378e-20
      348.496   3.39150e-20
      348.603   3.30177e-20
      348.710   3.21431e-20
      348.818   3.12841e-20
      348.925   3.04551e-20
      349.032   2.96484e-20
      349.140   2.88516e-20
      349.247   2.80826e-20
      349.355   2.73277e-20
      349.462   2.65993e-20
      349.570   2.58831e-20
      349.677   2.51932e-20
      349.785   2.45149e-20
      349.892   2.38612e-20
      350.000   2.32190e-20
      350.100   2.26398e-20
      350.193   2.21140e-20
      350.287   2.15946e-20
      350.380   2.10931e-20
      350.473   2.06031e-20
      350.567   2.01189e-20
      350.660   1.96515e-20
      350.754   1.91899e-20
      350.847   1.87441e-20
      350.941   1.83038e-20
      351.034   1.78784e-20
      351.128   1.74583e-20
      351.221   1.70527e-20
      351.315   1.66518e-20
      351.409   1.62603e-20
      351.502   1.58823e-20
      351.596   1.55091e-20
      351.690   1.51443e-20
      351.783   1.47922e-20
      351.877   1.44445e-20
      351.971   1.41048e-20
      352.065   1.37731e-20
      352.159   1.34492e-20
      352.252   1.31362e-20
      352.346   1.28271e-20
      352.440   1.25255e-20
      352.534   1.22310e-20
      352.628   1.19431e-20
      352.722   1.16620e-20
      352.816   1.13876e-20
      352.910   1.11197e-20
      353.004   1.08581e-20
      353.098   1.06024e-20
      353.192   1.03528e-20
      353.287   1.01065e-20
      353.381   9.86842e-21
      353.475   9.63618e-21
      353.569   9.40912e-21
      353.663   9.18760e-21
      353.758   8.96897e-21
      353.852   8.75773e-21
      353.946   8.55138e-21
      354.041   8.34775e-21
      354.135   8.15106e-21
      354.229   7.95890e-21
      354.324   7.76933e-21
      354.418   7.58619e-21
      354.513   7.40540e-21
      354.607   7.23092e-21
      354.702   7.05752e-21
      354.796   6.88587e-21
      354.891   6.71620e-21
      354.985   6.55247e-21
      355.080   6.39102e-21
      355.175   6.23342e-21
      355.269   6.08137e-21
      355.364   5.93138e-21
      355.459   5.78516e-21
      355.553   5.64390e-21
      355.648   5.50471e-21
      355.743   5.36896e-21
      355.838   5.23635e-21
      355.933   5.10717e-21
      356.027   4.98241e-21
      356.122   4.85934e-21
      356.217   4.73933e-21
      356.312   4.62235e-21
      356.407   4.50812e-21
      356.502   4.39674e-21
      356.597   4.28806e-21
      356.692   4.18207e-21
      356.787   4.07869e-21
      356.882   3.97777e-21
      356.977   3.87944e-21
      357.073   3.78249e-21
      357.168   3.68883e-21
      357.263   3.59755e-21
      357.358   3.50848e-21
      357.453   3.42163e-21
      357.549   3.33602e-21
      357.644   3.25339e-21
      357.739   3.17283e-21
      357.835   3.09334e-21
      357.930   3.01666e-21
      358.025   2.94187e-21
      358.121   2.86816e-21
      358.216   2.79701e-21
      358.312   2.72688e-21
      358.407   2.65922e-21
      358.503   2.59252e-21
      358.598   2.52819e-21
      358.694   2.46475e-21
      358.790   2.40286e-21
      358.885   2.34314e-21
      358.981   2.28429e-21
      359.076   2.22754e-21
      359.172   2.17159e-21
      359.268   2.11697e-21
      359.364   2.06373e-21
      359.459   2.01241e-21
      359.555   1.96179e-21
      359.651   1.91241e-21
      359.747   1.86428e-21
      359.843   1.81734e-21
      359.939   1.77157e-21
      360.035   1.72695e-21
      360.131   1.68346e-21
      360.227   1.64099e-21
      360.323   1.59963e-21
      360.419   1.55929e-21
      360.515   1.51997e-21
      360.611   1.48160e-21
      360.707   1.44416e-21
      360.803   1.40772e-21
      360.899   1.37214e-21
      360.995   1.33748e-21
      361.092   1.30332e-21
      361.188   1.27035e-21
      361.284   1.23822e-21
      361.380   1.20689e-21
      361.477   1.17602e-21
      361.573   1.14623e-21
      361.669   1.11720e-21
      361.766   1.08859e-21
      361.862   1.06100e-21
      361.959   1.03383e-21
      362.055   1.00757e-21
      362.152   9.81754e-22
      362.248   9.56830e-22
      362.345   9.32262e-22
      362.441   9.08590e-22
      362.538   8.85264e-22
      362.635   8.62528e-22
      362.731   8.40581e-22
      362.828   8.18968e-22
      362.925   7.97908e-22
      363.021   7.77586e-22
      363.118   7.57582e-22
      363.215   7.38069e-22
      363.312   7.19051e-22
      363.409   7.00528e-22
      363.505   6.82653e-22
      363.602   6.65040e-22
      363.699   6.47885e-22
      363.796   6.31162e-22
      363.893   6.14862e-22
      363.990   5.98978e-22
      364.087   5.83499e-22
      364.184   5.68414e-22
      364.281   5.53705e-22
      364.378   5.39379e-22
      364.475   5.25415e-22
      364.573   5.11665e-22
      364.670   4.98406e-22
      364.767   4.85486e-22
      364.864   4.72892e-22
      364.961   4.60623e-22
      365.059   4.48544e-22
      365.156   4.36900e-22
      365.253   4.25546e-22
      365.351   4.14371e-22
      365.448   4.03593e-22
      365.545   3.93095e-22
      365.643   3.82757e-22
      365.740   3.72786e-22
      365.838   3.62974e-22
      365.935   3.53516e-22
      366.033   3.44205e-22
      366.130   3.35223e-22
      366.228   3.26385e-22
      366.326   3.17777e-22
      366.423   3.09477e-22
      366.521   3.01307e-22
      366.618   2.93424e-22
      366.716   2.85670e-22
      366.814   2.78119e-22
      366.912   2.70766e-22
      367.010   2.63597e-22
      367.107   2.56688e-22
      367.205   2.49886e-22
      367.303   2.43263e-22
      367.401   2.36813e-22
      367.499   2.30529e-22
      367.597   2.24410e-22
      367.695   2.18451e-22
      367.793   2.12649e-22
      367.891   2.06998e-22
      367.989   2.01490e-22
      368.087   1.96130e-22
      368.185   1.90909e-22
      368.283   1.85824e-22
      368.381   1.80870e-22
      368.480   1.76000e-22
      368.578   1.71304e-22
      368.676   1.66733e-22
      368.774   1.62282e-22
      368.873   1.57904e-22
      368.971   1.53684e-22
      369.069   1.49573e-22
      369.168   1.45529e-22
      369.266   1.41633e-22
      369.364   1.37840e-22
      369.463   1.34109e-22
      369.561   1.30514e-22
      369.660   1.26978e-22
      369.758   1.23570e-22
      369.857   1.20220e-22
      369.955   1.16991e-22
      370.054   1.13814e-22
      370.153   1.10722e-22
      370.251   1.07744e-22
      370.350   1.04815e-22
      370.449   1.01965e-22
      370.547   9.92175e-23
      370.646   9.65142e-23
      370.745   9.38860e-23
      370.844   9.13270e-23
      370.943   8.88366e-23
      371.041   8.64375e-23
      371.140   8.40774e-23
      371.239   8.17805e-23
      371.338   7.95463e-23
      371.437   7.73721e-23
      371.536   7.52566e-23
      371.635   7.31964e-23
      371.734   7.11927e-23
      371.833   6.92430e-23
      371.932   6.73456e-23
      372.032   6.54806e-23
      372.131   6.36838e-23
      372.230   6.19367e-23
      372.329   6.02362e-23
      372.428   5.85812e-23
      372.528   5.69554e-23
      372.627   5.53901e-23
      372.726   5.38667e-23
      372.826   5.23696e-23
      372.925   5.09275e-23
      373.024   4.95242e-23
      373.124   4.81452e-23
      373.223   4.68183e-23
      373.323   4.55143e-23
      373.422   4.42580e-23
      373.522   4.30235e-23
      373.621   4.18357e-23
      373.721   4.06679e-23
      373.820   3.95438e-23
      373.920   3.84391e-23
      374.020   3.73641e-23
      374.119   3.63300e-23
      374.219   3.53133e-23
      374.319   3.43254e-23
      374.419   3.33649e-23
      374.518   3.24393e-23
      374.618   3.15303e-23
      374.718   3.06456e-23
      374.818   2.97864e-23
      374.918   2.89511e-23
      375.018   2.81382e-23
      375.118   2.73482e-23
      375.218   2.65796e-23
      375.318   2.58325e-23
      375.418   2.51058e-23
      375.518   2.43998e-23
      375.618   2.37134e-23
      375.718   2.30455e-23
      375.818   2.23965e-23
      375.918   2.17654e-23
      376.019   2.11460e-23
      376.119   2.05496e-23
      376.219   1.99699e-23
      376.319   1.94061e-23
      376.420   1.88530e-23
      376.520   1.83205e-23
      376.620   1.78030e-23
      376.721   1.72947e-23
      376.821   1.68058e-23
      376.922   1.63257e-23
      377.022   1.58636e-23
      377.122   1.54146e-23
      377.223   1.49738e-23
      377.323   1.45498e-23
      377.424   1.41333e-23
      377.525   1.37287e-23
      377.625   1.33394e-23
      377.726   1.29573e-23
      377.827   1.25860e-23
      377.927   1.22286e-23
      378.028   1.18781e-23
      378.129   1.15372e-23
      378.230   1.12060e-23
      378.330   1.08874e-23
      378.431   1.05747e-23
      378.532   1.02711e-23
      378.633   9.97585e-24
      378.734   9.68900e-24
      378.835   9.41039e-24
      378.936   9.13974e-24
      379.037   8.87677e-24
      379.138   8.62120e-24
      379.239   8.37289e-24
      379.340   8.13188e-24
      379.441   7.89760e-24
      379.542   7.66993e-24
      379.643   7.44888e-24
      379.745   7.23200e-24
      379.846   7.02333e-24
      379.947   6.82061e-24
      380.048   6.62382e-24
      380.150   6.43068e-24
      380.251   6.24493e-24
      380.352   6.06456e-24
      380.454   5.88766e-24
      380.555   5.71746e-24
      380.656   5.55211e-24
      380.758   5.38995e-24
      380.859   5.23404e-24
      380.961   5.08118e-24
      381.062   4.93412e-24
      381.164   4.78986e-24
      381.266   4.64980e-24
      381.367   4.51511e-24
      381.469   4.38304e-24
      381.570   4.25604e-24
      381.672   4.13149e-24
      381.774   4.01051e-24
      381.876   3.89306e-24
      381.977   3.78014e-24
      382.079   3.66940e-24
      382.181   3.56186e-24
      382.283   3.45752e-24
      382.385   3.35615e-24
      382.487   3.25768e-24
      382.589   3.16215e-24
      382.691   3.06940e-24
      382.793   2.97935e-24
      382.895   2.89190e-24
      382.997   2.80699e-24
      383.099   2.72457e-24
      383.201   2.64457e-24
      383.303   2.56688e-24
      383.405   2.49145e-24
      383.507   2.41822e-24
      383.610   2.34648e-24
      383.712   2.27748e-24
      383.814   2.21054e-24
      383.916   2.14555e-24
      384.019   2.08182e-24
      384.121   2.02056e-24
      384.223   1.96111e-24
      384.326   1.90285e-24
      384.428   1.84679e-24
      384.531   1.79185e-24
      384.633   1.73904e-24
      384.736   1.68727e-24
      384.838   1.63751e-24
      384.941   1.58875e-24
      385.043   1.54187e-24
      385.146   1.49596e-24
      385.249   1.45140e-24
      385.351   1.40856e-24
      385.454   1.36658e-24
      385.557   1.32586e-24
      385.660   1.28633e-24
      385.762   1.24835e-24
      385.865   1.21113e-24
      385.968   1.17500e-24
      386.071   1.13994e-24
      386.174   1.10593e-24
      386.277   1.07294e-24
      386.380   1.04092e-24
      386.483   1.00985e-24
      386.586   9.79719e-25
      386.689   9.50470e-25
      386.792   9.22086e-25
      386.895   8.94549e-25
      386.998   8.67831e-25
      387.101   8.41914e-25
      387.204   8.16746e-25
      387.308   7.92108e-25
      387.411   7.68434e-25
      387.514   7.45464e-25
      387.617   7.23183e-25
      387.721   7.01362e-25
      387.824   6.80391e-25
      387.927   6.60029e-25
      388.031   6.40100e-25
      388.134   6.20953e-25
      388.238   6.02208e-25
      388.341   5.84183e-25
      388.445   5.66535e-25
      388.548   5.49572e-25
      388.652   5.32967e-25
      388.755   5.17015e-25
      388.859   5.01387e-25
      388.962   4.86374e-25
      389.066   4.71664e-25
      389.170   4.57411e-25
      389.274   4.43577e-25
      389.377   4.30285e-25
      389.481   4.17262e-25
      389.585   4.04642e-25
      389.689   3.92399e-25
      389.793   3.80519e-25
      389.897   3.69008e-25
      390.000   3.57940e-25
      390.104   3.47107e-25
      390.208   3.36594e-25
      390.312   3.26402e-25
      390.416   3.16518e-25
      390.520   3.06924e-25
      390.625   2.97530e-25
      390.729   2.88516e-25
      390.833   2.79767e-25
      390.937   2.71284e-25
      391.041   2.63061e-25
      391.145   2.55085e-25
      391.250   2.47273e-25
      391.354   2.39775e-25
      391.458   2.32501e-25
      391.563   2.25379e-25
      391.667   2.18541e-25
      391.771   2.11910e-25
      391.876   2.05416e-25
      391.980   1.99178e-25
      392.085   1.93074e-25
      392.189   1.87211e-25
      392.294   1.81471e-25
      392.398   1.75959e-25
      392.503   1.70563e-25
      392.607   1.65381e-25
      392.712   1.60310e-25
      392.817   1.55389e-25
      392.921   1.50668e-25
      393.026   1.46043e-25
      393.131   1.41562e-25
      393.236   1.37214e-25
      393.340   1.33041e-25
      393.445   1.28957e-25
      393.550   1.24997e-25
      393.655   1.21157e-25
      393.760   1.17436e-25
      393.865   1.13827e-25
      393.970   1.10331e-25
      394.075   1.06938e-25
      394.180   1.03652e-25
      394.285   1.00465e-25
      394.390   9.73771e-26
      394.495   9.43811e-26
      394.600   9.14784e-26
      394.706   8.86382e-26
      394.811   8.59117e-26
      394.916   8.32662e-26
      395.021   8.07030e-26
      395.126   7.82201e-26
      395.232   7.57881e-26
      395.337   7.34536e-26
      395.443   7.11703e-26
      395.548   6.89779e-26
      395.653   6.68532e-26
      395.759   6.47728e-26
      395.864   6.27767e-26
      395.970   6.08234e-26
      396.075   5.89479e-26
      396.181   5.71125e-26
      396.286   5.53500e-26
      396.392   5.36273e-26
      396.498   5.19572e-26
      396.603   5.03525e-26
      396.709   4.87841e-26
      396.815   4.72634e-26
      396.921   4.57893e-26
      397.026   4.43747e-26
      397.132   4.29900e-26
      397.238   4.16492e-26
      397.344   4.03484e-26
      397.450   3.90903e-26
      397.556   3.78691e-26
      397.662   3.66863e-26
      397.768   3.55409e-26
      397.874   3.44302e-26
      397.980   3.33544e-26
      398.086   3.23114e-26
      398.192   3.13015e-26
      398.298   3.03224e-26
      398.404   2.93738e-26
      398.510   2.84547e-26
      398.617   2.75565e-26
      398.723   2.66939e-26
      398.829   2.58576e-26
      398.935   2.50476e-26
      399.042   2.42560e-26
      399.148   2.34955e-26
      399.255   2.27527e-26
      399.361   2.20394e-26
      399.467   2.13477e-26
      399.574   2.06722e-26
      399.680   2.00233e-26
      399.787   1.93889e-26
      399.893       0.00000
      400.000       0.00000
