Filter C-poly
observation_date 22-Sept-2015 22:40:45
wavelength effective area 
      1.00000   2.78570e-10
      1.10000   7.95343e-10
      1.20000   2.06791e-09
      1.30000   4.94567e-09
      1.40000   1.12244e-08
      1.50000   2.39516e-08
      1.60000   4.85004e-08
      1.70000   9.41852e-08
      1.80000   1.75406e-07
      1.90000   3.15376e-07
      2.00000   5.48502e-07
      2.10000   9.26865e-07
      2.20000   1.52905e-06
      2.30000   2.45928e-06
      2.40000   3.86317e-06
      2.50000   5.90759e-06
      2.60000   9.02153e-06
      2.70000   1.34599e-05
      2.80000   1.96986e-05
      2.90000   2.85344e-05
      3.00000   4.06905e-05
      3.10000   5.72827e-05
      3.20000   7.97648e-05
      3.30000   0.000109947
      3.40000   0.000149980
      3.50000   0.000202621
      3.60000   0.000272498
      3.70000   0.000362600
      3.80000   0.000480530
      3.90000   0.000633322
      4.00000   0.000829555
      4.10000    0.00108163
      4.20000    0.00140535
      4.30000    0.00182089
      4.40000    0.00235318
      4.50000    0.00303292
      4.60000    0.00389613
      4.70000    0.00500523
      4.80000    0.00642399
      4.90000    0.00813928
      5.00000     0.0105852
      5.10000     0.0135725
      5.20000     0.0174564
      5.30000     0.0222626
      5.40000     0.0283492
      5.50000     0.0361655
      5.60000     0.0447241
      5.70000     0.0582718
      5.80000     0.0684827
      5.90000      0.104822
      6.00000      0.141264
      6.10000      0.181016
      6.20000      0.222871
      6.30000      0.263046
      6.40000      0.297823
      6.50000      0.323805
      6.60000      0.336146
      6.70000      0.347677
      6.80000      0.349189
      6.90000      0.459528
      7.00000      0.501313
      7.10000      0.531889
      7.20000      0.556709
      7.30000      0.577435
      7.40000      0.593846
      7.50000      0.607430
      7.60000      0.618288
      7.70000      0.624751
      7.80000      0.625553
      7.90000      0.627147
      8.00000      0.910189
      8.10000      0.999819
      8.20000       1.01968
      8.30000       1.03503
      8.40000       1.04645
      8.50000       1.05630
      8.60000       1.06425
      8.70000       1.07099
      8.80000       1.07617
      8.90000       1.08030
      9.00000       1.08330
      9.10000       1.08521
      9.20000       1.08625
      9.30000       1.08629
      9.40000       1.08550
      9.50000       1.08394
      9.60000       1.08154
      9.70000       1.07841
      9.80000       1.07471
      9.90000       1.07045
      10.0000       1.06571
      10.1000       1.06049
      10.2000       1.05482
      10.3000       1.04864
      10.4000       1.04196
      10.5000       1.03483
      10.6000       1.02728
      10.7000       1.01933
      10.8000       1.01098
      10.9000       1.00228
      11.0000      0.993227
      11.1000      0.983862
      11.2000      0.974185
      11.3000      0.964236
      11.4000      0.954004
      11.5000      0.943484
      11.6000      0.932694
      11.7000      0.921553
      11.8000      0.910164
      11.9000      0.898384
      12.0000      0.885280
      12.1000      0.875292
      12.2000      0.880581
      12.3000      0.876605
      12.4000      0.866103
      12.5000      0.854951
      12.6000      0.843488
      12.7000      0.831846
      12.8000      0.820076
      12.9000      0.808190
      13.0000      0.796239
      13.1000      0.784252
      13.2000      0.772255
      13.3000      0.760263
      13.4000      0.748301
      13.5000      0.736499
      13.6000      0.724839
      13.7000      0.713226
      13.8000      0.701653
      13.9000      0.690152
      14.0000      0.678718
      14.1000      0.667332
      14.2000      0.655995
      14.3000      0.644702
      14.4000      0.633439
      14.5000      0.622217
      14.6000      0.611032
      14.7000      0.599887
      14.8000      0.588790
      14.9000      0.577746
      15.0000      0.566763
      15.1000      0.555856
      15.2000      0.545040
      15.3000      0.534309
      15.4000      0.523662
      15.5000      0.513108
      15.6000      0.502680
      15.7000      0.492356
      15.8000      0.482179
      15.9000      0.472129
      16.0000      0.462204
      16.1000      0.452411
      16.2000      0.442781
      16.3000      0.433272
      16.4000      0.423875
      16.5000      0.414587
      16.6000      0.405418
      16.7000      0.396370
      16.8000      0.387425
      16.9000      0.378582
      17.0000      0.369862
      17.1000      0.361263
      17.2000      0.352762
      17.3000      0.344373
      17.4000      0.336264
      17.5000      0.328413
      17.6000      0.320786
      17.7000      0.313422
      17.8000      0.306459
      17.9000      0.299607
      18.0000      0.292810
      18.1000      0.286114
      18.2000      0.279453
      18.3000      0.272815
      18.4000      0.266182
      18.5000      0.259573
      18.6000      0.252974
      18.7000      0.246358
      18.8000      0.239853
      18.9000      0.233431
      19.0000      0.227124
      19.1000      0.220942
      19.2000      0.214855
      19.3000      0.208910
      19.4000      0.203093
      19.5000      0.197374
      19.6000      0.191829
      19.7000      0.186387
      19.8000      0.181040
      19.9000      0.175854
      20.0000      0.170746
      20.1000      0.165742
      20.2000      0.160846
      20.3000      0.156018
      20.4000      0.151315
      20.5000      0.146686
      20.6000      0.142127
      20.7000      0.137690
      20.8000      0.133309
      20.9000      0.129019
      21.0000      0.124813
      21.1000      0.120680
      21.2000      0.116628
      21.3000      0.112627
      21.4000      0.108731
      21.5000      0.104880
      21.6000      0.101069
      21.7000     0.0973335
      21.8000     0.0936319
      21.9000     0.0899169
      22.0000     0.0862190
      22.1000     0.0825335
      22.2000     0.0787248
      22.3000     0.0748132
      22.4000     0.0698077
      22.5000     0.0644782
      22.6000     0.0545226
      22.7000     0.0488759
      22.8000     0.0641720
      22.9000     0.0826763
      23.0000      0.104457
      23.1000      0.117856
      23.2000      0.123584
      23.3000      0.123840
      23.4000      0.121386
      23.5000      0.118813
      23.6000      0.116220
      23.7000      0.113372
      23.8000      0.110517
      23.9000      0.107691
      24.0000      0.104877
      24.1000      0.102057
      24.2000     0.0992624
      24.3000     0.0965297
      24.4000     0.0938224
      24.5000     0.0911630
      24.6000     0.0885408
      24.7000     0.0859860
      24.8000     0.0834684
      24.9000     0.0810106
      25.0000     0.0785952
      25.1000     0.0762462
      25.2000     0.0739371
      25.3000     0.0716907
      25.4000     0.0694865
      25.5000     0.0673537
      25.6000     0.0652641
      25.7000     0.0632566
      25.8000     0.0612804
      25.9000     0.0593747
      26.0000     0.0574937
      26.1000     0.0556847
      26.2000     0.0538936
      26.3000     0.0521813
      26.4000     0.0504784
      26.5000     0.0488558
      26.6000     0.0472415
      26.7000     0.0457019
      26.8000     0.0441802
      26.9000     0.0427164
      27.0000     0.0412754
      27.1000     0.0398751
      27.2000     0.0385031
      27.3000     0.0372484
      27.4000     0.0361374
      27.5000     0.0350153
      27.6000     0.0338509
      27.7000     0.0326948
      27.8000     0.0315793
      27.9000     0.0304697
      28.0000     0.0294157
      28.1000     0.0283770
      28.2000     0.0273784
      28.3000     0.0264082
      28.4000     0.0254623
      28.5000     0.0245577
      28.6000     0.0236620
      28.7000     0.0228233
      28.8000     0.0219892
      28.9000     0.0211979
      29.0000     0.0204217
      29.1000     0.0196716
      29.2000     0.0189502
      29.3000     0.0182390
      29.4000     0.0175699
      29.5000     0.0169045
      29.6000     0.0162761
      29.7000     0.0156598
      29.8000     0.0150641
      29.9000     0.0144944
      30.0000     0.0139295
      30.1000     0.0134036
      30.2000     0.0128806
      30.3000     0.0129594
      30.4000     0.0133799
      30.5000     0.0136011
      30.6000     0.0130901
      30.7000     0.0125821
      30.8000     0.0121034
      30.9000     0.0116355
      31.0000     0.0111803
      31.1000     0.0107500
      31.2000     0.0103223
      31.3000    0.00992196
      31.4000    0.00952937
      31.5000    0.00914823
      31.6000    0.00878851
      31.7000    0.00843097
      31.8000    0.00809669
      31.9000    0.00776973
      32.0000    0.00745108
      32.1000    0.00715262
      32.2000    0.00685599
      32.3000    0.00657731
      32.4000    0.00630743
      32.5000    0.00604241
      32.6000    0.00580468
      32.7000    0.00556839
      32.8000    0.00534301
      32.9000    0.00512824
      33.0000    0.00491479
      33.1000    0.00472662
      33.2000    0.00454276
      33.3000    0.00436330
      33.4000    0.00419570
      33.5000    0.00402916
      33.6000    0.00387111
      33.7000    0.00371964
      33.8000    0.00356906
      33.9000    0.00343000
      34.0000    0.00329323
      34.1000    0.00315959
      34.2000    0.00303577
      34.3000    0.00291265
      34.4000    0.00279470
      34.5000    0.00268321
      34.6000    0.00257235
      34.7000    0.00246791
      34.8000    0.00236679
      34.9000    0.00226622
      35.0000    0.00217425
      35.1000    0.00208363
      35.2000    0.00199439
      35.3000    0.00191288
      35.4000    0.00183183
      35.5000    0.00175335
      35.6000    0.00168059
      35.7000    0.00160825
      35.8000    0.00153930
      35.9000    0.00147450
      36.0000    0.00141006
      36.1000    0.00134953
      36.2000    0.00129193
      36.3000    0.00123465
      36.4000    0.00118152
      36.5000    0.00113041
      36.6000    0.00107960
      36.7000    0.00103298
      36.8000   0.000987747
      36.9000   0.000942774
      37.0000   0.000901875
      37.1000   0.000861934
      37.2000   0.000822217
      37.3000   0.000786338
      37.4000   0.000751147
      37.5000   0.000716156
      37.6000   0.000684668
      37.7000   0.000653733
      37.8000   0.000622973
      37.9000   0.000595330
      38.0000   0.000568202
      38.1000   0.000541228
      38.2000   0.000516940
      38.3000   0.000493200
      38.4000   0.000469594
      38.5000   0.000448240
      38.6000   0.000427518
      38.7000   0.000406914
      38.8000   0.000388125
      38.9000   0.000370081
      39.0000   0.000352140
      39.1000   0.000335594
      39.2000   0.000319923
      39.3000   0.000304342
      39.4000   0.000289756
      39.5000   0.000276179
      39.6000   0.000262682
      39.7000   0.000249813
      39.8000   0.000238084
      39.9000   0.000226423
      40.0000   0.000215060
      40.1000   0.000204953
      40.2000   0.000194906
      40.3000   0.000184919
      40.4000   0.000176175
      40.5000   0.000167540
      40.6000   0.000158956
      40.7000   0.000151208
      40.8000   0.000143804
      40.9000   0.000136443
      41.0000   0.000129570
      41.1000   0.000123240
      41.2000   0.000116948
      41.3000   0.000110849
      41.4000   0.000105458
      41.5000   0.000100099
      41.6000   9.47724e-05
      41.7000   9.01015e-05
      41.8000   8.55463e-05
      41.9000   8.10185e-05
      42.0000   7.68534e-05
      42.1000   7.29950e-05
      42.2000   6.91592e-05
      42.3000   6.54413e-05
      42.4000   6.21812e-05
      42.5000   5.89400e-05
      42.6000   5.57186e-05
      42.7000   5.28751e-05
      42.8000   5.01442e-05
      42.9000   4.74294e-05
      43.0000   4.48768e-05
      43.1000   4.25834e-05
      43.2000   4.03037e-05
      43.3000   3.80378e-05
      43.4000     0.0382569
      43.5000     0.0870193
      43.6000      0.147311
      43.7000      0.192636
      43.8000      0.202454
      43.9000      0.200087
      44.0000      0.197726
      44.1000      0.195418
      44.2000      0.193119
      44.3000      0.190825
      44.4000      0.188558
      44.5000      0.186324
      44.6000      0.184096
      44.7000      0.181873
      44.8000      0.179700
      44.9000      0.177539
      45.0000      0.175384
      45.1000      0.173248
      45.2000      0.171151
      45.3000      0.169060
      45.4000      0.166973
      45.5000      0.164926
      45.6000      0.162899
      45.7000      0.160878
      45.8000      0.158863
      45.9000      0.156901
      46.0000      0.154942
      46.1000      0.152989
      46.2000      0.151126
      46.3000      0.149416
      46.4000      0.147710
      46.5000      0.146009
      46.6000      0.144363
      46.7000      0.142747
      46.8000      0.141135
      46.9000      0.139527
      47.0000      0.137996
      47.1000      0.136473
      47.2000      0.134955
      47.3000      0.133448
      47.4000      0.131981
      47.5000      0.130517
      47.6000      0.129057
      47.7000      0.127614
      47.8000      0.126195
      47.9000      0.124780
      48.0000      0.123369
      48.1000      0.121981
      48.2000      0.120611
      48.3000      0.119245
      48.4000      0.117882
      48.5000      0.116546
      48.6000      0.115222
      48.7000      0.113901
      48.8000      0.112584
      48.9000      0.111299
      49.0000      0.110023
      49.1000      0.108749
      49.2000      0.107480
      49.3000      0.106244
      49.4000      0.105013
      49.5000      0.103786
      49.6000      0.102562
      49.7000      0.101373
      49.8000      0.100187
      49.9000     0.0990043
      50.0000     0.0978262
      50.1000     0.0966852
      50.2000     0.0956052
      50.3000     0.0945341
      50.4000     0.0934735
      50.5000     0.0924223
      50.6000     0.0913815
      50.7000     0.0903520
      50.8000     0.0893307
      50.9000     0.0883209
      51.0000     0.0873295
      51.1000     0.0863509
      51.2000     0.0853813
      51.3000     0.0844211
      51.4000     0.0834718
      51.5000     0.0825297
      51.6000     0.0815958
      51.7000     0.0806705
      51.8000     0.0797466
      51.9000     0.0788307
      52.0000     0.0779233
      52.1000     0.0770247
      52.2000     0.0761349
      52.3000     0.0752526
      52.4000     0.0743792
      52.5000     0.0735144
      52.6000     0.0726568
      52.7000     0.0718060
      52.8000     0.0709627
      52.9000     0.0701275
      53.0000     0.0693008
      53.1000     0.0684818
      53.2000     0.0676722
      53.3000     0.0668709
      53.4000     0.0660767
      53.5000     0.0652896
      53.6000     0.0645095
      53.7000     0.0637368
      53.8000     0.0629733
      53.9000     0.0622172
      54.0000     0.0614693
      54.1000     0.0607301
      54.2000     0.0599968
      54.3000     0.0592706
      54.4000     0.0585518
      54.5000     0.0578400
      54.6000     0.0571365
      54.7000     0.0564402
      54.8000     0.0557515
      54.9000     0.0550698
      55.0000     0.0543950
      55.1000     0.0537262
      55.2000     0.0530396
      55.3000     0.0523383
      55.4000     0.0516442
      55.5000     0.0509578
      55.6000     0.0502790
      55.7000     0.0496082
      55.8000     0.0489444
      55.9000     0.0482872
      56.0000     0.0476447
      56.1000     0.0469982
      56.2000     0.0463489
      56.3000     0.0457069
      56.4000     0.0450724
      56.5000     0.0444444
      56.6000     0.0438236
      56.7000     0.0432106
      56.8000     0.0426045
      56.9000     0.0420074
      57.0000     0.0414167
      57.1000     0.0408321
      57.2000     0.0402532
      57.3000     0.0396812
      57.4000     0.0391156
      57.5000     0.0385573
      57.6000     0.0380054
      57.7000     0.0374600
      57.8000     0.0369222
      57.9000     0.0363916
      58.0000     0.0358671
      58.1000     0.0353478
      58.2000     0.0348355
      58.3000     0.0343293
      58.4000     0.0338293
      58.5000     0.0333352
      58.6000     0.0328480
      58.7000     0.0323664
      58.8000     0.0318911
      58.9000     0.0314214
      59.0000     0.0309574
      59.1000     0.0304989
      59.2000     0.0300466
      59.3000     0.0295999
      59.4000     0.0291593
      59.5000     0.0287241
      59.6000     0.0282948
      59.7000     0.0278702
      59.8000     0.0274513
      59.9000     0.0270374
      60.0000     0.0266293
      60.1000     0.0262261
      60.2000     0.0258287
      60.3000     0.0254365
      60.4000     0.0250495
      60.5000     0.0246679
      60.6000     0.0242906
      60.7000     0.0239176
      60.8000     0.0235491
      60.9000     0.0231857
      61.0000     0.0228270
      61.1000     0.0224735
      61.2000     0.0221245
      61.3000     0.0217808
      61.4000     0.0214412
      61.5000     0.0211064
      61.6000     0.0207755
      61.7000     0.0204488
      61.8000     0.0201276
      61.9000     0.0198115
      62.0000     0.0194998
      62.1000     0.0191923
      62.2000     0.0188893
      62.3000     0.0185903
      62.4000     0.0182957
      62.5000     0.0180047
      62.6000     0.0177177
      62.7000     0.0174342
      62.8000     0.0171562
      62.9000     0.0168820
      63.0000     0.0166117
      63.1000     0.0163455
      63.2000     0.0160828
      63.3000     0.0158236
      63.4000     0.0155676
      63.5000     0.0153159
      63.6000     0.0150674
      63.7000     0.0148225
      63.8000     0.0145813
      63.9000     0.0143437
      64.0000     0.0141097
      64.1000     0.0138789
      64.2000     0.0136519
      64.3000     0.0134280
      64.4000     0.0132071
      64.5000     0.0129892
      64.6000     0.0127743
      64.7000     0.0125627
      64.8000     0.0123540
      64.9000     0.0121485
      65.0000     0.0119460
      65.1000     0.0117467
      65.2000     0.0115506
      65.3000     0.0113570
      65.4000     0.0111664
      65.5000     0.0109785
      65.6000     0.0107931
      65.7000     0.0106106
      65.8000     0.0104309
      65.9000     0.0102544
      66.0000     0.0100804
      66.1000    0.00990916
      66.2000    0.00974060
      66.3000    0.00957447
      66.4000    0.00941092
      66.5000    0.00924961
      66.6000    0.00909075
      66.7000    0.00893437
      66.8000    0.00878038
      66.9000    0.00863200
      67.0000    0.00848867
      67.1000    0.00834813
      67.2000    0.00820988
      67.3000    0.00807354
      67.4000    0.00793932
      67.5000    0.00780698
      67.6000    0.00767653
      67.7000    0.00754804
      67.8000    0.00742110
      67.9000    0.00729579
      68.0000    0.00717316
      68.1000    0.00705306
      68.2000    0.00693480
      68.3000    0.00681825
      68.4000    0.00670360
      68.5000    0.00659083
      68.6000    0.00647954
      68.7000    0.00636998
      68.8000    0.00626202
      68.9000    0.00615726
      69.0000    0.00606292
      69.1000    0.00597796
      69.2000    0.00589563
      69.3000    0.00581562
      69.4000    0.00573869
      69.5000    0.00566011
      69.6000    0.00557894
      69.7000    0.00550097
      69.8000    0.00542695
      69.9000    0.00535398
      70.0000    0.00528169
      70.1000    0.00520888
      70.2000    0.00513965
      70.3000    0.00507405
      70.4000    0.00500866
      70.5000    0.00494481
      70.6000    0.00488246
      70.7000    0.00482099
      70.8000    0.00476009
      70.9000    0.00469772
      71.0000    0.00463406
      71.1000    0.00457331
      71.2000    0.00451561
      71.3000    0.00445435
      71.4000    0.00438858
      71.5000    0.00432805
      71.6000    0.00427507
      71.7000    0.00422160
      71.8000    0.00416641
      71.9000    0.00411312
      72.0000    0.00406387
      72.1000    0.00401362
      72.2000    0.00395578
      72.3000    0.00389888
      72.4000    0.00384909
      72.5000    0.00379994
      72.6000    0.00375132
      72.7000    0.00370342
      72.8000    0.00365607
      72.9000    0.00360929
      73.0000    0.00356429
      73.1000    0.00352036
      73.2000    0.00347695
      73.3000    0.00343414
      73.4000    0.00339221
      73.5000    0.00335145
      73.6000    0.00331123
      73.7000    0.00327148
      73.8000    0.00323212
      73.9000    0.00319321
      74.0000    0.00315498
      74.1000    0.00312027
      74.2000    0.00308693
      74.3000    0.00305086
      74.4000    0.00301277
      74.5000    0.00297578
      74.6000    0.00294061
      74.7000    0.00290581
      74.8000    0.00287139
      74.9000    0.00283735
      75.0000    0.00280330
      75.1000    0.00276950
      75.2000    0.00273612
      75.3000    0.00270312
      75.4000    0.00267075
      75.5000    0.00263946
      75.6000    0.00260852
      75.7000    0.00257787
      75.8000    0.00254766
      75.9000    0.00251820
      76.0000    0.00248914
      76.1000    0.00246042
      76.2000    0.00243202
      76.3000    0.00240396
      76.4000    0.00237668
      76.5000    0.00234978
      76.6000    0.00232312
      76.7000    0.00229669
      76.8000    0.00227056
      76.9000    0.00224474
      77.0000    0.00221918
      77.1000    0.00219388
      77.2000    0.00216887
      77.3000    0.00214410
      77.4000    0.00211959
      77.5000    0.00209537
      77.6000    0.00207094
      77.7000    0.00204671
      77.8000    0.00202274
      77.9000    0.00199901
      78.0000    0.00197520
      78.1000    0.00195080
      78.2000    0.00192673
      78.3000    0.00190479
      78.4000    0.00188373
      78.5000    0.00186271
      78.6000    0.00184139
      78.7000    0.00182030
      78.8000    0.00179868
      78.9000    0.00177715
      79.0000    0.00175582
      79.1000    0.00173469
      79.2000    0.00171387
      79.3000    0.00169389
      79.4000    0.00167431
      79.5000    0.00165473
      79.6000    0.00163476
      79.7000    0.00161500
      79.8000    0.00159514
      79.9000    0.00157536
      80.0000    0.00155578
      80.1000    0.00153571
      80.2000    0.00151581
      80.3000    0.00149542
      80.4000    0.00147460
      80.5000    0.00145398
      80.6000    0.00143362
      80.7000    0.00141352
      80.8000    0.00139376
      80.9000    0.00137448
      81.0000    0.00135546
      81.1000    0.00133674
      81.2000    0.00131826
      81.3000    0.00130004
      81.4000    0.00128336
      81.5000    0.00126696
      81.6000    0.00125112
      81.7000    0.00123623
      81.8000    0.00122156
      81.9000    0.00120759
      82.0000    0.00119401
      82.1000    0.00118060
      82.2000    0.00116694
      82.3000    0.00115344
      82.4000    0.00114036
      82.5000    0.00112784
      82.6000    0.00111545
      82.7000    0.00110283
      82.8000    0.00108993
      82.9000    0.00107714
      83.0000    0.00106463
      83.1000    0.00105231
      83.2000    0.00104012
      83.3000    0.00102804
      83.4000    0.00101612
      83.5000    0.00100437
      83.6000   0.000993004
      83.7000   0.000981764
      83.8000   0.000970587
      83.9000   0.000959354
      84.0000   0.000948218
      84.1000   0.000937359
      84.2000   0.000926873
      84.3000   0.000916481
      84.4000   0.000906063
      84.5000   0.000895663
      84.6000   0.000885376
      84.7000   0.000875367
      84.8000   0.000865541
      84.9000   0.000855840
      85.0000   0.000846023
      85.1000   0.000836243
      85.2000   0.000826570
      85.3000   0.000817369
      85.4000   0.000808340
      85.5000   0.000799416
      85.6000   0.000790384
      85.7000   0.000781433
      85.8000   0.000772574
      85.9000   0.000763803
      86.0000   0.000755105
      86.1000   0.000746491
      86.2000   0.000738220
      86.3000   0.000730046
      86.4000   0.000721947
      86.5000   0.000713917
      86.6000   0.000705967
      86.7000   0.000698104
      86.8000   0.000689781
      86.9000   0.000681526
      87.0000   0.000673379
      87.1000   0.000665451
      87.2000   0.000657628
      87.3000   0.000649881
      87.4000   0.000642026
      87.5000   0.000634226
      87.6000   0.000626504
      87.7000   0.000618969
      87.8000   0.000611532
      87.9000   0.000604174
      88.0000   0.000596901
      88.1000   0.000589697
      88.2000   0.000582574
      88.3000   0.000575671
      88.4000   0.000568989
      88.5000   0.000562407
      88.6000   0.000555841
      88.7000   0.000549268
      88.8000   0.000542769
      88.9000   0.000536332
      89.0000   0.000529938
      89.1000   0.000523614
      89.2000   0.000517354
      89.3000   0.000511154
      89.4000   0.000505004
      89.5000   0.000498915
      89.6000   0.000492889
      89.7000   0.000486928
      89.8000   0.000481030
      89.9000   0.000475190
      90.0000   0.000469410
      90.1000   0.000463703
      90.2000   0.000457950
      90.3000   0.000452006
      90.4000   0.000446122
      90.5000   0.000440309
      90.6000   0.000434666
      90.7000   0.000428986
      90.8000   0.000423249
      90.9000   0.000417434
      91.0000   0.000411662
      91.1000   0.000405967
      91.2000   0.000400278
      91.3000   0.000394556
      91.4000   0.000388892
      91.5000   0.000383312
      91.6000   0.000377817
      91.7000   0.000372791
      91.8000   0.000368434
      91.9000   0.000364842
      92.0000   0.000360836
      92.1000   0.000356778
      92.2000   0.000352517
      92.3000   0.000348085
      92.4000   0.000343578
      92.5000   0.000339140
      92.6000   0.000334758
      92.7000   0.000330427
      92.8000   0.000326145
      92.9000   0.000321958
      93.0000   0.000317927
      93.1000   0.000313943
      93.2000   0.000310010
      93.3000   0.000306244
      93.4000   0.000302563
      93.5000   0.000298921
      93.6000   0.000295317
      93.7000   0.000291753
      93.8000   0.000288246
      93.9000   0.000284777
      94.0000   0.000281347
      94.1000   0.000277958
      94.2000   0.000274612
      94.3000   0.000271326
      94.4000   0.000268154
      94.5000   0.000265024
      94.6000   0.000261932
      94.7000   0.000258880
      94.8000   0.000255858
      94.9000   0.000252867
      95.0000   0.000249909
      95.1000   0.000246995
      95.2000   0.000244102
      95.3000   0.000241233
      95.4000   0.000238396
      95.5000   0.000235634
      95.6000   0.000232901
      95.7000   0.000230195
      95.8000   0.000227488
      95.9000   0.000224797
      96.0000   0.000222133
      96.1000   0.000219494
      96.2000   0.000216880
      96.3000   0.000214299
      96.4000   0.000211745
      96.5000   0.000209219
      96.6000   0.000206732
      96.7000   0.000204285
      96.8000   0.000201857
      96.9000   0.000199450
      97.0000   0.000197067
      97.1000   0.000194722
      97.2000   0.000192398
      97.3000   0.000190069
      97.4000   0.000187740
      97.5000   0.000185444
      97.6000   0.000183175
      97.7000   0.000180944
      97.8000   0.000178747
      97.9000   0.000176578
      98.0000   0.000174429
      98.1000   0.000172300
      98.2000   0.000170199
      98.3000   0.000168253
      98.4000   0.000166388
      98.5000   0.000164582
      98.6000   0.000162796
      98.7000   0.000161028
      98.8000   0.000159275
      98.9000   0.000157538
      99.0000   0.000155824
      99.1000   0.000154124
      99.2000   0.000152432
      99.3000   0.000150712
      99.4000   0.000149014
      99.5000   0.000147333
      99.6000   0.000145678
      99.7000   0.000144109
      99.8000   0.000142589
      99.9000   0.000141354
      100.000   0.000140547
      100.100   0.000139695
      100.200   0.000138846
      100.300   0.000137999
      100.400   0.000137156
      100.500   0.000136338
      100.600   0.000135520
      100.700   0.000134705
      100.800   0.000133891
      100.900   0.000133079
      101.000   0.000132273
      101.100   0.000131472
      101.200   0.000130674
      101.300   0.000129878
      101.400   0.000129086
      101.500   0.000128298
      101.600   0.000127514
      101.700   0.000126748
      101.800   0.000125988
      101.900   0.000125230
      102.000   0.000124479
      102.100   0.000123751
      102.200   0.000123038
      102.300   0.000122327
      102.400   0.000121620
      102.500   0.000120913
      102.600   0.000120207
      102.700   0.000119504
      102.800   0.000118803
      102.900   0.000118104
      103.000   0.000117406
      103.100   0.000116710
      103.200   0.000116016
      103.300   0.000115324
      103.400   0.000114636
      103.500   0.000113950
      103.600   0.000113266
      103.700   0.000112583
      103.800   0.000111875
      103.900   0.000111140
      104.000   0.000110409
      104.100   0.000109684
      104.200   0.000108975
      104.300   0.000108349
      104.400   0.000107728
      104.500   0.000107109
      104.600   0.000106492
      104.700   0.000105853
      104.800   0.000105205
      104.900   0.000104558
      105.000   0.000103914
      105.100   0.000103291
      105.200   0.000102714
      105.300   0.000102141
      105.400   0.000101569
      105.500   0.000100998
      105.600   0.000100437
      105.700   9.98793e-05
      105.800   9.93232e-05
      105.900   9.87699e-05
      106.000   9.82332e-05
      106.100   9.77284e-05
      106.200   9.72269e-05
      106.300   9.67268e-05
      106.400   9.62286e-05
      106.500   9.57323e-05
      106.600   9.52379e-05
      106.700   9.47446e-05
      106.800   9.42521e-05
      106.900   9.37615e-05
      107.000   9.32731e-05
      107.100   9.27874e-05
      107.200   9.23043e-05
      107.300   9.18234e-05
      107.400   9.13417e-05
      107.500   9.08596e-05
      107.600   9.03787e-05
      107.700   8.98991e-05
      107.800   8.94216e-05
      107.900   8.89395e-05
      108.000   8.84583e-05
      108.100   8.79776e-05
      108.200   8.74977e-05
      108.300   8.70187e-05
      108.400   8.65349e-05
      108.500   8.60531e-05
      108.600   8.55727e-05
      108.700   8.50926e-05
      108.800   8.45921e-05
      108.900   8.40624e-05
      109.000   8.35345e-05
      109.100   8.30090e-05
      109.200   8.24858e-05
      109.300   8.19651e-05
      109.400   8.14465e-05
      109.500   8.09302e-05
      109.600   8.04166e-05
      109.700   7.99058e-05
      109.800   7.93984e-05
      109.900   7.88937e-05
      110.000   7.83912e-05
      110.100   7.78906e-05
      110.200   7.73919e-05
      110.300   7.69083e-05
      110.400   7.64284e-05
      110.500   7.59513e-05
      110.600   7.54765e-05
      110.700   7.50035e-05
      110.800   7.45318e-05
      110.900   7.40615e-05
      111.000   7.35926e-05
      111.100   7.31252e-05
      111.200   7.26606e-05
      111.300   7.22224e-05
      111.400   7.17858e-05
      111.500   7.13501e-05
      111.600   7.09160e-05
      111.700   7.04849e-05
      111.800   7.00716e-05
      111.900   6.96610e-05
      112.000   6.92523e-05
      112.100   6.88450e-05
      112.200   6.84390e-05
      112.300   6.80189e-05
      112.400   6.75997e-05
      112.500   6.71828e-05
      112.600   6.67681e-05
      112.700   6.63579e-05
      112.800   6.59642e-05
      112.900   6.55360e-05
      113.000   6.51220e-05
      113.100   6.47153e-05
      113.200   6.43036e-05
      113.300   6.39019e-05
      113.400   6.34209e-05
      113.500   6.29219e-05
      113.600   6.24953e-05
      113.700   6.20492e-05
      113.800   6.15580e-05
      113.900   6.11379e-05
      114.000   6.07198e-05
      114.100   6.02556e-05
      114.200   5.98179e-05
      114.300   5.94209e-05
      114.400   5.90152e-05
      114.500   5.86006e-05
      114.600   5.82374e-05
      114.700   5.78384e-05
      114.800   5.74659e-05
      114.900   5.71529e-05
      115.000   5.67986e-05
      115.100   5.64206e-05
      115.200   5.60415e-05
      115.300   5.57163e-05
      115.400   5.53430e-05
      115.500   5.49961e-05
      115.600   5.46303e-05
      115.700   5.42353e-05
      115.800   5.38836e-05
      115.900   5.35114e-05
      116.000   5.31765e-05
      116.100   5.28978e-05
      116.200   5.26156e-05
      116.300   5.23245e-05
      116.400   5.20169e-05
      116.500   5.17489e-05
      116.600   5.14692e-05
      116.700   5.11999e-05
      116.800   5.09200e-05
      116.900   5.05941e-05
      117.000   5.03224e-05
      117.100   5.02025e-05
      117.200   5.01885e-05
      117.300   5.00692e-05
      117.400   4.99424e-05
      117.500   4.98168e-05
      117.600   4.96304e-05
      117.700   4.94208e-05
      117.800   4.91802e-05
      117.900   4.89243e-05
      118.000   4.86390e-05
      118.100   4.83258e-05
      118.200   4.80366e-05
      118.300   4.77582e-05
      118.400   4.73682e-05
      118.500   4.69894e-05
      118.600   4.66640e-05
      118.700   4.63218e-05
      118.800   4.59566e-05
      118.900   4.56101e-05
      119.000   4.52054e-05
      119.100   4.47346e-05
      119.200   4.43241e-05
      119.300   4.39645e-05
      119.400   4.36346e-05
      119.500   4.33188e-05
      119.600   4.29656e-05
      119.700   4.25689e-05
      119.800   4.20847e-05
      119.900   4.14850e-05
      120.000   4.09274e-05
      120.100   4.04038e-05
      120.200   4.00289e-05
      120.300   3.97394e-05
      120.400   3.94501e-05
      120.500   3.90449e-05
      120.600   3.85533e-05
      120.700   3.80364e-05
      120.800   3.75418e-05
      120.900   3.72017e-05
      121.000   3.70989e-05
      121.100   3.69543e-05
      121.200   3.66926e-05
      121.300   3.63487e-05
      121.400   3.59436e-05
      121.500   3.54935e-05
      121.600   3.48622e-05
      121.700   3.43093e-05
      121.800   3.36960e-05
      121.900   3.30793e-05
      122.000   3.24240e-05
      122.100   3.18067e-05
      122.200   3.12002e-05
      122.300   3.07513e-05
      122.400   3.04708e-05
      122.500   3.02269e-05
      122.600   2.99631e-05
      122.700   2.96993e-05
      122.800   2.93998e-05
      122.900   2.91232e-05
      123.000   2.90379e-05
      123.100   2.92818e-05
      123.200   2.95461e-05
      123.300   2.99775e-05
      123.400   3.05460e-05
      123.500   3.13106e-05
      123.600   3.19582e-05
      123.700   3.22684e-05
      123.800   3.24820e-05
      123.900   3.27896e-05
      124.000   3.32495e-05
      124.100   3.42078e-05
      124.200   3.62266e-05
      124.300   3.92727e-05
      124.400   4.21978e-05
      124.500   4.29923e-05
      124.600   4.28036e-05
      124.700   4.25032e-05
      124.800   4.22156e-05
      124.900   4.19287e-05
      125.000   4.16418e-05
      125.100   4.13469e-05
      125.200   4.10523e-05
      125.300   4.07592e-05
      125.400   4.04676e-05
      125.500   4.01775e-05
      125.600   3.98888e-05
      125.700   3.96018e-05
      125.800   3.93163e-05
      125.900   3.90325e-05
      126.000   3.87505e-05
      126.100   3.84704e-05
      126.200   3.81920e-05
      126.300   3.79154e-05
      126.400   3.76403e-05
      126.500   3.73668e-05
      126.600   3.70948e-05
      126.700   3.68243e-05
      126.800   3.65554e-05
      126.900   3.62878e-05
      127.000   3.60208e-05
      127.100   3.57520e-05
      127.200   3.54831e-05
      127.300   3.52152e-05
      127.400   3.49488e-05
      127.500   3.46839e-05
      127.600   3.44206e-05
      127.700   3.41590e-05
      127.800   3.38989e-05
      127.900   3.36405e-05
      128.000   3.33836e-05
      128.100   3.31282e-05
      128.200   3.28742e-05
      128.300   3.26216e-05
      128.400   3.23705e-05
      128.500   3.21207e-05
      128.600   3.18722e-05
      128.700   3.16253e-05
      128.800   3.13798e-05
      128.900   3.11357e-05
      129.000   3.08933e-05
      129.100   3.06516e-05
      129.200   3.04096e-05
      129.300   3.01689e-05
      129.400   2.99299e-05
      129.500   2.96924e-05
      129.600   2.94565e-05
      129.700   2.92222e-05
      129.800   2.89895e-05
      129.900   2.87585e-05
      130.000   2.85290e-05
      130.100   2.83011e-05
      130.200   2.80747e-05
      130.300   2.78499e-05
      130.400   2.76268e-05
      130.500   2.74052e-05
      130.600   2.71853e-05
      130.700   2.69670e-05
      130.800   2.67503e-05
      130.900   2.65351e-05
      131.000   2.63215e-05
      131.100   2.61092e-05
      131.200   2.58982e-05
      131.300   2.56880e-05
      131.400   2.54791e-05
      131.500   2.52716e-05
      131.600   2.50653e-05
      131.700   2.48604e-05
      131.800   2.46567e-05
      131.900   2.44543e-05
      132.000   2.42532e-05
      132.100   2.40534e-05
      132.200   2.38548e-05
      132.300   2.36575e-05
      132.400   2.34616e-05
      132.500   2.32670e-05
      132.600   2.30738e-05
      132.700   2.28820e-05
      132.800   2.26915e-05
      132.900   2.25024e-05
      133.000   2.23144e-05
      133.100   2.21278e-05
      133.200   2.19424e-05
      133.300   2.17581e-05
      133.400   2.15750e-05
      133.500   2.13931e-05
      133.600   2.12126e-05
      133.700   2.10333e-05
      133.800   2.08554e-05
      133.900   2.06789e-05
      134.000   2.05037e-05
      134.100   2.03297e-05
      134.200   2.01571e-05
      134.300   1.99857e-05
      134.400   1.98157e-05
      134.500   1.96469e-05
      134.600   1.94794e-05
      134.700   1.93132e-05
      134.800   1.91482e-05
      134.900   1.89845e-05
      135.000   1.88220e-05
      135.100   1.86606e-05
      135.200   1.85006e-05
      135.300   1.83418e-05
      135.400   1.81841e-05
      135.500   1.80271e-05
      135.600   1.78708e-05
      135.700   1.77158e-05
      135.800   1.75619e-05
      135.900   1.74091e-05
      136.000   1.72574e-05
      136.100   1.71068e-05
      136.200   1.69574e-05
      136.300   1.68089e-05
      136.400   1.66615e-05
      136.500   1.65152e-05
      136.600   1.63698e-05
      136.700   1.62254e-05
      136.800   1.60821e-05
      136.900   1.59399e-05
      137.000   1.57986e-05
      137.100   1.56583e-05
      137.200   1.55191e-05
      137.300   1.53810e-05
      137.400   1.52439e-05
      137.500   1.51079e-05
      137.600   1.49729e-05
      137.700   1.48388e-05
      137.800   1.47055e-05
      137.900   1.45733e-05
      138.000   1.44422e-05
      138.100   1.43121e-05
      138.200   1.41831e-05
      138.300   1.40552e-05
      138.400   1.39283e-05
      138.500   1.38023e-05
      138.600   1.36774e-05
      138.700   1.35536e-05
      138.800   1.34307e-05
      138.900   1.33088e-05
      139.000   1.31880e-05
      139.100   1.30681e-05
      139.200   1.29493e-05
      139.300   1.28314e-05
      139.400   1.27145e-05
      139.500   1.25985e-05
      139.600   1.24834e-05
      139.700   1.23692e-05
      139.800   1.22560e-05
      139.900   1.21435e-05
      140.000   1.20320e-05
      140.100   1.19213e-05
      140.200   1.18115e-05
      140.300   1.17026e-05
      140.400   1.15945e-05
      140.500   1.14872e-05
      140.600   1.13808e-05
      140.700   1.12752e-05
      140.800   1.11705e-05
      140.900   1.10667e-05
      141.000   1.09637e-05
      141.100   1.08616e-05
      141.200   1.07602e-05
      141.300   1.06596e-05
      141.400   1.05598e-05
      141.500   1.04608e-05
      141.600   1.03626e-05
      141.700   1.02652e-05
      141.800   1.01686e-05
      141.900   1.00728e-05
      142.000   9.97765e-06
      142.100   9.88723e-06
      142.200   9.80881e-06
      142.300   9.74062e-06
      142.400   9.67277e-06
      142.500   9.60523e-06
      142.600   9.53799e-06
      142.700   9.47108e-06
      142.800   9.40451e-06
      142.900   9.33829e-06
      143.000   9.27240e-06
      143.100   9.20687e-06
      143.200   9.14173e-06
      143.300   9.07692e-06
      143.400   9.01247e-06
      143.500   8.94836e-06
      143.600   8.88458e-06
      143.700   8.82109e-06
      143.800   8.75799e-06
      143.900   8.69524e-06
      144.000   8.63279e-06
      144.100   8.57068e-06
      144.200   8.50889e-06
      144.300   8.44740e-06
      144.400   8.38716e-06
      144.500   8.33974e-06
      144.600   8.29638e-06
      144.700   8.25351e-06
      144.800   8.21067e-06
      144.900   8.16785e-06
      145.000   8.12505e-06
      145.100   8.08230e-06
      145.200   8.03954e-06
      145.300   7.99684e-06
      145.400   7.95416e-06
      145.500   7.91150e-06
      145.600   7.86886e-06
      145.700   7.82624e-06
      145.800   7.78368e-06
      145.900   7.74115e-06
      146.000   7.69864e-06
      146.100   7.65618e-06
      146.200   7.61376e-06
      146.300   7.57139e-06
      146.400   7.52906e-06
      146.500   7.48682e-06
      146.600   7.44464e-06
      146.700   7.40254e-06
      146.800   7.36005e-06
      146.900   7.31700e-06
      147.000   7.27404e-06
      147.100   7.23117e-06
      147.200   7.18841e-06
      147.300   7.14573e-06
      147.400   7.10316e-06
      147.500   7.06068e-06
      147.600   7.01829e-06
      147.700   6.97602e-06
      147.800   6.93387e-06
      147.900   6.89181e-06
      148.000   6.84987e-06
      148.100   6.80804e-06
      148.200   6.76635e-06
      148.300   6.72478e-06
      148.400   6.68335e-06
      148.500   6.64204e-06
      148.600   6.60087e-06
      148.700   6.55983e-06
      148.800   6.51891e-06
      148.900   6.47815e-06
      149.000   6.43755e-06
      149.100   6.39708e-06
      149.200   6.35671e-06
      149.300   6.31645e-06
      149.400   6.27632e-06
      149.500   6.23635e-06
      149.600   6.19649e-06
      149.700   6.15678e-06
      149.800   6.11718e-06
      149.900   6.07771e-06
      150.000   6.03837e-06
      150.100   5.99916e-06
      150.200   5.96006e-06
      150.300   5.92111e-06
      150.400   5.88227e-06
      150.500   5.84356e-06
      150.600   5.80498e-06
      150.700   5.76650e-06
      150.800   5.72817e-06
      150.900   5.68997e-06
      151.000   5.65186e-06
      151.100   5.61390e-06
      151.200   5.57605e-06
      151.300   5.53833e-06
      151.400   5.50073e-06
      151.500   5.46328e-06
      151.600   5.42603e-06
      151.700   5.38901e-06
      151.800   5.35210e-06
      151.900   5.31532e-06
      152.000   5.27868e-06
      152.100   5.24219e-06
      152.200   5.20584e-06
      152.300   5.16963e-06
      152.400   5.13357e-06
      152.500   5.09766e-06
      152.600   5.06190e-06
      152.700   5.02630e-06
      152.800   4.99086e-06
      152.900   4.95560e-06
      153.000   4.92047e-06
      153.100   4.88553e-06
      153.200   4.85073e-06
      153.300   4.81611e-06
      153.400   4.78166e-06
      153.500   4.74734e-06
      153.600   4.71320e-06
      153.700   4.67923e-06
      153.800   4.64542e-06
      153.900   4.61176e-06
      154.000   4.57880e-06
      154.100   4.54721e-06
      154.200   4.51616e-06
      154.300   4.48523e-06
      154.400   4.45443e-06
      154.500   4.42376e-06
      154.600   4.39322e-06
      154.700   4.36280e-06
      154.800   4.33250e-06
      154.900   4.30233e-06
      155.000   4.27228e-06
      155.100   4.24236e-06
      155.200   4.21256e-06
      155.300   4.18290e-06
      155.400   4.15337e-06
      155.500   4.12396e-06
      155.600   4.09467e-06
      155.700   4.06550e-06
      155.800   4.03646e-06
      155.900   4.00754e-06
      156.000   3.97875e-06
      156.100   3.95007e-06
      156.200   3.92152e-06
      156.300   3.89308e-06
      156.400   3.86477e-06
      156.500   3.83643e-06
      156.600   3.80732e-06
      156.700   3.77835e-06
      156.800   3.74951e-06
      156.900   3.72080e-06
      157.000   3.69224e-06
      157.100   3.66381e-06
      157.200   3.63553e-06
      157.300   3.60737e-06
      157.400   3.57937e-06
      157.500   3.55149e-06
      157.600   3.52375e-06
      157.700   3.49615e-06
      157.800   3.46870e-06
      157.900   3.44138e-06
      158.000   3.41421e-06
      158.100   3.38719e-06
      158.200   3.36031e-06
      158.300   3.33357e-06
      158.400   3.30699e-06
      158.500   3.28055e-06
      158.600   3.25426e-06
      158.700   3.22810e-06
      158.800   3.20211e-06
      158.900   3.17626e-06
      159.000   3.15057e-06
      159.100   3.12501e-06
      159.200   3.09959e-06
      159.300   3.07433e-06
      159.400   3.04921e-06
      159.500   3.02426e-06
      159.600   2.99945e-06
      159.700   2.97480e-06
      159.800   2.95029e-06
      159.900   2.92594e-06
      160.000   2.90173e-06
      160.100   2.87768e-06
      160.200   2.85378e-06
      160.300   2.83002e-06
      160.400   2.80641e-06
      160.500   2.78293e-06
      160.600   2.75961e-06
      160.700   2.73642e-06
      160.800   2.71338e-06
      160.900   2.69047e-06
      161.000   2.66771e-06
      161.100   2.64508e-06
      161.200   2.62260e-06
      161.300   2.60025e-06
      161.400   2.57805e-06
      161.500   2.55598e-06
      161.600   2.53403e-06
      161.700   2.51221e-06
      161.800   2.49051e-06
      161.900   2.46895e-06
      162.000   2.44753e-06
      162.100   2.42624e-06
      162.200   2.40508e-06
      162.300   2.38406e-06
      162.400   2.36317e-06
      162.500   2.34242e-06
      162.600   2.32181e-06
      162.700   2.30133e-06
      162.800   2.28098e-06
      162.900   2.26077e-06
      163.000   2.24068e-06
      163.100   2.22074e-06
      163.200   2.20091e-06
      163.300   2.18122e-06
      163.400   2.16167e-06
      163.500   2.14224e-06
      163.600   2.12294e-06
      163.700   2.10377e-06
      163.800   2.08474e-06
      163.900   2.06585e-06
      164.000   2.04707e-06
      164.100   2.02844e-06
      164.200   2.00994e-06
      164.300   1.99169e-06
      164.400   1.97357e-06
      164.500   1.95559e-06
      164.600   1.93773e-06
      164.700   1.92000e-06
      164.800   1.90240e-06
      164.900   1.88492e-06
      165.000   1.86758e-06
      165.100   1.85036e-06
      165.200   1.83327e-06
      165.300   1.81632e-06
      165.400   1.79949e-06
      165.500   1.78278e-06
      165.600   1.76620e-06
      165.700   1.74975e-06
      165.800   1.73342e-06
      165.900   1.71722e-06
      166.000   1.70115e-06
      166.100   1.68520e-06
      166.200   1.66937e-06
      166.300   1.65367e-06
      166.400   1.63810e-06
      166.500   1.62264e-06
      166.600   1.60730e-06
      166.700   1.59208e-06
      166.800   1.57697e-06
      166.900   1.56198e-06
      167.000   1.54713e-06
      167.100   1.53238e-06
      167.200   1.51774e-06
      167.300   1.50321e-06
      167.400   1.48880e-06
      167.500   1.47450e-06
      167.600   1.46032e-06
      167.700   1.44624e-06
      167.800   1.43227e-06
      167.900   1.41841e-06
      168.000   1.40467e-06
      168.100   1.39102e-06
      168.200   1.37748e-06
      168.300   1.36405e-06
      168.400   1.35072e-06
      168.500   1.33750e-06
      168.600   1.32438e-06
      168.700   1.31136e-06
      168.800   1.29845e-06
      168.900   1.28564e-06
      169.000   1.27293e-06
      169.100   1.26032e-06
      169.200   1.24781e-06
      169.300   1.23540e-06
      169.400   1.22309e-06
      169.500   1.21082e-06
      169.600   1.19836e-06
      169.700   1.18568e-06
      169.800   1.17302e-06
      169.900   1.16047e-06
      170.000   1.14801e-06
      170.100   1.13566e-06
      170.200   1.12341e-06
      170.300   1.47391e-06
      170.400   3.18670e-06
      170.500   6.07148e-06
      170.600   8.98599e-06
      170.700   1.13470e-05
      170.800   1.24802e-05
      170.900   1.25736e-05
      171.000   1.24098e-05
      171.100   1.22472e-05
      171.200   1.20859e-05
      171.300   1.19258e-05
      171.400   1.17670e-05
      171.500   1.16096e-05
      171.600   1.14535e-05
      171.700   1.12989e-05
      171.800   1.11458e-05
      171.900   1.09944e-05
      172.000   1.08448e-05
      172.100   1.06969e-05
      172.200   1.05509e-05
      172.300   1.04065e-05
      172.400   1.02620e-05
      172.500   1.01191e-05
      172.600   9.97811e-06
      172.700   9.83919e-06
      172.800   9.70223e-06
      172.900   9.56720e-06
      173.000   9.43419e-06
      173.100   9.30312e-06
      173.200   9.17391e-06
      173.300   9.04663e-06
      173.400   8.92113e-06
      173.500   8.79750e-06
      173.600   8.67571e-06
      173.700   8.55563e-06
      173.800   8.43727e-06
      173.900   8.32066e-06
      174.000   8.20568e-06
      174.100   8.09229e-06
      174.200   7.98053e-06
      174.300   7.87033e-06
      174.400   7.76166e-06
      174.500   7.65448e-06
      174.600   7.54868e-06
      174.700   7.44437e-06
      174.800   7.34147e-06
      174.900   7.23990e-06
      175.000   7.13959e-06
      175.100   7.04062e-06
      175.200   6.94322e-06
      175.300   6.84703e-06
      175.400   6.75206e-06
      175.500   6.65836e-06
      175.600   6.56586e-06
      175.700   6.47456e-06
      175.800   6.38443e-06
      175.900   6.29548e-06
      176.000   6.20768e-06
      176.100   6.12106e-06
      176.200   6.03555e-06
      176.300   5.95112e-06
      176.400   5.86785e-06
      176.500   5.78564e-06
      176.600   5.70450e-06
      176.700   5.62442e-06
      176.800   5.54539e-06
      176.900   5.46742e-06
      177.000   5.39045e-06
      177.100   5.31448e-06
      177.200   5.23953e-06
      177.300   5.16556e-06
      177.400   5.09252e-06
      177.500   5.02043e-06
      177.600   4.94929e-06
      177.700   4.87909e-06
      177.800   4.80980e-06
      177.900   4.74136e-06
      178.000   4.67412e-06
      178.100   4.60780e-06
      178.200   4.54230e-06
      178.300   4.47766e-06
      178.400   4.41388e-06
      178.500   4.35093e-06
      178.600   4.28878e-06
      178.700   4.22743e-06
      178.800   4.16691e-06
      178.900   4.10719e-06
      179.000   4.04825e-06
      179.100   3.99007e-06
      179.200   3.93268e-06
      179.300   3.87607e-06
      179.400   3.82021e-06
      179.500   3.76514e-06
      179.600   3.71082e-06
      179.700   3.65727e-06
      179.800   3.60444e-06
      179.900   3.55235e-06
      180.000   3.50098e-06
      180.100   3.45035e-06
      180.200   3.40045e-06
      180.300   3.35126e-06
      180.400   3.30276e-06
      180.500   3.25498e-06
      180.600   3.20788e-06
      180.700   3.16148e-06
      180.800   3.11575e-06
      180.900   3.07068e-06
      181.000   3.02626e-06
      181.100   2.98250e-06
      181.200   2.93937e-06
      181.300   2.89686e-06
      181.400   2.85500e-06
      181.500   2.81373e-06
      181.600   2.77307e-06
      181.700   2.73298e-06
      181.800   2.69348e-06
      181.900   2.65456e-06
      182.000   2.61620e-06
      182.100   2.57838e-06
      182.200   2.54113e-06
      182.300   2.50440e-06
      182.400   2.46821e-06
      182.500   2.43252e-06
      182.600   2.39733e-06
      182.700   2.36264e-06
      182.800   2.32844e-06
      182.900   2.29471e-06
      183.000   2.26146e-06
      183.100   2.22868e-06
      183.200   2.19636e-06
      183.300   2.16448e-06
      183.400   2.13304e-06
      183.500   2.10206e-06
      183.600   2.07150e-06
      183.700   2.04137e-06
      183.800   2.01169e-06
      183.900   1.98242e-06
      184.000   1.95357e-06
      184.100   1.92513e-06
      184.200   1.89710e-06
      184.300   1.86946e-06
      184.400   1.84221e-06
      184.500   1.81534e-06
      184.600   1.78885e-06
      184.700   1.76273e-06
      184.800   1.73699e-06
      184.900   1.71159e-06
      185.000   1.68656e-06
      185.100   1.66187e-06
      185.200   1.63753e-06
      185.300   1.61354e-06
      185.400   1.58988e-06
      185.500   1.56655e-06
      185.600   1.54355e-06
      185.700   1.52085e-06
      185.800   1.49849e-06
      185.900   1.47646e-06
      186.000   1.45471e-06
      186.100   1.43327e-06
      186.200   1.41213e-06
      186.300   1.39127e-06
      186.400   1.37070e-06
      186.500   1.35041e-06
      186.600   1.33039e-06
      186.700   1.31065e-06
      186.800   1.29117e-06
      186.900   1.27195e-06
      187.000   1.25300e-06
      187.100   1.23430e-06
      187.200   1.21586e-06
      187.300   1.19768e-06
      187.400   1.17975e-06
      187.500   1.16206e-06
      187.600   1.14462e-06
      187.700   1.12742e-06
      187.800   1.11045e-06
      187.900   1.09372e-06
      188.000   1.07723e-06
      188.100   1.06096e-06
      188.200   1.04491e-06
      188.300   1.02909e-06
      188.400   1.01349e-06
      188.500   9.98118e-07
      188.600   9.82970e-07
      188.700   9.68044e-07
      188.800   9.53336e-07
      188.900   9.38846e-07
      189.000   9.24561e-07
      189.100   9.10480e-07
      189.200   8.96607e-07
      189.300   8.82940e-07
      189.400   8.69476e-07
      189.500   8.56208e-07
      189.600   8.43133e-07
      189.700   8.30257e-07
      189.800   8.17642e-07
      189.900   8.05235e-07
      190.000   7.93007e-07
      190.100   7.80967e-07
      190.200   7.69104e-07
      190.300   7.57420e-07
      190.400   7.45905e-07
      190.500   7.34563e-07
      190.600   7.23395e-07
      190.700   7.12389e-07
      190.800   7.01549e-07
      190.900   6.90872e-07
      191.000   6.80357e-07
      191.100   6.70009e-07
      191.200   6.59811e-07
      191.300   6.49766e-07
      191.400   6.39871e-07
      191.500   6.30120e-07
      191.600   6.20515e-07
      191.700   6.11053e-07
      191.800   6.01726e-07
      191.900   5.92540e-07
      192.000   5.83495e-07
      192.100   5.74588e-07
      192.200   5.65820e-07
      192.300   5.57180e-07
      192.400   5.48666e-07
      192.500   5.40278e-07
      192.600   5.32015e-07
      192.700   5.23875e-07
      192.800   5.15855e-07
      192.900   5.07948e-07
      193.000   5.00161e-07
      193.100   4.92495e-07
      193.200   4.84946e-07
      193.300   4.77512e-07
      193.400   4.70193e-07
      193.500   4.62981e-07
      193.600   4.55875e-07
      193.700   4.48876e-07
      193.800   4.41984e-07
      193.900   4.35197e-07
      194.000   4.28509e-07
      194.100   4.21928e-07
      194.200   4.15453e-07
      194.300   4.09074e-07
      194.400   4.02790e-07
      194.500   3.96600e-07
      194.600   3.90501e-07
      194.700   3.84496e-07
      194.800   3.78582e-07
      194.900   3.72753e-07
      195.000   3.67012e-07
      195.100   3.61363e-07
      195.200   3.55800e-07
      195.300   3.50319e-07
      195.400   3.44918e-07
      195.500   3.39595e-07
      195.600   3.34350e-07
      195.700   3.29183e-07
      195.800   3.24090e-07
      195.900   3.19070e-07
      196.000   3.14068e-07
      196.100   3.09138e-07
      196.200   3.04281e-07
      196.300   2.99494e-07
      196.400   2.94777e-07
      196.500   2.90127e-07
      196.600   2.85546e-07
      196.700   2.81031e-07
      196.800   2.76585e-07
      196.900   2.72207e-07
      197.000   2.67893e-07
      197.100   2.63641e-07
      197.200   2.59451e-07
      197.300   2.55322e-07
      197.400   2.51250e-07
      197.500   2.47239e-07
      197.600   2.43287e-07
      197.700   2.39398e-07
      197.800   2.35568e-07
      197.900   2.31792e-07
      198.000   2.28073e-07
      198.100   2.24408e-07
      198.200   2.20797e-07
      198.300   2.17238e-07
      198.400   2.13735e-07
      198.500   2.10287e-07
      198.600   2.06893e-07
      198.700   2.03550e-07
      198.800   2.00257e-07
      198.900   1.97014e-07
      199.000   1.93820e-07
      199.100   1.90673e-07
      199.200   1.87576e-07
      199.300   1.84530e-07
      199.400   1.81532e-07
      199.500   1.78581e-07
      199.600   1.75675e-07
      199.700   1.72813e-07
      199.800   1.69995e-07
      199.900   1.67222e-07
      200.000   1.64491e-07
      200.100   1.61814e-07
      200.200   1.59172e-07
      200.300   1.56573e-07
      200.400   1.54014e-07
      200.500   1.51496e-07
      200.600   1.49017e-07
      200.700   1.46578e-07
      200.800   1.44176e-07
      200.900   1.41812e-07
      201.000   1.39489e-07
      201.100   1.37202e-07
      201.200   1.34951e-07
      201.300   1.32736e-07
      201.400   1.30557e-07
      201.500   1.28412e-07
      201.600   1.26301e-07
      201.700   1.24224e-07
      201.800   1.22180e-07
      201.900   1.20169e-07
      202.000   1.18192e-07
      202.100   1.16246e-07
      202.200   1.14331e-07
      202.300   1.12515e-07
      202.400   1.10848e-07
      202.500   1.09241e-07
      202.600   1.07656e-07
      202.700   1.06094e-07
      202.800   1.04555e-07
      202.900   1.03038e-07
      203.000   1.01544e-07
      203.100   1.00071e-07
      203.200   9.86196e-08
      203.300   9.71885e-08
      203.400   9.57781e-08
      203.500   9.43885e-08
      203.600   9.30189e-08
      203.700   9.16692e-08
      203.800   9.03401e-08
      203.900   8.90310e-08
      204.000   8.77407e-08
      204.100   8.64694e-08
      204.200   8.52171e-08
      204.300   8.39826e-08
      204.400   8.27664e-08
      204.500   8.15681e-08
      204.600   8.03870e-08
      204.700   7.92233e-08
      204.800   7.80778e-08
      204.900   7.69491e-08
      205.000   7.58368e-08
      205.100   7.47412e-08
      205.200   7.36609e-08
      205.300   7.25971e-08
      205.400   7.15485e-08
      205.500   7.05148e-08
      205.600   6.95234e-08
      205.700   6.85703e-08
      205.800   6.76334e-08
      205.900   6.67100e-08
      206.000   6.57999e-08
      206.100   6.49016e-08
      206.200   6.40153e-08
      206.300   6.31413e-08
      206.400   6.22793e-08
      206.500   6.14282e-08
      206.600   6.05889e-08
      206.700   5.97607e-08
      206.800   5.89431e-08
      206.900   5.81364e-08
      207.000   5.73408e-08
      207.100   5.65555e-08
      207.200   5.57810e-08
      207.300   5.50166e-08
      207.400   5.42619e-08
      207.500   5.35169e-08
      207.600   5.27819e-08
      207.700   5.20560e-08
      207.800   5.13395e-08
      207.900   5.06324e-08
      208.000   4.99343e-08
      208.100   4.92453e-08
      208.200   4.85653e-08
      208.300   4.78939e-08
      208.400   4.72314e-08
      208.500   4.65778e-08
      208.600   4.59322e-08
      208.700   4.52949e-08
      208.800   4.46659e-08
      208.900   4.40442e-08
      209.000   4.34264e-08
      209.100   4.28166e-08
      209.200   4.22148e-08
      209.300   4.16208e-08
      209.400   4.10347e-08
      209.500   4.04563e-08
      209.600   3.98855e-08
      209.700   3.93224e-08
      209.800   3.87673e-08
      209.900   3.82192e-08
      210.000   3.76786e-08
      210.100   3.71452e-08
      210.200   3.66189e-08
      210.300   3.60997e-08
      210.400   3.55875e-08
      210.500   3.50821e-08
      210.600   3.45835e-08
      210.700   3.40918e-08
      210.800   3.36066e-08
      210.900   3.31280e-08
      211.000   3.26559e-08
      211.100   3.21903e-08
      211.200   3.17309e-08
      211.300   3.12781e-08
      211.400   3.08318e-08
      211.500   3.03913e-08
      211.600   2.99568e-08
      211.700   2.95285e-08
      211.800   2.91057e-08
      211.900   2.86888e-08
      212.000   2.82779e-08
      212.100   2.78724e-08
      212.200   2.74724e-08
      212.300   2.70783e-08
      212.400   2.66896e-08
      212.500   2.63062e-08
      212.600   2.59283e-08
      212.700   2.55555e-08
      212.800   2.51878e-08
      212.900   2.48254e-08
      213.000   2.44679e-08
      213.100   2.41156e-08
      213.200   2.37682e-08
      213.300   2.34256e-08
      213.400   2.30878e-08
      213.500   2.27547e-08
      213.600   2.24263e-08
      213.700   2.21025e-08
      213.800   2.17831e-08
      213.900   2.14685e-08
      214.000   2.11582e-08
      214.100   2.08523e-08
      214.200   2.05508e-08
      214.300   2.02535e-08
      214.400   1.99605e-08
      214.500   1.96716e-08
      214.600   1.93870e-08
      214.700   1.91064e-08
      214.800   1.88299e-08
      214.900   1.85574e-08
      215.000   1.82887e-08
      215.100   1.80241e-08
      215.200   1.77632e-08
      215.300   1.75064e-08
      215.400   1.72532e-08
      215.500   1.70037e-08
      215.600   1.67580e-08
      215.700   1.65158e-08
      215.800   1.62770e-08
      215.900   1.60419e-08
      216.000   1.58101e-08
      216.100   1.55817e-08
      216.200   1.53568e-08
      216.300   1.51352e-08
      216.400   1.49169e-08
      216.500   1.47017e-08
      216.600   1.44898e-08
      216.700   1.42810e-08
      216.800   1.40753e-08
      216.900   1.38726e-08
      217.000   1.36730e-08
      217.100   1.34762e-08
      217.200   1.32824e-08
      217.300   1.30914e-08
      217.400   1.29032e-08
      217.500   1.27179e-08
      217.600   1.25352e-08
      217.700   1.23551e-08
      217.800   1.21777e-08
      217.900   1.20030e-08
      218.000   1.18308e-08
      218.100   1.16611e-08
      218.200   1.14939e-08
      218.300   1.13291e-08
      218.400   1.11667e-08
      218.500   1.10065e-08
      218.600   1.08487e-08
      218.700   1.06932e-08
      218.800   1.05398e-08
      218.900   1.03887e-08
      219.000   1.02397e-08
      219.100   1.00928e-08
      219.200   9.94800e-09
      219.300   9.80523e-09
      219.400   9.66442e-09
      219.500   9.52564e-09
      219.600   9.38879e-09
      219.700   9.25385e-09
      219.800   9.12085e-09
      219.900   8.98968e-09
      220.000   8.86032e-09
      220.100   8.73277e-09
      220.200   8.60698e-09
      220.300   8.48298e-09
      220.400   8.36069e-09
      220.500   8.24013e-09
      220.600   8.12125e-09
      220.700   8.00398e-09
      220.800   7.88832e-09
      220.900   7.77434e-09
      221.000   7.66190e-09
      221.100   7.55100e-09
      221.200   7.44170e-09
      221.300   7.33389e-09
      221.400   7.22758e-09
      221.500   7.12276e-09
      221.600   7.01940e-09
      221.700   6.91745e-09
      221.800   6.81690e-09
      221.900   6.71778e-09
      222.000   6.62008e-09
      222.100   6.52369e-09
      222.200   6.42868e-09
      222.300   6.33496e-09
      222.400   6.24257e-09
      222.500   6.15143e-09
      222.600   6.06163e-09
      222.700   5.97304e-09
      222.800   5.88567e-09
      222.900   5.79954e-09
      223.000   5.71460e-09
      223.100   5.63083e-09
      223.200   5.54825e-09
      223.300   5.46682e-09
      223.400   5.38655e-09
      223.500   5.30736e-09
      223.600   5.22934e-09
      223.700   5.15238e-09
      223.800   5.07649e-09
      223.900   5.00174e-09
      224.000   4.92797e-09
      224.100   4.85524e-09
      224.200   4.78353e-09
      224.300   4.71286e-09
      224.400   4.64315e-09
      224.500   4.57444e-09
      224.600   4.50666e-09
      224.700   4.43990e-09
      224.800   4.37404e-09
      224.900   4.30911e-09
      225.000   4.24510e-09
      225.100   4.18198e-09
      225.200   4.11975e-09
      225.300   4.05844e-09
      225.400   3.99795e-09
      225.500   3.93833e-09
      225.600   3.87955e-09
      225.700   3.82162e-09
      225.800   3.76449e-09
      225.900   3.70819e-09
      226.000   3.65270e-09
      226.100   3.59799e-09
      226.200   3.54408e-09
      226.300   3.49118e-09
      226.400   3.43925e-09
      226.500   3.38802e-09
      226.600   3.33745e-09
      226.700   3.28758e-09
      226.800   3.23837e-09
      226.900   3.18984e-09
      227.000   3.14202e-09
      227.100   3.09488e-09
      227.200   3.04842e-09
      227.300   3.00265e-09
      227.400   2.95754e-09
      227.500   2.91309e-09
      227.600   2.86929e-09
      227.700   2.82613e-09
      227.800   2.78362e-09
      227.900   2.74173e-09
      228.000   2.70045e-09
      228.100   2.65979e-09
      228.200   2.61972e-09
      228.300   2.58026e-09
      228.400   2.54139e-09
      228.500   2.50309e-09
      228.600   2.46537e-09
      228.700   2.42822e-09
      228.800   2.39161e-09
      228.900   2.35557e-09
      229.000   2.32007e-09
      229.100   2.28510e-09
      229.200   2.25066e-09
      229.300   2.21675e-09
      229.400   2.18335e-09
      229.500   2.15045e-09
      229.600   2.11806e-09
      229.700   2.08615e-09
      229.800   2.05473e-09
      229.900   2.02379e-09
      230.000   1.99317e-09
      230.100   1.96192e-09
      230.200   1.93112e-09
      230.300   1.90084e-09
      230.400   1.87102e-09
      230.500   1.84167e-09
      230.600   1.81279e-09
      230.700   1.78437e-09
      230.800   1.75641e-09
      230.900   1.72888e-09
      231.000   1.70179e-09
      231.100   1.67512e-09
      231.200   1.64888e-09
      231.300   1.62305e-09
      231.400   1.59764e-09
      231.500   1.57261e-09
      231.600   1.54798e-09
      231.700   1.52374e-09
      231.800   1.49989e-09
      231.900   1.47640e-09
      232.000   1.45329e-09
      232.100   1.43053e-09
      232.200   1.40813e-09
      232.300   1.38609e-09
      232.400   1.36439e-09
      232.500   1.34302e-09
      232.600   1.32199e-09
      232.700   1.30129e-09
      232.800   1.28091e-09
      232.900   1.26086e-09
      233.000   1.24110e-09
      233.100   1.22167e-09
      233.200   1.20253e-09
      233.300   1.18368e-09
      233.400   1.16514e-09
      233.500   1.14688e-09
      233.600   1.12891e-09
      233.700   1.11122e-09
      233.800   1.09193e-09
      233.900   1.07273e-09
      234.000   1.05385e-09
      234.100   1.03530e-09
      234.200   1.01707e-09
      234.300   9.99164e-10
      234.400   9.81561e-10
      234.500   9.64265e-10
      234.600   9.47263e-10
      234.700   9.30559e-10
      234.800   9.14148e-10
      234.900   8.98014e-10
      235.000   8.82157e-10
      235.100   8.66577e-10
      235.200   8.51267e-10
      235.300   8.36221e-10
      235.400   8.21434e-10
      235.500   8.06903e-10
      235.600   7.92628e-10
      235.700   7.78594e-10
      235.800   7.64815e-10
      235.900   7.51275e-10
      236.000   7.37968e-10
      236.100   7.24889e-10
      236.200   7.12036e-10
      236.300   6.99404e-10
      236.400   6.86994e-10
      236.500   6.74795e-10
      236.600   6.62807e-10
      236.700   6.51027e-10
      236.800   6.39448e-10
      236.900   6.28070e-10
      237.000   6.16888e-10
      237.100   6.05897e-10
      237.200   5.95098e-10
      237.300   5.84484e-10
      237.400   5.74053e-10
      237.500   5.63800e-10
      237.600   5.53718e-10
      237.700   5.43818e-10
      237.800   5.34088e-10
      237.900   5.24525e-10
      238.000   5.15129e-10
      238.100   5.05892e-10
      238.200   4.96815e-10
      238.300   4.87893e-10
      238.400   4.79124e-10
      238.500   4.70506e-10
      238.600   4.62037e-10
      238.700   4.53716e-10
      238.800   4.45535e-10
      238.900   4.37497e-10
      239.000   4.29594e-10
      239.100   4.21829e-10
      239.200   4.14199e-10
      239.300   4.06701e-10
      239.400   3.99340e-10
      239.500   3.92104e-10
      239.600   3.84992e-10
      239.700   3.78005e-10
      239.800   3.71137e-10
      239.900   3.64388e-10
      240.000   3.57756e-10
      240.100   3.51237e-10
      240.200   3.44830e-10
      240.300   3.38536e-10
      240.400   3.32348e-10
      240.500   3.26272e-10
      240.600   3.20300e-10
      240.700   3.14432e-10
      240.800   3.08668e-10
      240.900   3.03008e-10
      241.000   2.97447e-10
      241.100   2.91983e-10
      241.200   2.86616e-10
      241.300   2.81341e-10
      241.400   2.76159e-10
      241.500   2.71068e-10
      241.600   2.66067e-10
      241.700   2.61153e-10
      241.800   2.56326e-10
      241.900   2.51583e-10
      242.000   2.46925e-10
      242.100   2.42351e-10
      242.200   2.37861e-10
      242.300   2.33453e-10
      242.400   2.29122e-10
      242.500   2.24869e-10
      242.600   2.20692e-10
      242.700   2.16589e-10
      242.800   2.12561e-10
      242.900   2.08605e-10
      243.000   2.04719e-10
      243.100   2.00904e-10
      243.200   1.97156e-10
      243.300   1.93477e-10
      243.400   1.89865e-10
      243.500   1.86320e-10
      243.600   1.82843e-10
      243.700   1.79427e-10
      243.800   1.76073e-10
      243.900   1.72782e-10
      244.000   1.69550e-10
      244.100   1.66376e-10
      244.200   1.63261e-10
      244.300   1.60202e-10
      244.400   1.57200e-10
      244.500   1.54253e-10
      244.600   1.51358e-10
      244.700   1.48520e-10
      244.800   1.45736e-10
      244.900   1.43003e-10
      245.000   1.40319e-10
      245.100   1.37685e-10
      245.200   1.35101e-10
      245.300   1.32564e-10
      245.400   1.30072e-10
      245.500   1.27628e-10
      245.600   1.25229e-10
      245.700   1.22873e-10
      245.800   1.20561e-10
      245.900   1.18294e-10
      246.000   1.16072e-10
      246.100   1.13889e-10
      246.200   1.11747e-10
      246.300   1.09644e-10
      246.400   1.07582e-10
      246.500   1.05556e-10
      246.600   1.03569e-10
      246.700   1.01618e-10
      246.800   9.97032e-11
      246.900   9.78238e-11
      247.000   9.59820e-11
      247.100   9.41747e-11
      247.200   9.24014e-11
      247.300   9.06612e-11
      247.400   8.89530e-11
      247.500   8.72764e-11
      247.600   8.56311e-11
      247.700   8.40163e-11
      247.800   8.24314e-11
      247.900   8.08758e-11
      248.000   7.93493e-11
      248.100   7.78549e-11
      248.200   7.63875e-11
      248.300   7.49473e-11
      248.400   7.35340e-11
      248.500   7.21466e-11
      248.600   7.07850e-11
      248.700   6.94490e-11
      248.800   6.81377e-11
      248.900   6.68511e-11
      249.000   6.55883e-11
      249.100   6.43507e-11
      249.200   6.31370e-11
      249.300   6.19454e-11
      249.400   6.07760e-11
      249.500   5.96285e-11
      249.600   5.85021e-11
      249.700   5.73966e-11
      249.800   5.63118e-11
      249.900   5.52470e-11
      250.000   5.42024e-11
      250.100   5.31784e-11
      250.200   5.21736e-11
      250.300   5.11882e-11
      250.400   5.02210e-11
      250.500   4.92721e-11
      250.600   4.83409e-11
      250.700   4.74269e-11
      250.800   4.65300e-11
      250.900   4.56499e-11
      251.000   4.47862e-11
      251.100   4.39386e-11
      251.200   4.31074e-11
      251.300   4.22925e-11
      251.400   4.14928e-11
      251.500   4.07077e-11
      251.600   3.99374e-11
      251.700   3.91818e-11
      251.800   3.84400e-11
      251.900   3.77121e-11
      252.000   3.69976e-11
      252.100   3.62969e-11
      252.200   3.56088e-11
      252.300   3.49343e-11
      252.400   3.42723e-11
      252.500   3.36232e-11
      252.600   3.29859e-11
      252.700   3.23604e-11
      252.800   3.17468e-11
      252.900   3.11445e-11
      253.000   3.05534e-11
      253.100   2.99734e-11
      253.200   2.94041e-11
      253.300   2.88564e-11
      253.400   2.83234e-11
      253.500   2.78005e-11
      253.600   2.72874e-11
      253.700   2.67834e-11
      253.800   2.62888e-11
      253.900   2.58030e-11
      254.000   2.53259e-11
      254.100   2.48574e-11
      254.200   2.43973e-11
      254.300   2.39455e-11
      254.400   2.35018e-11
      254.500   2.30662e-11
      254.600   2.26383e-11
      254.700   2.22183e-11
      254.800   2.18062e-11
      254.900   2.14014e-11
      255.000   2.10040e-11
      255.100   2.06135e-11
      255.200   2.02302e-11
      255.300   1.98537e-11
      255.400   1.94840e-11
      255.500   1.91210e-11
      255.600   1.87646e-11
      255.700   1.84145e-11
      255.800   1.80707e-11
      255.900   1.77330e-11
      256.000   1.74014e-11
      256.100   1.70760e-11
      256.200   1.67565e-11
      256.300   1.64427e-11
      256.400   1.61349e-11
      256.500   1.58323e-11
      256.600   1.55352e-11
      256.700   1.52436e-11
      256.800   1.49571e-11
      256.900   1.46758e-11
      257.000   1.43997e-11
      257.100   1.41284e-11
      257.200   1.38622e-11
      257.300   1.36007e-11
      257.400   1.33469e-11
      257.500   1.30986e-11
      257.600   1.28551e-11
      257.700   1.26159e-11
      257.800   1.23810e-11
      257.900   1.21503e-11
      258.000   1.19238e-11
      258.100   1.17012e-11
      258.200   1.14827e-11
      258.300   1.12682e-11
      258.400   1.10574e-11
      258.500   1.08503e-11
      258.600   1.06471e-11
      258.700   1.04475e-11
      258.800   1.02515e-11
      258.900   1.00591e-11
      259.000   9.87005e-12
      259.100   9.68453e-12
      259.200   9.50231e-12
      259.300   9.32359e-12
      259.400   9.14805e-12
      259.500   8.97566e-12
      259.600   8.80647e-12
      259.700   8.64037e-12
      259.800   8.47722e-12
      259.900   8.31700e-12
      260.000   8.15978e-12
      260.100   8.00544e-12
      260.200   7.85390e-12
      260.300   7.70512e-12
      260.400   7.55910e-12
      260.500   7.41579e-12
      260.600   7.27504e-12
      260.700   7.13687e-12
      260.800   7.00136e-12
      260.900   6.86823e-12
      261.000   6.73765e-12
      261.100   6.60952e-12
      261.200   6.48372e-12
      261.300   6.36026e-12
      261.400   6.23914e-12
      261.500   6.12041e-12
      261.600   6.00434e-12
      261.700   5.89050e-12
      261.800   5.77880e-12
      261.900   5.66910e-12
      262.000   5.56145e-12
      262.100   5.45579e-12
      262.200   5.35214e-12
      262.300   5.25037e-12
      262.400   5.15051e-12
      262.500   5.05249e-12
      262.600   4.95627e-12
      262.700   4.86187e-12
      262.800   4.76923e-12
      262.900   4.67828e-12
      263.000   4.58911e-12
      263.100   4.50156e-12
      263.200   4.41570e-12
      263.300   4.33143e-12
      263.400   4.24874e-12
      263.500   4.16762e-12
      263.600   4.08802e-12
      263.700   4.00991e-12
      263.800   3.93324e-12
      263.900   3.85808e-12
      264.000   3.78429e-12
      264.100   3.71188e-12
      264.200   3.64082e-12
      264.300   3.57115e-12
      264.400   3.50278e-12
      264.500   3.43568e-12
      264.600   3.36985e-12
      264.700   3.30528e-12
      264.800   3.24190e-12
      264.900   3.17976e-12
      265.000   3.11879e-12
      265.100   3.05895e-12
      265.200   3.00026e-12
      265.300   2.94267e-12
      265.400   2.88620e-12
      265.500   2.83078e-12
      265.600   2.77644e-12
      265.700   2.72310e-12
      265.800   2.67088e-12
      265.900   2.61963e-12
      266.000   2.56939e-12
      266.100   2.52010e-12
      266.200   2.47176e-12
      266.300   2.42432e-12
      266.400   2.37780e-12
      266.500   2.33215e-12
      266.600   2.28738e-12
      266.700   2.24347e-12
      266.800   2.20041e-12
      266.900   2.15816e-12
      267.000   2.11671e-12
      267.100   2.07605e-12
      267.200   2.03620e-12
      267.300   1.99710e-12
      267.400   1.95874e-12
      267.500   1.92111e-12
      267.600   1.88421e-12
      267.700   1.84802e-12
      267.800   1.81251e-12
      267.900   1.77768e-12
      268.000   1.74353e-12
      268.100   1.71004e-12
      268.200   1.67719e-12
      268.300   1.64498e-12
      268.400   1.61337e-12
      268.500   1.58237e-12
      268.600   1.55196e-12
      268.700   1.52215e-12
      268.800   1.49290e-12
      268.900   1.46422e-12
      269.000   1.43609e-12
      269.100   1.40850e-12
      269.200   1.38145e-12
      269.300   1.35491e-12
      269.400   1.32887e-12
      269.500   1.30334e-12
      269.600   1.27830e-12
      269.700   1.25375e-12
      269.800   1.22967e-12
      269.900   1.20604e-12
      270.000   1.18288e-12
      270.100   1.16020e-12
      270.200   1.13798e-12
      270.300   1.11617e-12
      270.400   1.09479e-12
      270.500   1.07381e-12
      270.600   1.05324e-12
      270.700   1.03306e-12
      270.800   1.01327e-12
      270.900   9.93844e-13
      271.000   9.74804e-13
      271.100   9.56125e-13
      271.200   9.37795e-13
      271.300   9.19825e-13
      271.400   9.02193e-13
      271.500   8.84901e-13
      271.600   8.67930e-13
      271.700   8.51288e-13
      271.800   8.34968e-13
      271.900   8.18956e-13
      272.000   8.03254e-13
      272.100   7.87843e-13
      272.200   7.72732e-13
      272.300   7.57902e-13
      272.400   7.43354e-13
      272.500   7.29089e-13
      272.600   7.15090e-13
      272.700   7.01358e-13
      272.800   6.87887e-13
      272.900   6.74673e-13
      273.000   6.61714e-13
      273.100   6.48995e-13
      273.200   6.36517e-13
      273.300   6.24282e-13
      273.400   6.12274e-13
      273.500   6.00496e-13
      273.600   5.88940e-13
      273.700   5.77602e-13
      273.800   5.66478e-13
      273.900   5.55571e-13
      274.000   5.44867e-13
      274.100   5.34364e-13
      274.200   5.24061e-13
      274.300   5.13953e-13
      274.400   5.03614e-13
      274.500   4.92563e-13
      274.600   4.81553e-13
      274.700   4.70787e-13
      274.800   4.60252e-13
      274.900   4.49945e-13
      275.000   4.39866e-13
      275.100   4.30008e-13
      275.200   4.20366e-13
      275.300   4.10933e-13
      275.400   4.01708e-13
      275.500   3.92688e-13
      275.600   3.83858e-13
      275.700   3.75227e-13
      275.800   3.66788e-13
      275.900   3.58530e-13
      276.000   3.50453e-13
      276.100   3.42554e-13
      276.200   3.34828e-13
      276.300   3.27270e-13
      276.400   3.19880e-13
      276.500   3.12649e-13
      276.600   3.05581e-13
      276.700   2.98666e-13
      276.800   2.91906e-13
      276.900   2.85292e-13
      277.000   2.78825e-13
      277.100   2.72499e-13
      277.200   2.66313e-13
      277.300   2.60264e-13
      277.400   2.54348e-13
      277.500   2.48562e-13
      277.600   2.42905e-13
      277.700   2.37372e-13
      277.800   2.31960e-13
      277.900   2.26670e-13
      278.000   2.21497e-13
      278.100   2.16439e-13
      278.200   2.11492e-13
      278.300   2.06656e-13
      278.400   2.01927e-13
      278.500   1.97302e-13
      278.600   1.92779e-13
      278.700   1.88358e-13
      278.800   1.84036e-13
      278.900   1.79768e-13
      279.000   1.75582e-13
      279.100   1.71492e-13
      279.200   1.67493e-13
      279.300   1.63585e-13
      279.400   1.59764e-13
      279.500   1.56032e-13
      279.600   1.52383e-13
      279.700   1.48819e-13
      279.800   1.45334e-13
      279.900   1.41928e-13
      280.000   1.38600e-13
      280.100   1.35346e-13
      280.200   1.32169e-13
      280.300   1.29062e-13
      280.400   1.26026e-13
      280.500   1.23062e-13
      280.600   1.20164e-13
      280.700   1.17332e-13
      280.800   1.14566e-13
      280.900   1.11862e-13
      281.000   1.09220e-13
      281.100   1.06639e-13
      281.200   1.04117e-13
      281.300   1.01653e-13
      281.400   9.92458e-14
      281.500   9.68933e-14
      281.600   9.45952e-14
      281.700   9.23498e-14
      281.800   9.01575e-14
      281.900   8.80147e-14
      282.000   8.59211e-14
      282.100   8.38760e-14
      282.200   8.18799e-14
      282.300   7.99288e-14
      282.400   7.80227e-14
      282.500   7.61605e-14
      282.600   7.43423e-14
      282.700   7.25658e-14
      282.800   7.08300e-14
      282.900   6.91364e-14
      283.000   6.74812e-14
      283.100   6.58658e-14
      283.200   6.42878e-14
      283.300   6.27470e-14
      283.400   6.12420e-14
      283.500   5.97723e-14
      283.600   5.83364e-14
      283.700   5.69338e-14
      283.800   5.55646e-14
      283.900   5.42280e-14
      284.000   5.29222e-14
      284.100   5.16471e-14
      284.200   5.04019e-14
      284.300   4.91863e-14
      284.400   4.79992e-14
      284.500   4.68400e-14
      284.600   4.57081e-14
      284.700   4.46035e-14
      284.800   4.35247e-14
      284.900   4.24713e-14
      285.000   4.14425e-14
      285.100   4.04383e-14
      285.200   3.94582e-14
      285.300   3.85010e-14
      285.400   3.75664e-14
      285.500   3.66542e-14
      285.600   3.57640e-14
      285.700   3.48946e-14
      285.800   3.40464e-14
      285.900   3.32185e-14
      286.000   3.24106e-14
      286.100   3.16222e-14
      286.200   3.08521e-14
      286.300   3.01009e-14
      286.400   2.93677e-14
      286.500   2.86517e-14
      286.600   2.79530e-14
      286.700   2.72709e-14
      286.800   2.66052e-14
      286.900   2.59555e-14
      287.000   2.53214e-14
      287.100   2.47025e-14
      287.200   2.40986e-14
      287.300   2.35092e-14
      287.400   2.29338e-14
      287.500   2.23723e-14
      287.600   2.18244e-14
      287.700   2.12896e-14
      287.800   2.07679e-14
      287.900   2.02587e-14
      288.000   1.97620e-14
      288.100   1.92772e-14
      288.200   1.88047e-14
      288.300   1.83437e-14
      288.400   1.78935e-14
      288.500   1.74546e-14
      288.600   1.70259e-14
      288.700   1.66078e-14
      288.800   1.61997e-14
      288.900   1.58018e-14
      289.000   1.54133e-14
      289.100   1.50343e-14
      289.200   1.46645e-14
      289.300   1.43037e-14
      289.400   1.39516e-14
      289.500   1.36081e-14
      289.600   1.32729e-14
      289.700   1.29461e-14
      289.800   1.26270e-14
      289.900   1.23157e-14
      290.000   1.20120e-14
      290.100   1.17159e-14
      290.200   1.14272e-14
      290.300   1.11456e-14
      290.400   1.08708e-14
      290.500   1.06027e-14
      290.600   1.03411e-14
      290.700   1.00859e-14
      290.800   9.83710e-15
      290.900   9.59422e-15
      291.000   9.35718e-15
      291.100   9.12594e-15
      291.200   8.90043e-15
      291.300   8.68038e-15
      291.400   8.46577e-15
      291.500   8.25637e-15
      291.600   8.05205e-15
      291.700   7.85286e-15
      291.800   7.65850e-15
      291.900   7.46915e-15
      292.000   7.28442e-15
      292.100   7.10417e-15
      292.200   6.92842e-15
      292.300   6.75686e-15
      292.400   6.58953e-15
      292.500   6.42624e-15
      292.600   6.26697e-15
      292.700   6.11165e-15
      292.800   5.96014e-15
      292.900   5.81235e-15
      293.000   5.66817e-15
      293.100   5.52747e-15
      293.200   5.39024e-15
      293.300   5.25639e-15
      293.400   5.12591e-15
      293.500   4.99870e-15
      293.600   4.87463e-15
      293.700   4.75358e-15
      293.800   4.63551e-15
      293.900   4.52036e-15
      294.000   4.40800e-15
      294.100   4.29840e-15
      294.200   4.19152e-15
      294.300   4.08726e-15
      294.400   3.98548e-15
      294.500   3.88625e-15
      294.600   3.78943e-15
      294.700   3.69500e-15
      294.800   3.60289e-15
      294.900   3.51310e-15
      295.000   3.42557e-15
      295.100   3.34023e-15
      295.200   3.25697e-15
      295.300   3.17573e-15
      295.400   3.09651e-15
      295.500   3.01925e-15
      295.600   2.94386e-15
      295.700   2.87033e-15
      295.800   2.79860e-15
      295.900   2.72860e-15
      296.000   2.66034e-15
      296.100   2.59374e-15
      296.200   2.52881e-15
      296.300   2.46551e-15
      296.400   2.40387e-15
      296.500   2.34368e-15
      296.600   2.28499e-15
      296.700   2.22774e-15
      296.800   2.17191e-15
      296.900   2.11743e-15
      297.000   2.06429e-15
      297.100   2.01247e-15
      297.200   1.96192e-15
      297.300   1.91260e-15
      297.400   1.86451e-15
      297.500   1.81758e-15
      297.600   1.77185e-15
      297.700   1.72728e-15
      297.800   1.68382e-15
      297.900   1.64143e-15
      298.000   1.60010e-15
      298.100   1.55977e-15
      298.200   1.52044e-15
      298.300   1.48208e-15
      298.400   1.44466e-15
      298.500   1.40816e-15
      298.600   1.37255e-15
      298.700   1.33783e-15
      298.800   1.30395e-15
      298.900   1.27099e-15
      299.000   1.23886e-15
      299.100   1.20750e-15
      299.200   1.17692e-15
      299.300   1.14709e-15
      299.400   1.11800e-15
      299.500   1.08962e-15
      299.600   1.06196e-15
      299.700   1.03497e-15
      299.800   1.00864e-15
      299.900   9.82977e-16
      300.000   9.57948e-16
      300.100   9.33553e-16
      300.192   9.11656e-16
      300.285   8.90026e-16
      300.377   8.69129e-16
      300.470   8.48500e-16
      300.562   8.28562e-16
      300.654   8.09077e-16
      300.747   7.89831e-16
      300.839   7.71246e-16
      300.932   7.52879e-16
      301.025   7.34945e-16
      301.117   7.17620e-16
      301.210   7.00505e-16
      301.303   6.83792e-16
      301.395   6.67659e-16
      301.488   6.51698e-16
      301.581   6.36136e-16
      301.674   6.20921e-16
      301.766   6.06226e-16
      301.859   5.91711e-16
      301.952   5.77544e-16
      302.045   5.63698e-16
      302.138   5.50192e-16
      302.231   5.37010e-16
      302.324   5.24142e-16
      302.417   5.11570e-16
      302.510   4.99287e-16
      302.603   4.87309e-16
      302.696   4.75601e-16
      302.789   4.64165e-16
      302.882   4.52997e-16
      302.976   4.41982e-16
      303.069   4.31338e-16
      303.162   4.20946e-16
      303.255   4.10794e-16
      303.349   4.00777e-16
      303.442   3.91096e-16
      303.535   3.81655e-16
      303.629   3.72333e-16
      303.722   3.63332e-16
      303.816   3.54445e-16
      303.909   3.45863e-16
      304.003   3.37395e-16
      304.096   3.29213e-16
      304.190   3.21140e-16
      304.283   3.13344e-16
      304.377   3.05657e-16
      304.471   2.98147e-16
      304.564   2.90897e-16
      304.658   2.83747e-16
      304.752   2.76759e-16
      304.846   2.69946e-16
      304.939   2.63366e-16
      305.033   2.56872e-16
      305.127   2.50535e-16
      305.221   2.44351e-16
      305.315   2.38317e-16
      305.409   2.32426e-16
      305.503   2.26679e-16
      305.597   2.21071e-16
      305.691   2.15597e-16
      305.785   2.10254e-16
      305.879   2.05041e-16
      305.973   1.99957e-16
      306.067   1.94991e-16
      306.161   1.90150e-16
      306.255   1.85425e-16
      306.350   1.80765e-16
      306.444   1.76267e-16
      306.538   1.71877e-16
      306.633   1.67552e-16
      306.727   1.63374e-16
      306.821   1.59299e-16
      306.916   1.55281e-16
      307.010   1.51405e-16
      307.105   1.47583e-16
      307.199   1.43895e-16
      307.294   1.40257e-16
      307.388   1.36748e-16
      307.483   1.33289e-16
      307.577   1.29950e-16
      307.672   1.26658e-16
      307.767   1.23449e-16
      307.861   1.20352e-16
      307.956   1.17297e-16
      308.051   1.14318e-16
      308.146   1.11415e-16
      308.240   1.08614e-16
      308.335   1.05852e-16
      308.430   1.03157e-16
      308.525   1.00531e-16
      308.620   9.79703e-17
      308.715   9.54733e-17
      308.810   9.30386e-17
      308.905   9.06646e-17
      309.000   8.83504e-17
      309.095   8.60938e-17
      309.190   8.38946e-17
      309.285   8.17492e-17
      309.380   7.96578e-17
      309.476   7.75985e-17
      309.571   7.56113e-17
      309.666   7.36734e-17
      309.761   7.17850e-17
      309.857   6.99250e-17
      309.952   6.81306e-17
      310.047   6.63823e-17
      310.143   6.46594e-17
      310.238   6.29980e-17
      310.334   6.13616e-17
      310.429   5.97828e-17
      310.525   5.82286e-17
      310.620   5.67296e-17
      310.716   5.52528e-17
      310.811   5.38292e-17
      310.907   5.24276e-17
      311.003   5.10615e-17
      311.098   4.97438e-17
      311.194   4.84461e-17
      311.290   4.71821e-17
      311.386   4.59506e-17
      311.481   4.47628e-17
      311.577   4.35938e-17
      311.673   4.24542e-17
      311.769   4.13439e-17
      311.865   4.02628e-17
      311.961   3.92168e-17
      312.057   3.82290e-17
      312.153   3.72761e-17
      312.249   3.63465e-17
      312.345   3.54399e-17
      312.441   3.45552e-17
      312.537   3.36926e-17
      312.633   3.28515e-17
      312.730   3.20219e-17
      312.826   3.12219e-17
      312.922   3.04417e-17
      313.018   2.96806e-17
      313.115   2.89306e-17
      313.211   2.82065e-17
      313.307   2.75006e-17
      313.404   2.68051e-17
      313.500   2.61337e-17
      313.597   2.54726e-17
      313.693   2.48346e-17
      313.790   2.42058e-17
      313.886   2.35990e-17
      313.983   2.30010e-17
      314.079   2.24239e-17
      314.176   2.18557e-17
      314.273   2.13015e-17
      314.369   2.07670e-17
      314.466   2.02402e-17
      314.563   1.97266e-17
      314.660   1.92262e-17
      314.756   1.87430e-17
      314.853   1.82671e-17
      314.950   1.78032e-17
      315.047   1.73510e-17
      315.144   1.69101e-17
      315.241   1.64804e-17
      315.338   1.60615e-17
      315.435   1.56532e-17
      315.532   1.52552e-17
      315.629   1.48672e-17
      315.726   1.44891e-17
      315.823   1.41202e-17
      315.921   1.37573e-17
      316.018   1.34071e-17
      316.115   1.30658e-17
      316.212   1.27330e-17
      316.310   1.24055e-17
      316.407   1.20895e-17
      316.504   1.17814e-17
      316.602   1.14781e-17
      316.699   1.11856e-17
      316.796   1.09005e-17
      316.894   1.06198e-17
      316.991   1.03505e-17
      317.089   1.00942e-17
      317.187   9.84854e-18
      317.284   9.61135e-18
      317.382   9.37748e-18
      317.479   9.15148e-18
      317.577   8.92876e-18
      317.675   8.71148e-18
      317.773   8.49940e-18
      317.870   8.29460e-18
      317.968   8.09254e-18
      318.066   7.89544e-18
      318.164   7.70311e-18
      318.262   7.51548e-18
      318.360   7.33234e-18
      318.458   7.15373e-18
      318.556   6.97951e-18
      318.654   6.80946e-18
      318.752   6.64351e-18
      318.850   6.48161e-18
      318.948   6.32361e-18
      319.046   6.16945e-18
      319.144   6.01900e-18
      319.242   5.87226e-18
      319.341   5.72761e-18
      319.439   5.58792e-18
      319.537   5.45166e-18
      319.635   5.31869e-18
      319.734   5.18764e-18
      319.832   5.06109e-18
      319.930   4.93758e-18
      320.029   4.81589e-18
      320.127   4.69838e-18
      320.226   4.58256e-18
      320.324   4.47066e-18
      320.423   4.36036e-18
      320.522   4.25288e-18
      320.620   4.14905e-18
      320.719   4.04670e-18
      320.818   3.94687e-18
      320.916   3.85047e-18
      321.015   3.75543e-18
      321.114   3.66274e-18
      321.213   3.57233e-18
      321.311   3.48503e-18
      321.410   3.39903e-18
      321.509   3.31507e-18
      321.608   3.23324e-18
      321.707   3.15339e-18
      321.806   3.07548e-18
      321.905   2.99952e-18
      322.004   2.92539e-18
      322.103   2.85312e-18
      322.202   2.78260e-18
      322.301   2.71384e-18
      322.401   2.64610e-18
      322.500   2.58068e-18
      322.599   2.51689e-18
      322.698   2.45466e-18
      322.798   2.39334e-18
      322.897   2.33413e-18
      322.996   2.27640e-18
      323.096   2.21948e-18
      323.195   2.16455e-18
      323.294   2.11097e-18
      323.394   2.05820e-18
      323.493   2.00723e-18
      323.593   1.95702e-18
      323.692   1.90854e-18
      323.792   1.86079e-18
      323.892   1.81422e-18
      323.991   1.76923e-18
      324.091   1.72494e-18
      324.191   1.68174e-18
      324.291   1.63961e-18
      324.390   1.59895e-18
      324.490   1.55887e-18
      324.590   1.51980e-18
      324.690   1.48171e-18
      324.790   1.44455e-18
      324.890   1.40833e-18
      324.990   1.37299e-18
      325.090   1.33852e-18
      325.190   1.30493e-18
      325.290   1.27218e-18
      325.390   1.24021e-18
      325.490   1.20907e-18
      325.590   1.17870e-18
      325.690   1.14906e-18
      325.790   1.12017e-18
      325.891   1.09173e-18
      325.991   1.06426e-18
      326.091   1.03748e-18
      326.192   1.01110e-18
      326.292   9.85644e-19
      326.392   9.60825e-19
      326.493   9.36379e-19
      326.593   9.12776e-19
      326.694   8.89551e-19
      326.794   8.67117e-19
      326.895   8.45027e-19
      326.995   8.23699e-19
      327.096   8.02706e-19
      327.197   7.82237e-19
      327.297   7.62474e-19
      327.398   7.43016e-19
      327.499   7.24049e-19
      327.599   7.05735e-19
      327.700   6.87699e-19
      327.801   6.70121e-19
      327.902   6.52996e-19
      328.003   6.36290e-19
      328.104   6.20007e-19
      328.205   6.04136e-19
      328.306   5.88665e-19
      328.407   5.73586e-19
      328.508   5.58881e-19
      328.609   5.44550e-19
      328.710   5.30584e-19
      328.811   5.16968e-19
      328.912   5.03697e-19
      329.013   4.90759e-19
      329.115   4.78030e-19
      329.216   4.65741e-19
      329.317   4.53763e-19
      329.419   4.41981e-19
      329.520   4.30603e-19
      329.621   4.19510e-19
      329.723   4.08593e-19
      329.824   3.98070e-19
      329.926   3.87707e-19
      330.027   3.77703e-19
      330.129   3.67858e-19
      330.230   3.58364e-19
      330.332   3.49014e-19
      330.434   3.39907e-19
      330.535   3.31116e-19
      330.637   3.22466e-19
      330.739   3.14041e-19
      330.840   3.05908e-19
      330.942   2.97904e-19
      331.044   2.90107e-19
      331.146   2.82511e-19
      331.248   2.75109e-19
      331.350   2.67899e-19
      331.452   2.60881e-19
      331.554   2.54206e-19
      331.656   2.47950e-19
      331.758   2.41847e-19
      331.860   2.35887e-19
      331.962   2.30072e-19
      332.064   2.24396e-19
      332.166   2.18862e-19
      332.268   2.13456e-19
      332.371   2.08135e-19
      332.473   2.02989e-19
      332.575   1.97965e-19
      332.677   1.93067e-19
      332.780   1.88242e-19
      332.882   1.83579e-19
      332.985   1.78985e-19
      333.087   1.74545e-19
      333.190   1.70171e-19
      333.292   1.65887e-19
      333.395   1.61514e-19
      333.497   1.57236e-19
      333.600   1.53030e-19
      333.702   1.48972e-19
      333.805   1.44984e-19
      333.908   1.41097e-19
      334.011   1.37314e-19
      334.113   1.33666e-19
      334.216   1.30077e-19
      334.319   1.26584e-19
      334.422   1.23181e-19
      334.525   1.19869e-19
      334.628   1.16644e-19
      334.731   1.13505e-19
      334.834   1.10449e-19
      334.937   1.07472e-19
      335.040   1.04573e-19
      335.143   1.01753e-19
      335.246   9.90066e-20
      335.349   9.63330e-20
      335.452   9.37301e-20
      335.555   9.11966e-20
      335.659   8.87058e-20
      335.762   8.63046e-20
      335.865   8.39684e-20
      335.969   8.16714e-20
      336.072   7.94562e-20
      336.175   7.73021e-20
      336.279   7.51848e-20
      336.382   7.31436e-20
      336.486   7.11371e-20
      336.589   6.92031e-20
      336.693   6.73041e-20
      336.796   6.54733e-20
      336.900   6.36739e-20
      337.004   6.19222e-20
      337.107   6.02357e-20
      337.211   5.85772e-20
      337.315   5.69652e-20
      337.419   5.53954e-20
      337.523   5.38680e-20
      337.626   5.23965e-20
      337.730   5.09511e-20
      337.834   4.95443e-20
      337.938   4.81764e-20
      338.042   4.68476e-20
      338.146   4.55644e-20
      338.250   4.43172e-20
      338.354   4.31034e-20
      338.458   4.19217e-20
      338.562   4.07721e-20
      338.667   3.96433e-20
      338.771   3.85550e-20
      338.875   3.74963e-20
      338.979   3.64659e-20
      339.084   3.54547e-20
      339.188   3.44799e-20
      339.292   3.35317e-20
      339.397   3.26000e-20
      339.501   3.17028e-20
      339.606   3.08208e-20
      339.710   2.99716e-20
      339.815   2.91375e-20
      339.919   2.83341e-20
      340.024   2.75447e-20
      340.128   2.67848e-20
      340.233   2.60379e-20
      340.338   2.53122e-20
      340.442   2.46124e-20
      340.547   2.39257e-20
      340.652   2.32575e-20
      340.757   2.26080e-20
      340.862   2.19763e-20
      340.966   2.13678e-20
      341.071   2.07703e-20
      341.176   2.01894e-20
      341.281   1.96243e-20
      341.386   1.90752e-20
      341.491   1.85408e-20
      341.596   1.80216e-20
      341.702   1.75119e-20
      341.807   1.70210e-20
      341.912   1.65437e-20
      342.017   1.60795e-20
      342.122   1.56282e-20
      342.228   1.51856e-20
      342.333   1.47592e-20
      342.438   1.43446e-20
      342.544   1.39379e-20
      342.649   1.35461e-20
      342.754   1.31655e-20
      342.860   1.27917e-20
      342.965   1.24316e-20
      343.071   1.20788e-20
      343.176   1.17388e-20
      343.282   1.14051e-20
      343.388   1.10810e-20
      343.493   1.07700e-20
      343.599   1.04744e-20
      343.705   1.01879e-20
      343.810   9.91157e-21
      343.916   9.64035e-21
      344.022   9.37646e-21
      344.128   9.11974e-21
      344.234   8.86984e-21
      344.340   8.62685e-21
      344.446   8.39035e-21
      344.552   8.16030e-21
      344.658   7.93659e-21
      344.764   7.71904e-21
      344.870   7.50722e-21
      344.976   7.30131e-21
      345.082   7.10090e-21
      345.188   6.90609e-21
      345.294   6.71640e-21
      345.401   6.53026e-21
      345.507   6.35090e-21
      345.613   6.17647e-21
      345.719   6.00675e-21
      345.826   5.84016e-21
      345.932   5.67960e-21
      346.039   5.52203e-21
      346.145   5.37017e-21
      346.252   5.22114e-21
      346.358   5.07751e-21
      346.465   4.93660e-21
      346.571   4.80076e-21
      346.678   4.66739e-21
      346.785   4.53771e-21
      346.891   4.41281e-21
      346.998   4.29024e-21
      347.105   4.17103e-21
      347.212   4.05509e-21
      347.319   3.94235e-21
      347.425   3.83369e-21
      347.532   3.72707e-21
      347.639   3.62344e-21
      347.746   3.52264e-21
      347.853   3.42459e-21
      347.960   3.32931e-21
      348.067   3.23669e-21
      348.174   3.14663e-21
      348.281   3.05904e-21
      348.389   2.97310e-21
      348.496   2.89029e-21
      348.603   2.80987e-21
      348.710   2.73161e-21
      348.818   2.65484e-21
      348.925   2.58086e-21
      349.032   2.50898e-21
      349.140   2.43808e-21
      349.247   2.36975e-21
      349.355   2.30276e-21
      349.462   2.23822e-21
      349.570   2.17485e-21
      349.677   2.11389e-21
      349.785   2.05404e-21
      349.892   1.99644e-21
      350.000   1.93994e-21
      350.100   1.88905e-21
      350.193   1.84291e-21
      350.287   1.79739e-21
      350.380   1.75350e-21
      350.473   1.71066e-21
      350.567   1.66838e-21
      350.660   1.62761e-21
      350.754   1.58740e-21
      350.847   1.54862e-21
      350.941   1.51036e-21
      351.034   1.47344e-21
      351.128   1.43703e-21
      351.221   1.40192e-21
      351.315   1.36726e-21
      351.409   1.33345e-21
      351.502   1.30084e-21
      351.596   1.26869e-21
      351.690   1.23731e-21
      351.783   1.20706e-21
      351.877   1.17722e-21
      351.971   1.14810e-21
      352.065   1.11970e-21
      352.159   1.09201e-21
      352.252   1.06528e-21
      352.346   1.03891e-21
      352.440   1.01321e-21
      352.534   9.88162e-22
      352.628   9.63697e-22
      352.722   9.39840e-22
      352.816   9.16582e-22
      352.910   8.93903e-22
      353.004   8.71783e-22
      353.098   8.50192e-22
      353.192   8.29137e-22
      353.287   8.08388e-22
      353.381   7.88358e-22
      353.475   7.68844e-22
      353.569   7.49788e-22
      353.663   7.31220e-22
      353.758   7.12918e-22
      353.852   6.95257e-22
      353.946   6.78025e-22
      354.041   6.61043e-22
      354.135   6.44660e-22
      354.229   6.28673e-22
      354.324   6.12923e-22
      354.418   5.97725e-22
      354.513   5.82742e-22
      354.607   5.68300e-22
      354.702   5.53965e-22
      354.796   5.39797e-22
      354.891   5.25810e-22
      354.985   5.12330e-22
      355.080   4.99056e-22
      355.175   4.86115e-22
      355.269   4.73645e-22
      355.364   4.61361e-22
      355.459   4.49400e-22
      355.553   4.37861e-22
      355.648   4.26505e-22
      355.743   4.15445e-22
      355.838   4.04653e-22
      355.933   3.94156e-22
      356.027   3.84031e-22
      356.122   3.74054e-22
      356.217   3.64340e-22
      356.312   3.54883e-22
      356.407   3.45660e-22
      356.502   3.36680e-22
      356.597   3.27927e-22
      356.692   3.19404e-22
      356.787   3.11100e-22
      356.882   3.03005e-22
      356.977   2.95128e-22
      357.073   2.87372e-22
      357.168   2.79889e-22
      357.263   2.72606e-22
      357.358   2.65508e-22
      357.453   2.58596e-22
      357.549   2.51792e-22
      357.644   2.45233e-22
      357.739   2.38847e-22
      357.835   2.32554e-22
      357.930   2.26492e-22
      358.025   2.20586e-22
      358.121   2.14775e-22
      358.216   2.09171e-22
      358.312   2.03656e-22
      358.407   1.98342e-22
      358.503   1.93111e-22
      358.598   1.88071e-22
      358.694   1.83108e-22
      358.790   1.78273e-22
      358.885   1.73614e-22
      358.981   1.69028e-22
      359.076   1.64611e-22
      359.172   1.60263e-22
      359.268   1.56024e-22
      359.364   1.51898e-22
      359.459   1.47926e-22
      359.555   1.44012e-22
      359.651   1.40201e-22
      359.747   1.36491e-22
      359.843   1.32876e-22
      359.939   1.29357e-22
      360.035   1.25931e-22
      360.131   1.22596e-22
      360.227   1.19343e-22
      360.323   1.16180e-22
      360.419   1.13099e-22
      360.515   1.10100e-22
      360.611   1.07177e-22
      360.707   1.04329e-22
      360.803   1.01561e-22
      360.899   9.88615e-23
      360.995   9.62357e-23
      361.092   9.36511e-23
      361.188   9.11600e-23
      361.284   8.87351e-23
      361.380   8.63743e-23
      361.477   8.40511e-23
      361.573   8.18124e-23
      361.669   7.96336e-23
      361.766   7.74889e-23
      361.862   7.54240e-23
      361.959   7.33926e-23
      362.055   7.14328e-23
      362.152   6.95080e-23
      362.248   6.76525e-23
      362.345   6.58260e-23
      362.441   6.40684e-23
      362.538   6.23389e-23
      362.635   6.06554e-23
      362.731   5.90326e-23
      362.828   5.74367e-23
      362.925   5.58836e-23
      363.021   5.43871e-23
      363.118   5.29159e-23
      363.215   5.14829e-23
      363.312   5.00880e-23
      363.409   4.87314e-23
      363.505   4.74240e-23
      363.602   4.61375e-23
      363.699   4.48861e-23
      363.796   4.36680e-23
      363.893   4.24823e-23
      363.990   4.13284e-23
      364.087   4.02055e-23
      364.184   3.91127e-23
      364.281   3.80486e-23
      364.378   3.70136e-23
      364.475   3.60062e-23
      364.573   3.50155e-23
      364.670   3.40616e-23
      364.767   3.31333e-23
      364.864   3.22297e-23
      364.961   3.13505e-23
      365.059   3.04863e-23
      365.156   2.96542e-23
      365.253   2.88441e-23
      365.351   2.80478e-23
      365.448   2.72809e-23
      365.545   2.65349e-23
      365.643   2.58013e-23
      365.740   2.50947e-23
      365.838   2.44004e-23
      365.935   2.37320e-23
      366.033   2.30749e-23
      366.130   2.24419e-23
      366.228   2.18200e-23
      366.326   2.12151e-23
      366.423   2.06326e-23
      366.521   2.00600e-23
      366.618   1.95084e-23
      366.716   1.89664e-23
      366.814   1.84395e-23
      366.912   1.79270e-23
      367.010   1.74281e-23
      367.107   1.69480e-23
      367.205   1.64759e-23
      367.303   1.60169e-23
      367.401   1.55706e-23
      367.499   1.51363e-23
      367.597   1.47140e-23
      367.695   1.43034e-23
      367.793   1.39041e-23
      367.891   1.35157e-23
      367.989   1.31377e-23
      368.087   1.27704e-23
      368.185   1.24132e-23
      368.283   1.20656e-23
      368.381   1.17275e-23
      368.480   1.13957e-23
      368.578   1.10761e-23
      368.676   1.07656e-23
      368.774   1.04635e-23
      368.873   1.01668e-23
      368.971   9.88127e-24
      369.069   9.60354e-24
      369.168   9.33066e-24
      369.266   9.06818e-24
      369.364   8.81294e-24
      369.463   8.56225e-24
      369.561   8.32106e-24
      369.660   8.08414e-24
      369.758   7.85615e-24
      369.857   7.63231e-24
      369.955   7.41690e-24
      370.054   7.20526e-24
      370.153   6.99959e-24
      370.251   6.80173e-24
      370.350   6.60744e-24
      370.449   6.41865e-24
      370.547   6.23693e-24
      370.646   6.05837e-24
      370.745   5.88502e-24
      370.844   5.71648e-24
      370.943   5.55269e-24
      371.041   5.39512e-24
      371.140   5.24034e-24
      371.239   5.08992e-24
      371.338   4.94382e-24
      371.437   4.80184e-24
      371.536   4.66389e-24
      371.635   4.52975e-24
      371.734   4.39946e-24
      371.833   4.27287e-24
      371.932   4.14985e-24
      372.032   4.02911e-24
      372.131   3.91296e-24
      372.230   3.80017e-24
      372.329   3.69056e-24
      372.428   3.58402e-24
      372.528   3.47952e-24
      372.627   3.37905e-24
      372.726   3.28141e-24
      372.826   3.18560e-24
      372.925   3.09344e-24
      373.024   3.00389e-24
      373.124   2.91602e-24
      373.223   2.83159e-24
      373.323   2.74873e-24
      373.422   2.66903e-24
      373.522   2.59082e-24
      373.621   2.51567e-24
      373.721   2.44190e-24
      373.820   2.37099e-24
      373.920   2.30141e-24
      374.020   2.23380e-24
      374.119   2.16885e-24
      374.219   2.10509e-24
      374.319   2.04322e-24
      374.419   1.98316e-24
      374.518   1.92537e-24
      374.618   1.86869e-24
      374.718   1.81361e-24
      374.818   1.76020e-24
      374.918   1.70834e-24
      375.018   1.65796e-24
      375.118   1.60906e-24
      375.218   1.56155e-24
      375.318   1.51545e-24
      375.418   1.47066e-24
      375.518   1.42722e-24
      375.618   1.38504e-24
      375.718   1.34407e-24
      375.818   1.30430e-24
      375.918   1.26570e-24
      376.019   1.22786e-24
      376.119   1.19148e-24
      376.219   1.15618e-24
      376.319   1.12189e-24
      376.420   1.08830e-24
      376.520   1.05601e-24
      376.620   1.02468e-24
      376.721   9.93946e-25
      376.821   9.64426e-25
      376.922   9.35486e-25
      377.022   9.07672e-25
      377.122   8.80689e-25
      377.223   8.54234e-25
      377.323   8.28822e-25
      377.424   8.03899e-25
      377.525   7.79728e-25
      377.625   7.56500e-25
      377.726   7.33737e-25
      377.827   7.11651e-25
      377.927   6.90424e-25
      378.028   6.69633e-25
      378.129   6.49450e-25
      378.230   6.29865e-25
      378.330   6.11052e-25
      378.431   5.92618e-25
      378.532   5.74746e-25
      378.633   5.57390e-25
      378.734   5.40554e-25
      378.835   5.24226e-25
      378.936   5.08387e-25
      379.037   4.93022e-25
      379.138   4.78111e-25
      379.239   4.63646e-25
      379.340   4.49626e-25
      379.441   4.36019e-25
      379.542   4.22815e-25
      379.643   4.10013e-25
      379.745   3.97473e-25
      379.846   3.85425e-25
      379.947   3.73739e-25
      380.048   3.62411e-25
      380.150   3.51310e-25
      380.251   3.40650e-25
      380.352   3.30314e-25
      380.454   3.20193e-25
      380.555   3.10469e-25
      380.656   3.01036e-25
      380.758   2.91799e-25
      380.859   2.82932e-25
      380.961   2.74251e-25
      381.062   2.65913e-25
      381.164   2.57745e-25
      381.266   2.49827e-25
      381.367   2.42224e-25
      381.469   2.34781e-25
      381.570   2.27634e-25
      381.672   2.20635e-25
      381.774   2.13847e-25
      381.876   2.07268e-25
      381.977   2.00952e-25
      382.079   1.94767e-25
      382.181   1.88769e-25
      382.283   1.82960e-25
      382.385   1.77324e-25
      382.487   1.71857e-25
      382.589   1.66563e-25
      382.691   1.61429e-25
      382.793   1.56453e-25
      382.895   1.51628e-25
      382.997   1.46950e-25
      383.099   1.42416e-25
      383.201   1.38023e-25
      383.303   1.33762e-25
      383.405   1.29632e-25
      383.507   1.25629e-25
      383.610   1.21712e-25
      383.712   1.17951e-25
      383.814   1.14309e-25
      383.916   1.10777e-25
      384.019   1.07320e-25
      384.121   1.04001e-25
      384.223   1.00785e-25
      384.326   9.76391e-26
      384.428   9.46165e-26
      384.531   9.16583e-26
      384.633   8.88196e-26
      384.736   8.60411e-26
      384.838   8.33744e-26
      384.941   8.07656e-26
      385.043   7.82614e-26
      385.146   7.58122e-26
      385.249   7.34390e-26
      385.351   7.11612e-26
      385.454   6.89321e-26
      385.557   6.67736e-26
      385.660   6.46813e-26
      385.762   6.26745e-26
      385.865   6.07104e-26
      385.968   5.88070e-26
      386.071   5.69627e-26
      386.174   5.51765e-26
      386.277   5.34467e-26
      386.380   5.17703e-26
      386.483   5.01460e-26
      386.586   4.85734e-26
      386.689   4.70491e-26
      386.792   4.55723e-26
      386.895   4.41418e-26
      386.998   4.27560e-26
      387.101   4.14138e-26
      387.204   4.01124e-26
      387.308   3.88405e-26
      387.411   3.76202e-26
      387.514   3.64381e-26
      387.617   3.52932e-26
      387.721   3.41738e-26
      387.824   3.30996e-26
      387.927   3.20583e-26
      388.031   3.10406e-26
      388.134   3.00645e-26
      388.238   2.91104e-26
      388.341   2.81944e-26
      388.445   2.72989e-26
      388.548   2.64395e-26
      388.652   2.55997e-26
      388.755   2.47941e-26
      388.859   2.40061e-26
      388.962   2.32504e-26
      389.066   2.25110e-26
      389.170   2.17957e-26
      389.274   2.11026e-26
      389.377   2.04377e-26
      389.481   1.97874e-26
      389.585   1.91581e-26
      389.689   1.85485e-26
      389.793   1.79581e-26
      389.897   1.73868e-26
      390.000   1.68384e-26
      390.104   1.63026e-26
      390.208   1.57833e-26
      390.312   1.52807e-26
      390.416   1.47941e-26
      390.520   1.43226e-26
      390.625   1.38615e-26
      390.729   1.34199e-26
      390.833   1.29920e-26
      390.937   1.25777e-26
      391.041   1.21767e-26
      391.145   1.17885e-26
      391.250   1.14088e-26
      391.354   1.10449e-26
      391.458   1.06926e-26
      391.563   1.03480e-26
      391.667   1.00178e-26
      391.771   9.69811e-27
      391.876   9.38552e-27
      391.980   9.08576e-27
      392.085   8.79288e-27
      392.189   8.51205e-27
      392.294   8.23751e-27
      392.398   7.97435e-27
      392.503   7.71713e-27
      392.607   7.47049e-27
      392.712   7.22951e-27
      392.817   6.99608e-27
      392.921   6.77247e-27
      393.026   6.55380e-27
      393.131   6.34227e-27
      393.236   6.13733e-27
      393.340   5.94098e-27
      393.445   5.74912e-27
      393.550   5.56339e-27
      393.655   5.38357e-27
      393.760   5.20962e-27
      393.865   5.04118e-27
      393.970   4.87830e-27
      394.075   4.72048e-27
      394.180   4.56787e-27
      394.285   4.42011e-27
      394.390   4.27715e-27
      394.495   4.13870e-27
      394.600   4.00477e-27
      394.706   3.87394e-27
      394.811   3.74856e-27
      394.916   3.62711e-27
      395.021   3.50962e-27
      395.126   3.39601e-27
      395.232   3.28490e-27
      395.337   3.17843e-27
      395.443   3.07447e-27
      395.548   2.97481e-27
      395.653   2.87838e-27
      395.759   2.78413e-27
      395.864   2.69384e-27
      395.970   2.60563e-27
      396.075   2.52109e-27
      396.181   2.43848e-27
      396.286   2.35929e-27
      396.392   2.28201e-27
      396.498   2.20722e-27
      396.603   2.13548e-27
      396.709   2.06548e-27
      396.815   1.99772e-27
      396.921   1.93215e-27
      397.026   1.86933e-27
      397.132   1.80794e-27
      397.238   1.74860e-27
      397.344   1.69113e-27
      397.450   1.63564e-27
      397.556   1.58186e-27
      397.662   1.52986e-27
      397.768   1.47959e-27
      397.874   1.43093e-27
      397.980   1.38387e-27
      398.086   1.33833e-27
      398.192   1.29431e-27
      398.298   1.25170e-27
      398.404   1.21048e-27
      398.510   1.17062e-27
      398.617   1.13173e-27
      398.723   1.09444e-27
      398.829   1.05835e-27
      398.935   1.02346e-27
      399.042   9.89413e-28
      399.148   9.56763e-28
      399.255   9.24924e-28
      399.361   8.94405e-28
      399.467   8.64858e-28
      399.574   8.36051e-28
      399.680   8.08431e-28
      399.787   7.81471e-28
      399.893       0.00000
      400.000       0.00000
