Filter: Al-poly/Ti-poly
observation_date 22-Sept-2019 22:40:45
wavelength effective area
      1.00000   2.76604e-10
      1.10000   7.87989e-10
      1.20000   2.04350e-09
      1.30000   4.87274e-09
      1.40000   1.10214e-08
      1.50000   2.34287e-08
      1.60000   4.72403e-08
      1.70000   9.13078e-08
      1.80000   1.69176e-07
      1.90000   3.02481e-07
      2.00000   5.22920e-07
      2.10000   8.77950e-07
      2.20000   1.43840e-06
      2.30000   2.29662e-06
      2.40000   3.57994e-06
      2.50000   5.73197e-06
      2.60000   8.86411e-06
      2.70000   1.31993e-05
      2.80000   1.92776e-05
      2.90000   2.78630e-05
      3.00000   3.96406e-05
      3.10000   5.56672e-05
      3.20000   7.73136e-05
      3.30000   0.000106276
      3.40000   0.000144555
      3.50000   0.000194702
      3.60000   0.000261012
      3.70000   0.000346166
      3.80000   0.000457154
      3.90000   0.000600323
      4.00000   0.000783356
      4.10000    0.00101737
      4.20000    0.00131644
      4.30000    0.00169843
      4.40000    0.00218520
      4.50000    0.00280351
      4.60000    0.00358440
      4.70000    0.00458215
      4.80000    0.00585101
      4.90000    0.00737469
      5.00000    0.00953854
      5.10000     0.0121627
      5.20000     0.0155526
      5.30000     0.0197180
      5.40000     0.0249554
      5.50000     0.0316362
      5.60000     0.0388723
      5.70000     0.0503154
      5.80000     0.0587260
      5.90000     0.0892625
      6.00000      0.119440
      6.10000      0.151939
      6.20000      0.185704
      6.30000      0.217531
      6.40000      0.244390
      6.50000      0.263611
      6.60000      0.271445
      6.70000      0.278388
      6.80000      0.277245
      6.90000      0.361692
      7.00000      0.391085
      7.10000      0.411199
      7.20000      0.426456
      7.30000      0.438274
      7.40000      0.446505
      7.50000      0.452358
      7.60000      0.455962
      7.70000      0.456154
      7.80000      0.452124
      7.90000      0.448594
      8.00000      0.751153
      8.10000      0.820024
      8.20000      0.830971
      8.30000      0.838025
      8.40000      0.841801
      8.50000      0.844180
      8.60000      0.844905
      8.70000      0.844543
      8.80000      0.842823
      8.90000      0.840179
      9.00000      0.836562
      9.10000      0.832023
      9.20000      0.826737
      9.30000      0.820638
      9.40000      0.813864
      9.50000      0.806475
      9.60000      0.798434
      9.70000      0.789843
      9.80000      0.780847
      9.90000      0.771478
      10.0000      0.761792
      10.1000      0.751803
      10.2000      0.741537
      10.3000      0.730948
      10.4000      0.720065
      10.5000      0.708913
      10.6000      0.697531
      10.7000      0.685942
      10.8000      0.674162
      10.9000      0.662224
      11.0000      0.650141
      11.1000      0.637944
      11.2000      0.625642
      11.3000      0.613266
      11.4000      0.600817
      11.5000      0.588299
      11.6000      0.575732
      11.7000      0.563078
      11.8000      0.550405
      11.9000      0.537671
      12.0000      0.524319
      12.1000      0.512954
      12.2000      0.510602
      12.3000      0.502839
      12.4000      0.491399
      12.5000      0.479720
      12.6000      0.468005
      12.7000      0.456334
      12.8000      0.444739
      12.9000      0.433233
      13.0000      0.421847
      13.1000      0.410611
      13.2000      0.399535
      13.3000      0.388632
      13.4000      0.377912
      13.5000      0.367489
      13.6000      0.357341
      13.7000      0.347366
      13.8000      0.337558
      13.9000      0.327932
      14.0000      0.318486
      14.1000      0.309208
      14.2000      0.300099
      14.3000      0.291155
      14.4000      0.282366
      14.5000      0.273744
      14.6000      0.265292
      14.7000      0.256997
      14.8000      0.248862
      14.9000      0.240888
      15.0000      0.233076
      15.1000      0.225432
      15.2000      0.217980
      15.3000      0.210700
      15.4000      0.203585
      15.5000      0.196636
      15.6000      0.189861
      15.7000      0.183264
      15.8000      0.176872
      15.9000      0.170656
      16.0000      0.164611
      16.1000      0.158738
      16.2000      0.153070
      16.3000      0.147563
      16.4000      0.142203
      16.5000      0.136985
      16.6000      0.131921
      16.7000      0.127015
      16.8000      0.122239
      16.9000      0.117589
      17.0000      0.113086
      17.1000      0.108728
      17.2000      0.104486
      17.3000      0.100364
      17.4000     0.0964560
      17.5000     0.0927338
      17.6000     0.0891640
      17.7000     0.0857720
      17.8000     0.0826180
      17.9000     0.0795549
      18.0000     0.0765603
      18.1000     0.0736697
      18.2000     0.0708312
      18.3000     0.0680346
      18.4000     0.0652848
      18.5000     0.0625847
      18.6000     0.0599200
      18.7000     0.0572909
      18.8000     0.0547582
      18.9000     0.0522995
      19.0000     0.0499407
      19.1000     0.0476804
      19.2000     0.0454937
      19.3000     0.0434170
      19.4000     0.0414282
      19.5000     0.0395068
      19.6000     0.0377028
      19.7000     0.0359642
      19.8000     0.0342849
      19.9000     0.0327076
      20.0000     0.0311771
      20.1000     0.0297077
      20.2000     0.0283046
      20.3000     0.0269417
      20.4000     0.0256482
      20.5000     0.0243994
      20.6000     0.0231914
      20.7000     0.0220488
      20.8000     0.0209376
      20.9000     0.0198789
      21.0000     0.0189006
      21.1000     0.0179850
      21.2000     0.0172308
      21.3000     0.0165260
      21.4000     0.0159219
      21.5000     0.0154218
      21.6000     0.0150253
      21.7000     0.0146250
      21.8000     0.0142251
      21.9000     0.0138042
      22.0000     0.0133708
      22.1000     0.0129023
      22.2000     0.0123666
      22.3000     0.0117744
      22.4000     0.0109635
      22.5000     0.0100912
      22.6000    0.00840804
      22.7000    0.00763898
      22.8000     0.0113592
      22.9000     0.0155396
      23.0000     0.0193622
      23.1000     0.0215818
      23.2000     0.0222378
      23.3000     0.0219620
      23.4000     0.0212013
      23.5000     0.0204427
      23.6000     0.0196899
      23.7000     0.0189200
      23.8000     0.0181565
      23.9000     0.0174260
      24.0000     0.0167051
      24.1000     0.0160084
      24.2000     0.0153251
      24.3000     0.0146739
      24.4000     0.0140368
      24.5000     0.0134272
      24.6000     0.0128337
      24.7000     0.0122681
      24.8000     0.0117186
      24.9000     0.0111941
      25.0000     0.0106858
      25.1000     0.0102016
      25.2000    0.00973238
      25.3000    0.00928575
      25.4000    0.00885306
      25.5000    0.00844282
      25.6000    0.00804529
      25.7000    0.00767008
      25.8000    0.00730499
      25.9000    0.00696139
      26.0000    0.00662565
      26.1000    0.00631117
      26.2000    0.00600238
      26.3000    0.00571542
      26.4000    0.00543179
      26.5000    0.00517002
      26.6000    0.00491113
      26.7000    0.00467124
      26.8000    0.00443613
      26.9000    0.00421590
      27.0000    0.00400194
      27.1000    0.00379899
      27.2000    0.00360380
      27.3000     0.0151789
      27.4000     0.0412754
      27.5000     0.0599661
      27.6000     0.0582889
      27.7000     0.0566295
      27.8000     0.0549941
      27.9000     0.0533759
      28.0000     0.0518164
      28.1000     0.0502816
      28.2000     0.0487948
      28.3000     0.0473448
      28.4000     0.0459273
      28.5000     0.0445573
      28.6000     0.0432064
      28.7000     0.0419261
      28.8000     0.0406597
      28.9000     0.0394401
      29.0000     0.0382432
      29.1000     0.0370782
      29.2000     0.0359475
      29.3000     0.0348349
      29.4000     0.0337686
      29.5000     0.0327144
      29.6000     0.0317018
      29.7000     0.0307085
      29.8000     0.0297421
      29.9000     0.0288077
      30.0000     0.0278854
      30.1000     0.0270068
      30.2000     0.0261385
      30.3000     0.0269175
      30.4000     0.0286169
      30.5000     0.0297439
      30.6000     0.0288322
      30.7000     0.0279311
      30.8000     0.0270663
      30.9000     0.0262193
      31.0000     0.0253924
      31.1000     0.0245979
      31.2000     0.0238129
      31.3000     0.0230624
      31.4000     0.0223263
      31.5000     0.0216092
      31.6000     0.0209217
      31.7000     0.0202427
      31.8000     0.0195932
      31.9000     0.0189569
      32.0000     0.0183326
      32.1000     0.0177279
      32.2000     0.0171307
      32.3000     0.0165591
      32.4000     0.0160026
      32.5000     0.0154568
      32.6000     0.0149468
      32.7000     0.0144444
      32.8000     0.0139599
      32.9000     0.0134921
      33.0000     0.0130302
      33.1000     0.0126057
      33.2000     0.0121921
      33.3000     0.0117886
      33.4000     0.0114032
      33.5000     0.0110227
      33.6000     0.0106571
      33.7000     0.0103036
      33.8000    0.00995442
      33.9000    0.00962420
      34.0000    0.00930004
      34.1000    0.00898367
      34.2000    0.00868270
      34.3000    0.00838538
      34.4000    0.00809818
      34.5000    0.00782280
      34.6000    0.00755080
      34.7000    0.00728909
      34.8000    0.00703384
      34.9000    0.00678175
      35.0000    0.00654499
      35.1000    0.00631245
      35.2000    0.00608454
      35.3000    0.00587367
      35.4000    0.00566545
      35.5000    0.00546309
      35.6000    0.00527125
      35.7000    0.00508183
      35.8000    0.00489947
      35.9000    0.00472522
      36.0000    0.00455318
      36.1000    0.00438897
      36.2000    0.00423094
      36.3000    0.00407494
      36.4000    0.00392715
      36.5000    0.00378404
      36.6000    0.00364279
      36.7000    0.00350984
      36.8000    0.00338047
      36.9000    0.00325280
      37.0000    0.00313326
      37.1000    0.00301651
      37.2000    0.00290130
      37.3000    0.00279388
      37.4000    0.00268872
      37.5000    0.00258496
      37.6000    0.00248843
      37.7000    0.00239384
      37.8000    0.00230052
      37.9000    0.00221380
      38.0000    0.00212890
      38.1000    0.00204514
      38.2000    0.00196723
      38.3000    0.00189114
      38.4000    0.00181608
      38.5000    0.00174609
      38.6000    0.00167801
      38.7000    0.00161087
      38.8000    0.00154797
      38.9000    0.00148719
      39.0000    0.00142724
      39.1000    0.00137073
      39.2000    0.00131655
      39.3000    0.00126314
      39.4000    0.00121234
      39.5000    0.00116414
      39.6000    0.00111663
      39.7000    0.00107096
      39.8000    0.00102819
      39.9000   0.000986022
      40.0000   0.000944960
      40.1000   0.000907095
      40.2000   0.000869768
      40.3000   0.000832979
      40.4000   0.000799361
      40.5000   0.000766354
      40.6000   0.000733820
      40.7000   0.000703565
      40.8000   0.000674429
      40.9000   0.000645717
      41.0000   0.000618469
      41.1000   0.000592797
      41.2000   0.000567504
      41.3000   0.000542965
      41.4000   0.000520424
      41.5000   0.000498213
      41.6000   0.000476331
      41.7000   0.000456329
      41.8000   0.000436841
      41.9000   0.000417644
      42.0000   0.000399606
      42.1000   0.000382561
      42.2000   0.000365770
      42.3000   0.000349482
      42.4000   0.000334594
      42.5000   0.000319927
      42.6000   0.000305483
      42.7000   0.000292239
      42.8000   0.000279455
      42.9000   0.000266864
      43.0000   0.000254879
      43.1000   0.000243763
      43.2000   0.000232818
      43.3000   0.000222040
      43.4000    0.00196900
      43.5000    0.00527651
      43.6000     0.0119819
      43.7000     0.0211859
      43.8000     0.0276968
      43.9000     0.0287884
      44.0000     0.0278254
      44.1000     0.0249925
      44.2000     0.0242762
      44.3000     0.0237421
      44.4000     0.0232222
      44.5000     0.0227206
      44.6000     0.0222206
      44.7000     0.0217223
      44.8000     0.0212504
      44.9000     0.0207836
      45.0000     0.0203184
      45.1000     0.0198624
      45.2000     0.0194266
      45.3000     0.0189923
      45.4000     0.0185594
      45.5000     0.0181449
      45.6000     0.0177398
      45.7000     0.0173361
      45.8000     0.0169346
      45.9000     0.0165573
      46.0000     0.0161814
      46.1000     0.0158067
      46.2000     0.0154544
      46.3000     0.0151397
      46.4000     0.0148261
      46.5000     0.0145136
      46.6000     0.0142182
      46.7000     0.0139319
      46.8000     0.0136465
      46.9000     0.0133621
      47.0000     0.0130999
      47.1000     0.0128400
      47.2000     0.0125811
      47.3000     0.0123257
      47.4000     0.0120840
      47.5000     0.0118431
      47.6000     0.0116030
      47.7000     0.0113694
      47.8000     0.0111457
      47.9000     0.0109227
      48.0000     0.0107005
      48.1000     0.0104862
      48.2000     0.0102782
      48.3000     0.0100709
      48.4000    0.00986427
      48.5000    0.00966791
      48.6000    0.00947601
      48.7000    0.00928476
      48.8000    0.00909414
      48.9000    0.00891356
      49.0000    0.00873545
      49.1000    0.00855795
      49.2000    0.00838106
      49.3000    0.00821421
      49.4000    0.00804872
      49.5000    0.00788380
      49.6000    0.00771944
      49.7000    0.00756503
      49.8000    0.00741137
      49.9000    0.00725824
      50.0000    0.00710574
      50.1000    0.00696027
      50.2000    0.00681964
      50.3000    0.00668146
      50.4000    0.00654591
      50.5000    0.00641294
      50.6000    0.00628246
      50.7000    0.00615437
      50.8000    0.00602856
      50.9000    0.00590541
      51.0000    0.00578475
      51.1000    0.00566651
      51.2000    0.00555038
      51.3000    0.00543654
      51.4000    0.00532517
      51.5000    0.00521563
      51.6000    0.00510809
      51.7000    0.00500247
      51.8000    0.00489788
      51.9000    0.00479524
      52.0000    0.00469447
      52.1000    0.00459577
      52.2000    0.00449884
      52.3000    0.00440360
      52.4000    0.00431057
      52.5000    0.00421929
      52.6000    0.00412838
      52.7000    0.00403789
      52.8000    0.00394904
      52.9000    0.00386216
      53.0000    0.00377717
      53.1000    0.00369376
      53.2000    0.00361214
      53.3000    0.00353207
      53.4000    0.00345359
      53.5000    0.00337685
      53.6000    0.00330158
      53.7000    0.00322776
      53.8000    0.00315554
      53.9000    0.00308474
      54.0000    0.00301546
      54.1000    0.00294783
      54.2000    0.00288149
      54.3000    0.00281638
      54.4000    0.00275267
      54.5000    0.00269024
      54.6000    0.00262912
      54.7000    0.00256945
      54.8000    0.00251100
      54.9000    0.00245368
      55.0000    0.00239761
      55.1000    0.00234266
      55.2000    0.00228686
      55.3000    0.00223053
      55.4000    0.00217539
      55.5000    0.00212139
      55.6000    0.00206870
      55.7000    0.00201723
      55.8000    0.00196687
      55.9000    0.00191771
      56.0000    0.00186997
      56.1000    0.00182259
      56.2000    0.00177566
      56.3000    0.00172995
      56.4000    0.00168526
      56.5000    0.00164158
      56.6000    0.00159896
      56.7000    0.00155741
      56.8000    0.00151680
      56.9000    0.00147719
      57.0000    0.00143915
      57.1000    0.00140239
      57.2000    0.00136645
      57.3000    0.00133130
      57.4000    0.00129703
      57.5000    0.00126359
      57.6000    0.00123093
      57.7000    0.00119899
      57.8000    0.00116788
      57.9000    0.00113754
      58.0000    0.00110792
      58.1000    0.00107896
      58.2000    0.00105077
      58.3000    0.00102324
      58.4000   0.000996343
      58.5000   0.000970083
      58.6000   0.000944524
      58.7000   0.000919604
      58.8000   0.000895262
      58.9000   0.000871490
      59.0000   0.000848296
      59.1000   0.000825702
      59.2000   0.000803654
      59.3000   0.000782154
      59.4000   0.000761187
      59.5000   0.000740772
      59.6000   0.000720876
      59.7000   0.000701447
      59.8000   0.000682473
      59.9000   0.000663964
      60.0000   0.000645979
      60.1000   0.000628443
      60.2000   0.000611340
      60.3000   0.000594664
      60.4000   0.000578402
      60.5000   0.000562579
      60.6000   0.000547142
      60.7000   0.000532092
      60.8000   0.000517425
      60.9000   0.000503115
      61.0000   0.000489182
      61.1000   0.000475616
      61.2000   0.000462398
      61.3000   0.000449523
      61.4000   0.000436981
      61.5000   0.000424764
      61.6000   0.000412873
      61.7000   0.000401316
      61.8000   0.000390204
      61.9000   0.000379428
      62.0000   0.000368925
      62.1000   0.000358696
      62.2000   0.000348759
      62.3000   0.000339076
      62.4000   0.000329633
      62.5000   0.000320427
      62.6000   0.000311455
      62.7000   0.000302734
      62.8000   0.000294486
      62.9000   0.000286459
      63.0000   0.000278643
      63.1000   0.000271024
      63.2000   0.000263590
      63.3000   0.000256337
      63.4000   0.000249270
      63.5000   0.000242401
      63.6000   0.000235712
      63.7000   0.000229195
      63.8000   0.000222847
      63.9000   0.000216661
      64.0000   0.000210631
      64.1000   0.000204758
      64.2000   0.000199047
      64.3000   0.000193494
      64.4000   0.000188085
      64.5000   0.000182813
      64.6000   0.000177676
      64.7000   0.000172670
      64.8000   0.000167794
      64.9000   0.000163045
      65.0000   0.000158426
      65.1000   0.000153941
      65.2000   0.000149578
      65.3000   0.000145328
      65.4000   0.000141189
      65.5000   0.000137157
      65.6000   0.000133230
      65.7000   0.000129408
      65.8000   0.000125690
      65.9000   0.000122077
      66.0000   0.000118567
      66.1000   0.000115158
      66.2000   0.000111840
      66.3000   0.000108610
      66.4000   0.000105464
      66.5000   0.000102401
      66.6000   9.94203e-05
      66.7000   9.65237e-05
      66.8000   9.37104e-05
      66.9000   9.09946e-05
      67.0000   8.83705e-05
      67.1000   8.58179e-05
      67.2000   8.33339e-05
      67.3000   8.09204e-05
      67.4000   7.85724e-05
      67.5000   7.62889e-05
      67.6000   7.40688e-05
      67.7000   7.19105e-05
      67.8000   6.98094e-05
      67.9000   6.77611e-05
      68.0000   6.57746e-05
      68.1000   6.38515e-05
      68.2000   6.19811e-05
      68.3000   6.01631e-05
      68.4000   5.83959e-05
      68.5000   5.66785e-05
      68.6000   5.50093e-05
      68.7000   5.33871e-05
      68.8000   5.18099e-05
      68.9000   5.02902e-05
      69.0000   4.88895e-05
      69.1000   4.76758e-05
      69.2000   4.65753e-05
      69.3000   4.55080e-05
      69.4000   4.44818e-05
      69.5000   4.34590e-05
      69.6000   4.24325e-05
      69.7000   4.14458e-05
      69.8000   4.05014e-05
      69.9000   3.95775e-05
      70.0000   3.86726e-05
      70.1000   3.77770e-05
      70.2000   3.69485e-05
      70.3000   3.61849e-05
      70.4000   3.54350e-05
      70.5000   3.47064e-05
      70.6000   3.39974e-05
      70.7000   3.33023e-05
      70.8000   3.26199e-05
      70.9000   3.19358e-05
      71.0000   3.12521e-05
      71.1000   3.05978e-05
      71.2000   2.99715e-05
      71.3000   2.93297e-05
      71.4000   2.86671e-05
      71.5000   2.80466e-05
      71.6000   2.74829e-05
      71.7000   2.69237e-05
      71.8000   2.63599e-05
      71.9000   2.58156e-05
      72.0000   2.53038e-05
      72.1000   2.47917e-05
      72.2000   2.42397e-05
      72.3000   2.37008e-05
      72.4000   2.32117e-05
      72.5000   2.27330e-05
      72.6000   2.22640e-05
      72.7000   2.18046e-05
      72.8000   2.13543e-05
      72.9000   2.09132e-05
      73.0000   2.04876e-05
      73.1000   2.00737e-05
      73.2000   1.96684e-05
      73.3000   1.92713e-05
      73.4000   1.88844e-05
      73.5000   1.85091e-05
      73.6000   1.81411e-05
      73.7000   1.77802e-05
      73.8000   1.74263e-05
      73.9000   1.70790e-05
      74.0000   1.67399e-05
      74.1000   1.64240e-05
      74.2000   1.61191e-05
      74.3000   1.58037e-05
      74.4000   1.54822e-05
      74.5000   1.51701e-05
      74.6000   1.48709e-05
      74.7000   1.45774e-05
      74.8000   1.42904e-05
      74.9000   1.40107e-05
      75.0000   1.37354e-05
      75.1000   1.34651e-05
      75.2000   1.31998e-05
      75.3000   1.29395e-05
      75.4000   1.26856e-05
      75.5000   1.24396e-05
      75.6000   1.21981e-05
      75.7000   1.19613e-05
      75.8000   1.17292e-05
      75.9000   1.15035e-05
      76.0000   1.12837e-05
      76.1000   1.10765e-05
      76.2000   1.08742e-05
      76.3000   1.06758e-05
      76.4000   1.04830e-05
      76.5000   1.02937e-05
      76.6000   1.01075e-05
      76.7000   9.92447e-06
      76.8000   9.74458e-06
      76.9000   9.56792e-06
      77.0000   9.39448e-06
      77.1000   9.22428e-06
      77.2000   9.05721e-06
      77.3000   8.89315e-06
      77.4000   8.73201e-06
      77.5000   8.57354e-06
      77.6000   8.41598e-06
      77.7000   8.26121e-06
      77.8000   8.10905e-06
      77.9000   7.95941e-06
      78.0000   7.81116e-06
      78.1000   7.66215e-06
      78.2000   7.51609e-06
      78.3000   7.38009e-06
      78.4000   7.24922e-06
      78.5000   7.11998e-06
      78.6000   6.99086e-06
      78.7000   6.86402e-06
      78.8000   6.73666e-06
      78.9000   6.61087e-06
      79.0000   6.48722e-06
      79.1000   6.36567e-06
      79.2000   6.24644e-06
      79.3000   6.13148e-06
      79.4000   6.01944e-06
      79.5000   5.90887e-06
      79.6000   5.79826e-06
      79.7000   5.68962e-06
      79.8000   5.58185e-06
      79.9000   5.47547e-06
      80.0000   5.37080e-06
      80.1000   5.26559e-06
      80.2000   5.16215e-06
      80.3000   5.05810e-06
      80.4000   4.95371e-06
      80.5000   4.85130e-06
      80.6000   4.75100e-06
      80.7000   4.65275e-06
      80.8000   4.55683e-06
      80.9000   4.46370e-06
      81.0000   4.37242e-06
      81.1000   4.28300e-06
      81.2000   4.19537e-06
      81.3000   4.10952e-06
      81.4000   4.02944e-06
      81.5000   3.95112e-06
      81.6000   3.87543e-06
      81.7000   3.80356e-06
      81.8000   3.73315e-06
      81.9000   3.66567e-06
      82.0000   3.60023e-06
      82.1000   3.53607e-06
      82.2000   3.47179e-06
      82.3000   3.40878e-06
      82.4000   3.34886e-06
      82.5000   3.29396e-06
      82.6000   3.23982e-06
      82.7000   3.18559e-06
      82.8000   3.13106e-06
      82.9000   3.07733e-06
      83.0000   3.02482e-06
      83.1000   2.97334e-06
      83.2000   2.92274e-06
      83.3000   2.87302e-06
      83.4000   2.82425e-06
      83.5000   2.77647e-06
      83.6000   2.73023e-06
      83.7000   2.68471e-06
      83.8000   2.63969e-06
      83.9000   2.59488e-06
      84.0000   2.55074e-06
      84.1000   2.50770e-06
      84.2000   2.46604e-06
      84.3000   2.42504e-06
      84.4000   2.38441e-06
      84.5000   2.34425e-06
      84.6000   2.30477e-06
      84.7000   2.26641e-06
      84.8000   2.22895e-06
      84.9000   2.19215e-06
      85.0000   2.15531e-06
      85.1000   2.11885e-06
      85.2000   2.08298e-06
      85.3000   2.04858e-06
      85.4000   2.01487e-06
      85.5000   1.98176e-06
      85.6000   1.94876e-06
      85.7000   1.91628e-06
      85.8000   1.88434e-06
      85.9000   1.85290e-06
      86.0000   1.82196e-06
      86.1000   1.79153e-06
      86.2000   1.76217e-06
      86.3000   1.73326e-06
      86.4000   1.70479e-06
      86.5000   1.67674e-06
      86.6000   1.64912e-06
      86.7000   1.62194e-06
      86.8000   1.59398e-06
      86.9000   1.56645e-06
      87.0000   1.53940e-06
      87.1000   1.51307e-06
      87.2000   1.48721e-06
      87.3000   1.46182e-06
      87.4000   1.43645e-06
      87.5000   1.41143e-06
      87.6000   1.38679e-06
      87.7000   1.36279e-06
      87.8000   1.33924e-06
      87.9000   1.31607e-06
      88.0000   1.29330e-06
      88.1000   1.27087e-06
      88.2000   1.24882e-06
      88.3000   1.22742e-06
      88.4000   1.20665e-06
      88.5000   1.18629e-06
      88.6000   1.16617e-06
      88.7000   1.14624e-06
      88.8000   1.12666e-06
      88.9000   1.10740e-06
      89.0000   1.08843e-06
      89.1000   1.06980e-06
      89.2000   1.05152e-06
      89.3000   1.03368e-06
      89.4000   1.01631e-06
      89.5000   9.99226e-07
      89.6000   9.82421e-07
      89.7000   9.65862e-07
      89.8000   9.49549e-07
      89.9000   9.33481e-07
      90.0000   9.17686e-07
      90.1000   9.02190e-07
      90.2000   8.86736e-07
      90.3000   8.71059e-07
      90.4000   8.55645e-07
      90.5000   8.40519e-07
      90.6000   8.25839e-07
      90.7000   8.11359e-07
      90.8000   7.97015e-07
      90.9000   7.82710e-07
      91.0000   7.68595e-07
      91.1000   7.54732e-07
      91.2000   7.40980e-07
      91.3000   7.27275e-07
      91.4000   7.13789e-07
      91.5000   7.00571e-07
      91.6000   6.87605e-07
      91.7000   6.75583e-07
      91.8000   6.64866e-07
      91.9000   6.55618e-07
      92.0000   6.45716e-07
      92.1000   6.35785e-07
      92.2000   6.25550e-07
      92.3000   6.15065e-07
      92.4000   6.04527e-07
      92.5000   5.94183e-07
      92.6000   5.84004e-07
      92.7000   5.73991e-07
      92.8000   5.64143e-07
      92.9000   5.54552e-07
      93.0000   5.45297e-07
      93.1000   5.36182e-07
      93.2000   5.27215e-07
      93.3000   5.18605e-07
      93.4000   5.10218e-07
      93.5000   5.01954e-07
      93.6000   4.93804e-07
      93.7000   4.85761e-07
      93.8000   4.77845e-07
      93.9000   4.70049e-07
      94.0000   4.62362e-07
      94.1000   4.54787e-07
      94.2000   4.47341e-07
      94.3000   4.40058e-07
      94.4000   4.33011e-07
      94.5000   4.26082e-07
      94.6000   4.19266e-07
      94.7000   4.12575e-07
      94.8000   4.05982e-07
      94.9000   3.99485e-07
      95.0000   3.93088e-07
      95.1000   3.86814e-07
      95.2000   3.80625e-07
      95.3000   3.74522e-07
      95.4000   3.68522e-07
      95.5000   3.62690e-07
      95.6000   3.56939e-07
      95.7000   3.51269e-07
      95.8000   3.45633e-07
      95.9000   3.40073e-07
      96.0000   3.34589e-07
      96.1000   3.29177e-07
      96.2000   3.23839e-07
      96.3000   3.18604e-07
      96.4000   3.13450e-07
      96.5000   3.08375e-07
      96.6000   3.03391e-07
      96.7000   2.98510e-07
      96.8000   2.93697e-07
      96.9000   2.88952e-07
      97.0000   2.84278e-07
      97.1000   2.79701e-07
      97.2000   2.75186e-07
      97.3000   2.70694e-07
      97.4000   2.66235e-07
      97.5000   2.61861e-07
      97.6000   2.57550e-07
      97.7000   2.53318e-07
      97.8000   2.49163e-07
      97.9000   2.45085e-07
      98.0000   2.41066e-07
      98.1000   2.37104e-07
      98.2000   2.33213e-07
      98.3000   2.29734e-07
      98.4000   2.26472e-07
      98.5000   2.23367e-07
      98.6000   2.20310e-07
      98.7000   2.17293e-07
      98.8000   2.14309e-07
      98.9000   2.11360e-07
      99.0000   2.08460e-07
      99.1000   2.05595e-07
      99.2000   2.02751e-07
      99.3000   1.99882e-07
      99.4000   1.97059e-07
      99.5000   1.94272e-07
      99.6000   1.91536e-07
      99.7000   1.88930e-07
      99.8000   1.86437e-07
      99.9000   1.84663e-07
      100.000   1.83973e-07
      100.100   1.83221e-07
      100.200   1.82470e-07
      100.300   1.81720e-07
      100.400   1.80969e-07
      100.500   1.80244e-07
      100.600   1.79514e-07
      100.700   1.78784e-07
      100.800   1.78052e-07
      100.900   1.77318e-07
      101.000   1.76585e-07
      101.100   1.75853e-07
      101.200   1.75124e-07
      101.300   1.74397e-07
      101.400   1.73674e-07
      101.500   1.72892e-07
      101.600   1.72038e-07
      101.700   1.71203e-07
      101.800   1.70377e-07
      101.900   1.69552e-07
      102.000   1.68732e-07
      102.100   1.67941e-07
      102.200   1.67164e-07
      102.300   1.66388e-07
      102.400   1.65615e-07
      102.500   1.64843e-07
      102.600   1.64070e-07
      102.700   1.63298e-07
      102.800   1.62526e-07
      102.900   1.61754e-07
      103.000   1.60982e-07
      103.100   1.60210e-07
      103.200   1.59440e-07
      103.300   1.58671e-07
      103.400   1.57903e-07
      103.500   1.57137e-07
      103.600   1.56372e-07
      103.700   1.55607e-07
      103.800   1.54808e-07
      103.900   1.53967e-07
      104.000   1.53128e-07
      104.100   1.52294e-07
      104.200   1.51483e-07
      104.300   1.50787e-07
      104.400   1.50096e-07
      104.500   1.49409e-07
      104.600   1.48721e-07
      104.700   1.47999e-07
      104.800   1.47263e-07
      104.900   1.46525e-07
      105.000   1.45788e-07
      105.100   1.45075e-07
      105.200   1.44423e-07
      105.300   1.43773e-07
      105.400   1.43123e-07
      105.500   1.42474e-07
      105.600   1.41842e-07
      105.700   1.41215e-07
      105.800   1.40589e-07
      105.900   1.39967e-07
      106.000   1.39369e-07
      106.100   1.38815e-07
      106.200   1.38265e-07
      106.300   1.37717e-07
      106.400   1.37168e-07
      106.500   1.36619e-07
      106.600   1.36070e-07
      106.700   1.35519e-07
      106.800   1.34968e-07
      106.900   1.34416e-07
      107.000   1.33863e-07
      107.100   1.33309e-07
      107.200   1.32756e-07
      107.300   1.32204e-07
      107.400   1.31650e-07
      107.500   1.31096e-07
      107.600   1.30545e-07
      107.700   1.29997e-07
      107.800   1.29453e-07
      107.900   1.28902e-07
      108.000   1.28354e-07
      108.100   1.27807e-07
      108.200   1.27260e-07
      108.300   1.26712e-07
      108.400   1.26152e-07
      108.500   1.25592e-07
      108.600   1.25030e-07
      108.700   1.24466e-07
      108.800   1.23871e-07
      108.900   1.23231e-07
      109.000   1.22591e-07
      109.100   1.21950e-07
      109.200   1.21311e-07
      109.300   1.20674e-07
      109.400   1.20038e-07
      109.500   1.19405e-07
      109.600   1.18775e-07
      109.700   1.18148e-07
      109.800   1.17525e-07
      109.900   1.16905e-07
      110.000   1.16289e-07
      110.100   1.15676e-07
      110.200   1.15066e-07
      110.300   1.14477e-07
      110.400   1.13891e-07
      110.500   1.13307e-07
      110.600   1.12724e-07
      110.700   1.12141e-07
      110.800   1.11558e-07
      110.900   1.10977e-07
      111.000   1.10395e-07
      111.100   1.09814e-07
      111.200   1.09236e-07
      111.300   1.08696e-07
      111.400   1.08157e-07
      111.500   1.07618e-07
      111.600   1.07079e-07
      111.700   1.06543e-07
      111.800   1.06030e-07
      111.900   1.05519e-07
      112.000   1.05010e-07
      112.100   1.04501e-07
      112.200   1.03994e-07
      112.300   1.03465e-07
      112.400   1.02939e-07
      112.500   1.02415e-07
      112.600   1.01894e-07
      112.700   1.01380e-07
      112.800   1.00891e-07
      112.900   1.00349e-07
      113.000   9.98283e-08
      113.100   9.93175e-08
      113.200   9.87972e-08
      113.300   9.82900e-08
      113.400   9.76587e-08
      113.500   9.69979e-08
      113.600   9.64464e-08
      113.700   9.58626e-08
      113.800   9.52067e-08
      113.900   9.46575e-08
      114.000   9.41085e-08
      114.100   9.34851e-08
      114.200   9.29008e-08
      114.300   9.23782e-08
      114.400   9.18412e-08
      114.500   9.12900e-08
      114.600   9.08186e-08
      114.700   9.02911e-08
      114.800   8.98057e-08
      114.900   8.94137e-08
      115.000   8.89582e-08
      115.100   8.84663e-08
      115.200   8.79724e-08
      115.300   8.75624e-08
      115.400   8.70757e-08
      115.500   8.66285e-08
      115.600   8.61495e-08
      115.700   8.56223e-08
      115.800   8.51612e-08
      115.900   8.46658e-08
      116.000   8.42274e-08
      116.100   8.38757e-08
      116.200   8.35164e-08
      116.300   8.31409e-08
      116.400   8.27372e-08
      116.500   8.23955e-08
      116.600   8.20345e-08
      116.700   8.16894e-08
      116.800   8.13267e-08
      116.900   8.08899e-08
      117.000   8.05391e-08
      117.100   8.04315e-08
      117.200   8.04947e-08
      117.300   8.03911e-08
      117.400   8.02768e-08
      117.500   8.01651e-08
      117.600   7.99559e-08
      117.700   7.97085e-08
      117.800   7.94103e-08
      117.900   7.90864e-08
      118.000   7.87138e-08
      118.100   7.82947e-08
      118.200   7.79129e-08
      118.300   7.75470e-08
      118.400   7.69979e-08
      118.500   7.64648e-08
      118.600   7.60169e-08
      118.700   7.55402e-08
      118.800   7.50242e-08
      118.900   7.45377e-08
      119.000   7.39545e-08
      119.100   7.32676e-08
      119.200   7.26999e-08
      119.300   7.22310e-08
      119.400   7.18090e-08
      119.500   7.14086e-08
      119.600   7.09451e-08
      119.700   7.04082e-08
      119.800   6.97248e-08
      119.900   6.88477e-08
      120.000   6.80375e-08
      120.100   6.72813e-08
      120.200   6.67705e-08
      120.300   6.64005e-08
      120.400   6.60294e-08
      120.500   6.54631e-08
      120.600   6.47497e-08
      120.700   6.39913e-08
      120.800   6.32674e-08
      120.900   6.28015e-08
      121.000   6.27346e-08
      121.100   6.26021e-08
      121.200   6.22766e-08
      121.300   6.18101e-08
      121.400   6.12369e-08
      121.500   6.05840e-08
      121.600   5.96181e-08
      121.700   5.87821e-08
      121.800   5.78384e-08
      121.900   5.68847e-08
      122.000   5.58604e-08
      122.100   5.48976e-08
      122.200   5.39498e-08
      122.300   5.32712e-08
      122.400   5.28821e-08
      122.500   5.25551e-08
      122.600   5.21925e-08
      122.700   5.18284e-08
      122.800   5.14006e-08
      122.900   5.10117e-08
      123.000   5.09573e-08
      123.100   5.14815e-08
      123.200   5.20441e-08
      123.300   5.29037e-08
      123.400   5.40089e-08
      123.500   5.54653e-08
      123.600   5.67194e-08
      123.700   5.73781e-08
      123.800   5.78669e-08
      123.900   5.85249e-08
      124.000   5.94575e-08
      124.100   6.12857e-08
      124.200   6.50237e-08
      124.300   7.06217e-08
      124.400   7.60213e-08
      124.500   7.75944e-08
      124.600   7.73947e-08
      124.700   7.69910e-08
      124.800   7.66086e-08
      124.900   7.62256e-08
      125.000   7.58415e-08
      125.100   7.54555e-08
      125.200   7.50700e-08
      125.300   7.46854e-08
      125.400   7.43024e-08
      125.500   7.39210e-08
      125.600   7.35408e-08
      125.700   7.31627e-08
      125.800   7.27857e-08
      125.900   7.24109e-08
      126.000   7.20378e-08
      126.100   7.16665e-08
      126.200   7.12968e-08
      126.300   7.09285e-08
      126.400   7.05614e-08
      126.500   7.01953e-08
      126.600   6.98304e-08
      126.700   6.94663e-08
      126.800   6.91030e-08
      126.900   6.87400e-08
      127.000   6.83761e-08
      127.100   6.80094e-08
      127.200   6.76425e-08
      127.300   6.72750e-08
      127.400   6.69081e-08
      127.500   6.65418e-08
      127.600   6.61765e-08
      127.700   6.58121e-08
      127.800   6.54486e-08
      127.900   6.50863e-08
      128.000   6.47256e-08
      128.100   6.43660e-08
      128.200   6.40080e-08
      128.300   6.36515e-08
      128.400   6.32966e-08
      128.500   6.29430e-08
      128.600   6.25904e-08
      128.700   6.22396e-08
      128.800   6.18900e-08
      128.900   6.15414e-08
      129.000   6.11943e-08
      129.100   6.08471e-08
      129.200   6.04970e-08
      129.300   6.01481e-08
      129.400   5.98004e-08
      129.500   5.94539e-08
      129.600   5.91087e-08
      129.700   5.87645e-08
      129.800   5.84215e-08
      129.900   5.80798e-08
      130.000   5.77395e-08
      130.100   5.74006e-08
      130.200   5.70629e-08
      130.300   5.67267e-08
      130.400   5.63921e-08
      130.500   5.60586e-08
      130.600   5.57266e-08
      130.700   5.53962e-08
      130.800   5.50675e-08
      130.900   5.47403e-08
      131.000   5.44144e-08
      131.100   5.40901e-08
      131.200   5.37669e-08
      131.300   5.34440e-08
      131.400   5.31226e-08
      131.500   5.28025e-08
      131.600   5.24836e-08
      131.700   5.21660e-08
      131.800   5.18494e-08
      131.900   5.15340e-08
      132.000   5.12196e-08
      132.100   5.09061e-08
      132.200   5.05938e-08
      132.300   5.02825e-08
      132.400   4.99723e-08
      132.500   4.96632e-08
      132.600   4.93553e-08
      132.700   4.90485e-08
      132.800   4.87430e-08
      132.900   4.84390e-08
      133.000   4.81362e-08
      133.100   4.78348e-08
      133.200   4.75349e-08
      133.300   4.72360e-08
      133.400   4.69382e-08
      133.500   4.66417e-08
      133.600   4.63464e-08
      133.700   4.60527e-08
      133.800   4.57604e-08
      133.900   4.54694e-08
      134.000   4.51799e-08
      134.100   4.48917e-08
      134.200   4.46048e-08
      134.300   4.43192e-08
      134.400   4.40352e-08
      134.500   4.37525e-08
      134.600   4.34712e-08
      134.700   4.31912e-08
      134.800   4.29128e-08
      134.900   4.26356e-08
      135.000   4.23599e-08
      135.100   4.20855e-08
      135.200   4.18126e-08
      135.300   4.15412e-08
      135.400   4.12711e-08
      135.500   4.10020e-08
      135.600   4.07338e-08
      135.700   4.04669e-08
      135.800   4.02013e-08
      135.900   3.99371e-08
      136.000   3.96743e-08
      136.100   3.94127e-08
      136.200   3.91526e-08
      136.300   3.88935e-08
      136.400   3.86358e-08
      136.500   3.83793e-08
      136.600   3.81239e-08
      136.700   3.78696e-08
      136.800   3.76166e-08
      136.900   3.73647e-08
      137.000   3.71138e-08
      137.100   3.68639e-08
      137.200   3.66150e-08
      137.300   3.63673e-08
      137.400   3.61207e-08
      137.500   3.58753e-08
      137.600   3.56375e-08
      137.700   3.54169e-08
      137.800   3.52097e-08
      137.900   3.50032e-08
      138.000   3.47976e-08
      138.100   3.45930e-08
      138.200   3.43896e-08
      138.300   3.41870e-08
      138.400   3.39856e-08
      138.500   3.37852e-08
      138.600   3.35859e-08
      138.700   3.33876e-08
      138.800   3.31904e-08
      138.900   3.29942e-08
      139.000   3.27991e-08
      139.100   3.26049e-08
      139.200   3.24116e-08
      139.300   3.22193e-08
      139.400   3.20278e-08
      139.500   3.18371e-08
      139.600   3.16472e-08
      139.700   3.14580e-08
      139.800   3.12696e-08
      139.900   3.10818e-08
      140.000   3.08945e-08
      140.100   3.07078e-08
      140.200   3.05217e-08
      140.300   3.03365e-08
      140.400   3.01519e-08
      140.500   2.99680e-08
      140.600   2.97848e-08
      140.700   2.96023e-08
      140.800   2.94207e-08
      140.900   2.92397e-08
      141.000   2.90593e-08
      141.100   2.88799e-08
      141.200   2.87013e-08
      141.300   2.85235e-08
      141.400   2.83465e-08
      141.500   2.81704e-08
      141.600   2.79951e-08
      141.700   2.78206e-08
      141.800   2.76470e-08
      141.900   2.74744e-08
      142.000   2.73026e-08
      142.100   2.71528e-08
      142.200   2.70643e-08
      142.300   2.70282e-08
      142.400   2.69916e-08
      142.500   2.69543e-08
      142.600   2.69165e-08
      142.700   2.68783e-08
      142.800   2.68395e-08
      142.900   2.68001e-08
      143.000   2.67602e-08
      143.100   2.67195e-08
      143.200   2.66784e-08
      143.300   2.66366e-08
      143.400   2.65943e-08
      143.500   2.65516e-08
      143.600   2.65084e-08
      143.700   2.64647e-08
      143.800   2.64206e-08
      143.900   2.63761e-08
      144.000   2.63311e-08
      144.100   2.62858e-08
      144.200   2.62401e-08
      144.300   2.61942e-08
      144.400   2.61537e-08
      144.500   2.61888e-08
      144.600   2.62478e-08
      144.700   2.63088e-08
      144.800   2.63692e-08
      144.900   2.64289e-08
      145.000   2.64880e-08
      145.100   2.65464e-08
      145.200   2.66041e-08
      145.300   2.66610e-08
      145.400   2.67171e-08
      145.500   2.67725e-08
      145.600   2.68269e-08
      145.700   2.68803e-08
      145.800   2.69330e-08
      145.900   2.69847e-08
      146.000   2.70354e-08
      146.100   2.70852e-08
      146.200   2.71340e-08
      146.300   2.71819e-08
      146.400   2.72286e-08
      146.500   2.72742e-08
      146.600   2.73189e-08
      146.700   2.73626e-08
      146.800   2.74037e-08
      146.900   2.74414e-08
      147.000   2.74781e-08
      147.100   2.75137e-08
      147.200   2.75486e-08
      147.300   2.75826e-08
      147.400   2.76158e-08
      147.500   2.76483e-08
      147.600   2.76800e-08
      147.700   2.77110e-08
      147.800   2.77412e-08
      147.900   2.77707e-08
      148.000   2.77995e-08
      148.100   2.78277e-08
      148.200   2.78554e-08
      148.300   2.78825e-08
      148.400   2.79088e-08
      148.500   2.79346e-08
      148.600   2.79596e-08
      148.700   2.79840e-08
      148.800   2.80075e-08
      148.900   2.80305e-08
      149.000   2.80526e-08
      149.100   2.80740e-08
      149.200   2.80944e-08
      149.300   2.81139e-08
      149.400   2.81326e-08
      149.500   2.81504e-08
      149.600   2.81672e-08
      149.700   2.81829e-08
      149.800   2.81979e-08
      149.900   2.82120e-08
      150.000   2.82252e-08
      150.100   2.82375e-08
      150.200   2.82486e-08
      150.300   2.82588e-08
      150.400   2.82682e-08
      150.500   2.82766e-08
      150.600   2.82841e-08
      150.700   2.82908e-08
      150.800   2.82964e-08
      150.900   2.83011e-08
      151.000   2.83047e-08
      151.100   2.83077e-08
      151.200   2.83097e-08
      151.300   2.83108e-08
      151.400   2.83112e-08
      151.500   2.83105e-08
      151.600   2.83098e-08
      151.700   2.83090e-08
      151.800   2.83074e-08
      151.900   2.83049e-08
      152.000   2.83015e-08
      152.100   2.82974e-08
      152.200   2.82926e-08
      152.300   2.82867e-08
      152.400   2.82800e-08
      152.500   2.82727e-08
      152.600   2.82646e-08
      152.700   2.82556e-08
      152.800   2.82458e-08
      152.900   2.82353e-08
      153.000   2.82241e-08
      153.100   2.82121e-08
      153.200   2.81994e-08
      153.300   2.81860e-08
      153.400   2.81719e-08
      153.500   2.81569e-08
      153.600   2.81413e-08
      153.700   2.81252e-08
      153.800   2.81082e-08
      153.900   2.80905e-08
      154.000   2.80648e-08
      154.100   2.80333e-08
      154.200   2.80018e-08
      154.300   2.79696e-08
      154.400   2.79368e-08
      154.500   2.79030e-08
      154.600   2.78686e-08
      154.700   2.78335e-08
      154.800   2.77976e-08
      154.900   2.77608e-08
      155.000   2.77233e-08
      155.100   2.76851e-08
      155.200   2.76459e-08
      155.300   2.76059e-08
      155.400   2.75651e-08
      155.500   2.75235e-08
      155.600   2.74810e-08
      155.700   2.74375e-08
      155.800   2.73934e-08
      155.900   2.73483e-08
      156.000   2.73024e-08
      156.100   2.72556e-08
      156.200   2.72080e-08
      156.300   2.71596e-08
      156.400   2.71104e-08
      156.500   2.70568e-08
      156.600   2.69934e-08
      156.700   2.69287e-08
      156.800   2.68633e-08
      156.900   2.67972e-08
      157.000   2.67308e-08
      157.100   2.66635e-08
      157.200   2.65958e-08
      157.300   2.65276e-08
      157.400   2.64590e-08
      157.500   2.63897e-08
      157.600   2.63199e-08
      157.700   2.62498e-08
      157.800   2.61792e-08
      157.900   2.61079e-08
      158.000   2.60363e-08
      158.100   2.59643e-08
      158.200   2.58917e-08
      158.300   2.58186e-08
      158.400   2.57452e-08
      158.500   2.56713e-08
      158.600   2.55969e-08
      158.700   2.55219e-08
      158.800   2.54466e-08
      158.900   2.53707e-08
      159.000   2.52942e-08
      159.100   2.52171e-08
      159.200   2.51396e-08
      159.300   2.50614e-08
      159.400   2.49828e-08
      159.500   2.49036e-08
      159.600   2.48240e-08
      159.700   2.47438e-08
      159.800   2.46630e-08
      159.900   2.45818e-08
      160.000   2.45000e-08
      160.100   2.44177e-08
      160.200   2.43349e-08
      160.300   2.42516e-08
      160.400   2.41680e-08
      160.500   2.40838e-08
      160.600   2.39993e-08
      160.700   2.39144e-08
      160.800   2.38291e-08
      160.900   2.37435e-08
      161.000   2.36575e-08
      161.100   2.35713e-08
      161.200   2.34848e-08
      161.300   2.33979e-08
      161.400   2.33109e-08
      161.500   2.32238e-08
      161.600   2.31362e-08
      161.700   2.30483e-08
      161.800   2.29602e-08
      161.900   2.28720e-08
      162.000   2.27835e-08
      162.100   2.26949e-08
      162.200   2.26061e-08
      162.300   2.25172e-08
      162.400   2.24280e-08
      162.500   2.23386e-08
      162.600   2.22491e-08
      162.700   2.21594e-08
      162.800   2.20694e-08
      162.900   2.19792e-08
      163.000   2.18887e-08
      163.100   2.17981e-08
      163.200   2.17071e-08
      163.300   2.16158e-08
      163.400   2.15244e-08
      163.500   2.14326e-08
      163.600   2.13405e-08
      163.700   2.12482e-08
      163.800   2.11557e-08
      163.900   2.10629e-08
      164.000   2.09697e-08
      164.100   2.08764e-08
      164.200   2.07828e-08
      164.300   2.06902e-08
      164.400   2.05974e-08
      164.500   2.05045e-08
      164.600   2.04115e-08
      164.700   2.03182e-08
      164.800   2.02247e-08
      164.900   2.01312e-08
      165.000   2.00376e-08
      165.100   1.99440e-08
      165.200   1.98503e-08
      165.300   1.97566e-08
      165.400   1.96629e-08
      165.500   1.95692e-08
      165.600   1.94756e-08
      165.700   1.93821e-08
      165.800   1.92887e-08
      165.900   1.91952e-08
      166.000   1.91020e-08
      166.100   1.90088e-08
      166.200   1.89159e-08
      166.300   1.88230e-08
      166.400   1.87303e-08
      166.500   1.86377e-08
      166.600   1.85453e-08
      166.700   1.84530e-08
      166.800   1.83592e-08
      166.900   1.82583e-08
      167.000   1.81509e-08
      167.100   1.80434e-08
      167.200   1.79362e-08
      167.300   1.78293e-08
      167.400   1.77226e-08
      167.500   1.76161e-08
      167.600   1.75098e-08
      167.700   1.74038e-08
      167.800   1.72980e-08
      167.900   1.71923e-08
      168.000   1.70869e-08
      168.100   1.69816e-08
      168.200   1.68765e-08
      168.300   1.67715e-08
      168.400   1.66668e-08
      168.500   1.65623e-08
      168.600   1.64578e-08
      168.700   1.63536e-08
      168.800   1.62495e-08
      168.900   1.61457e-08
      169.000   1.60421e-08
      169.100   1.59386e-08
      169.200   1.58354e-08
      169.300   1.57324e-08
      169.400   1.56296e-08
      169.500   1.55228e-08
      169.600   1.53973e-08
      169.700   1.52531e-08
      169.800   1.51086e-08
      169.900   1.49647e-08
      170.000   1.48216e-08
      170.100   1.46793e-08
      170.200   1.45377e-08
      170.300   2.62749e-08
      170.400   1.30304e-07
      170.500   4.23518e-07
      170.600   8.84729e-07
      170.700   1.38773e-06
      170.800   1.67468e-06
      170.900   1.71552e-06
      171.000   1.68939e-06
      171.100   1.66346e-06
      171.200   1.63773e-06
      171.300   1.61219e-06
      171.400   1.58685e-06
      171.500   1.56173e-06
      171.600   1.53683e-06
      171.700   1.51217e-06
      171.800   1.48777e-06
      171.900   1.46366e-06
      172.000   1.43987e-06
      172.100   1.41639e-06
      172.200   1.39328e-06
      172.300   1.37050e-06
      172.400   1.34793e-06
      172.500   1.32569e-06
      172.600   1.30383e-06
      172.700   1.28234e-06
      172.800   1.26122e-06
      172.900   1.24045e-06
      173.000   1.22006e-06
      173.100   1.20003e-06
      173.200   1.18035e-06
      173.300   1.16101e-06
      173.400   1.14201e-06
      173.500   1.12334e-06
      173.600   1.10502e-06
      173.700   1.08700e-06
      173.800   1.06930e-06
      173.900   1.05191e-06
      174.000   1.03481e-06
      174.100   1.01800e-06
      174.200   1.00148e-06
      174.300   9.85232e-07
      174.400   9.69257e-07
      174.500   9.53544e-07
      174.600   9.38076e-07
      174.700   9.22866e-07
      174.800   9.07901e-07
      174.900   8.93170e-07
      175.000   8.78661e-07
      175.100   8.64378e-07
      175.200   8.50343e-07
      175.300   8.36516e-07
      175.400   8.22900e-07
      175.500   8.09500e-07
      175.600   7.96305e-07
      175.700   7.83317e-07
      175.800   7.70527e-07
      175.900   7.57936e-07
      176.000   7.45542e-07
      176.100   7.33344e-07
      176.200   7.21334e-07
      176.300   7.09507e-07
      176.400   6.97871e-07
      176.500   6.86412e-07
      176.600   6.75129e-07
      176.700   6.64021e-07
      176.800   6.53086e-07
      176.900   6.42323e-07
      177.000   6.31722e-07
      177.100   6.21282e-07
      177.200   6.11006e-07
      177.300   6.00887e-07
      177.400   5.90917e-07
      177.500   5.81097e-07
      177.600   5.71428e-07
      177.700   5.61905e-07
      177.800   5.52526e-07
      177.900   5.43279e-07
      178.000   5.34203e-07
      178.100   5.25265e-07
      178.200   5.16459e-07
      178.300   5.07785e-07
      178.400   4.99247e-07
      178.500   4.90837e-07
      178.600   4.82553e-07
      178.700   4.74394e-07
      178.800   4.66363e-07
      178.900   4.58457e-07
      179.000   4.50672e-07
      179.100   4.43005e-07
      179.200   4.35461e-07
      179.300   4.28037e-07
      179.400   4.20730e-07
      179.500   4.13543e-07
      179.600   4.06470e-07
      179.700   3.99516e-07
      179.800   3.92672e-07
      179.900   3.85941e-07
      180.000   3.79320e-07
      180.100   3.72810e-07
      180.200   3.66409e-07
      180.300   3.60116e-07
      180.400   3.53926e-07
      180.500   3.47843e-07
      180.600   3.41862e-07
      180.700   3.35982e-07
      180.800   3.30117e-07
      180.900   3.24254e-07
      181.000   3.18468e-07
      181.100   3.12786e-07
      181.200   3.07202e-07
      181.300   3.01716e-07
      181.400   2.96329e-07
      181.500   2.91036e-07
      181.600   2.85837e-07
      181.700   2.80728e-07
      181.800   2.75710e-07
      181.900   2.70781e-07
      182.000   2.65941e-07
      182.100   2.61186e-07
      182.200   2.56517e-07
      182.300   2.51931e-07
      182.400   2.47428e-07
      182.500   2.43004e-07
      182.600   2.38658e-07
      182.700   2.34390e-07
      182.800   2.30199e-07
      182.900   2.26082e-07
      183.000   2.22039e-07
      183.100   2.18070e-07
      183.200   2.14171e-07
      183.300   2.10341e-07
      183.400   2.06579e-07
      183.500   2.02886e-07
      183.600   1.99259e-07
      183.700   1.95562e-07
      183.800   1.91404e-07
      183.900   1.87237e-07
      184.000   1.83159e-07
      184.100   1.79167e-07
      184.200   1.75262e-07
      184.300   1.71438e-07
      184.400   1.67695e-07
      184.500   1.64032e-07
      184.600   1.60445e-07
      184.700   1.56933e-07
      184.800   1.53495e-07
      184.900   1.50128e-07
      185.000   1.46832e-07
      185.100   1.43603e-07
      185.200   1.40442e-07
      185.300   1.37348e-07
      185.400   1.34317e-07
      185.500   1.31349e-07
      185.600   1.28442e-07
      185.700   1.25594e-07
      185.800   1.22808e-07
      185.900   1.20082e-07
      186.000   1.17409e-07
      186.100   1.14793e-07
      186.200   1.12230e-07
      186.300   1.09721e-07
      186.400   1.07263e-07
      186.500   1.04855e-07
      186.600   1.02498e-07
      186.700   1.00189e-07
      186.800   9.79268e-08
      186.900   9.57117e-08
      187.000   9.35424e-08
      187.100   9.14182e-08
      187.200   8.93387e-08
      187.300   8.73042e-08
      187.400   8.53126e-08
      187.500   8.33631e-08
      187.600   8.14544e-08
      187.700   7.95861e-08
      187.800   7.77568e-08
      187.900   7.59661e-08
      188.000   7.42143e-08
      188.100   7.24996e-08
      188.200   7.08209e-08
      188.300   6.91778e-08
      188.400   6.75699e-08
      188.500   6.59973e-08
      188.600   6.44594e-08
      188.700   6.29556e-08
      188.800   6.14849e-08
      188.900   6.00468e-08
      189.000   5.86396e-08
      189.100   5.72628e-08
      189.200   5.59164e-08
      189.300   5.46000e-08
      189.400   5.33129e-08
      189.500   5.20540e-08
      189.600   5.08222e-08
      189.700   4.96129e-08
      189.800   4.83965e-08
      189.900   4.72103e-08
      190.000   4.60510e-08
      190.100   4.49192e-08
      190.200   4.38137e-08
      190.300   4.27342e-08
      190.400   4.16793e-08
      190.500   4.06494e-08
      190.600   3.96441e-08
      190.700   3.86620e-08
      190.800   3.77033e-08
      190.900   3.67674e-08
      191.000   3.58541e-08
      191.100   3.49636e-08
      191.200   3.40940e-08
      191.300   3.32451e-08
      191.400   3.24165e-08
      191.500   3.16074e-08
      191.600   3.08177e-08
      191.700   3.00469e-08
      191.800   2.92941e-08
      191.900   2.85597e-08
      192.000   2.78431e-08
      192.100   2.71445e-08
      192.200   2.64633e-08
      192.300   2.57983e-08
      192.400   2.51490e-08
      192.500   2.45154e-08
      192.600   2.38971e-08
      192.700   2.32854e-08
      192.800   2.26442e-08
      192.900   2.19409e-08
      193.000   2.12584e-08
      193.100   2.05964e-08
      193.200   1.99545e-08
      193.300   1.93315e-08
      193.400   1.87271e-08
      193.500   1.81403e-08
      193.600   1.75705e-08
      193.700   1.70174e-08
      193.800   1.64810e-08
      193.900   1.59606e-08
      194.000   1.54554e-08
      194.100   1.49658e-08
      194.200   1.44918e-08
      194.300   1.40319e-08
      194.400   1.35856e-08
      194.500   1.31526e-08
      194.600   1.27325e-08
      194.700   1.23251e-08
      194.800   1.19301e-08
      194.900   1.15468e-08
      195.000   1.11752e-08
      195.100   1.08157e-08
      195.200   1.04672e-08
      195.300   1.01293e-08
      195.400   9.80151e-09
      195.500   9.48361e-09
      195.600   9.17530e-09
      195.700   8.87644e-09
      195.800   8.58661e-09
      195.900   8.30559e-09
      196.000   8.03082e-09
      196.100   7.76449e-09
      196.200   7.50642e-09
      196.300   7.25631e-09
      196.400   7.01391e-09
      196.500   6.77892e-09
      196.600   6.55133e-09
      196.700   6.33080e-09
      196.800   6.11743e-09
      196.900   5.91106e-09
      197.000   5.71119e-09
      197.100   5.51757e-09
      197.200   5.33001e-09
      197.300   5.14827e-09
      197.400   4.97215e-09
      197.500   4.80165e-09
      197.600   4.63656e-09
      197.700   4.47722e-09
      197.800   4.32301e-09
      197.900   4.17359e-09
      198.000   4.02896e-09
      198.100   3.88898e-09
      198.200   3.75342e-09
      198.300   3.62215e-09
      198.400   3.49521e-09
      198.500   3.37271e-09
      198.600   3.25430e-09
      198.700   3.13972e-09
      198.800   3.02883e-09
      198.900   2.92159e-09
      199.000   2.81969e-09
      199.100   2.72663e-09
      199.200   2.64412e-09
      199.300   2.56414e-09
      199.400   2.48649e-09
      199.500   2.41106e-09
      199.600   2.33775e-09
      199.700   2.26652e-09
      199.800   2.19731e-09
      199.900   2.13010e-09
      200.000   2.06479e-09
      200.100   2.00161e-09
      200.200   1.94020e-09
      200.300   1.88059e-09
      200.400   1.82271e-09
      200.500   1.76652e-09
      200.600   1.71196e-09
      200.700   1.65901e-09
      200.800   1.60757e-09
      200.900   1.55766e-09
      201.000   1.50928e-09
      201.100   1.46234e-09
      201.200   1.41678e-09
      201.300   1.37258e-09
      201.400   1.32970e-09
      201.500   1.28805e-09
      201.600   1.24766e-09
      201.700   1.20846e-09
      201.800   1.17042e-09
      201.900   1.13355e-09
      202.000   1.09784e-09
      202.100   1.06317e-09
      202.200   1.02955e-09
      202.300   9.97610e-10
      202.400   9.67671e-10
      202.500   9.38787e-10
      202.600   9.10700e-10
      202.700   8.83414e-10
      202.800   8.56928e-10
      202.900   8.31223e-10
      203.000   8.06266e-10
      203.100   7.82029e-10
      203.200   7.58482e-10
      203.300   7.35605e-10
      203.400   7.13391e-10
      203.500   6.91829e-10
      203.600   6.70888e-10
      203.700   6.50554e-10
      203.800   6.30845e-10
      203.900   6.11722e-10
      204.000   5.93154e-10
      204.100   5.75136e-10
      204.200   5.57652e-10
      204.300   5.40673e-10
      204.400   5.24202e-10
      204.500   5.08216e-10
      204.600   4.92697e-10
      204.700   4.77642e-10
      204.800   4.63053e-10
      204.900   4.48903e-10
      205.000   4.35174e-10
      205.100   4.21858e-10
      205.200   4.08930e-10
      205.300   3.96396e-10
      205.400   3.84234e-10
      205.500   3.72429e-10
      205.600   3.61051e-10
      205.700   3.50084e-10
      205.800   3.39441e-10
      205.900   3.29123e-10
      206.000   3.19124e-10
      206.100   3.09411e-10
      206.200   2.99982e-10
      206.300   2.90836e-10
      206.400   2.81960e-10
      206.500   2.73340e-10
      206.600   2.64978e-10
      206.700   2.56862e-10
      206.800   2.48980e-10
      206.900   2.41331e-10
      207.000   2.33914e-10
      207.100   2.26718e-10
      207.200   2.19740e-10
      207.300   2.12968e-10
      207.400   2.06392e-10
      207.500   2.00012e-10
      207.600   1.93820e-10
      207.700   1.87809e-10
      207.800   1.81976e-10
      207.900   1.76318e-10
      208.000   1.70825e-10
      208.100   1.65496e-10
      208.200   1.60327e-10
      208.300   1.55310e-10
      208.400   1.50449e-10
      208.500   1.45735e-10
      208.600   1.41159e-10
      208.700   1.36719e-10
      208.800   1.32407e-10
      208.900   1.28003e-10
      209.000   1.23446e-10
      209.100   1.19043e-10
      209.200   1.14789e-10
      209.300   1.10677e-10
      209.400   1.06707e-10
      209.500   1.02871e-10
      209.600   9.91642e-11
      209.700   9.55872e-11
      209.800   9.21389e-11
      209.900   8.88055e-11
      210.000   8.55876e-11
      210.100   8.24809e-11
      210.200   7.94804e-11
      210.300   7.65842e-11
      210.400   7.37881e-11
      210.500   7.10882e-11
      210.600   6.84824e-11
      210.700   6.59680e-11
      210.800   6.35406e-11
      210.900   6.11978e-11
      211.000   5.89369e-11
      211.100   5.67563e-11
      211.200   5.46517e-11
      211.300   5.26241e-11
      211.400   5.06696e-11
      211.500   4.87826e-11
      211.600   4.69627e-11
      211.700   4.52079e-11
      211.800   4.35142e-11
      211.900   4.18808e-11
      212.000   4.03066e-11
      212.100   3.87882e-11
      212.200   3.72877e-11
      212.300   3.53024e-11
      212.400   3.30945e-11
      212.500   3.10155e-11
      212.600   2.90598e-11
      212.700   2.72189e-11
      212.800   2.54873e-11
      212.900   2.38598e-11
      213.000   2.23304e-11
      213.100   2.08954e-11
      213.200   1.95467e-11
      213.300   1.82803e-11
      213.400   1.70904e-11
      213.500   1.59733e-11
      213.600   1.49249e-11
      213.700   1.39416e-11
      213.800   1.30186e-11
      213.900   1.21537e-11
      214.000   1.13427e-11
      214.100   1.05825e-11
      214.200   9.87064e-12
      214.300   9.20372e-12
      214.400   8.57909e-12
      214.500   7.99449e-12
      214.600   7.44776e-12
      214.700   6.93616e-12
      214.800   6.45769e-12
      214.900   6.01070e-12
      215.000   5.59261e-12
      215.100   5.20228e-12
      215.200   4.83831e-12
      215.300   4.49873e-12
      215.400   4.18145e-12
      215.500   3.88542e-12
      215.600   3.60946e-12
      215.700   3.35188e-12
      215.800   3.11172e-12
      215.900   2.88802e-12
      216.000   2.67945e-12
      216.100   2.48515e-12
      216.200   2.30429e-12
      216.300   2.13595e-12
      216.400   1.97927e-12
      216.500   1.83344e-12
      216.600   1.69788e-12
      216.700   1.57186e-12
      216.800   1.45469e-12
      216.900   1.34587e-12
      217.000   1.24479e-12
      217.100   1.15087e-12
      217.200   1.06377e-12
      217.300   9.82918e-13
      217.400   9.07886e-13
      217.500   8.38354e-13
      217.600   7.73857e-13
      217.700   7.14083e-13
      217.800   6.58704e-13
      217.900   6.07477e-13
      218.000   5.60075e-13
      218.100   5.16206e-13
      218.200   4.75622e-13
      218.300   4.38099e-13
      218.400   4.03390e-13
      218.500   3.71290e-13
      218.600   3.41651e-13
      218.700   3.14254e-13
      218.800   2.88955e-13
      218.900   2.65616e-13
      219.000   2.44064e-13
      219.100   2.24362e-13
      219.200   2.07670e-13
      219.300   1.94408e-13
      219.400   1.81954e-13
      219.500   1.70271e-13
      219.600   1.59308e-13
      219.700   1.49022e-13
      219.800   1.39379e-13
      219.900   1.30334e-13
      220.000   1.21850e-13
      220.100   1.13898e-13
      220.200   1.06446e-13
      220.300   9.94641e-14
      220.400   9.29203e-14
      220.500   8.67920e-14
      220.600   8.10545e-14
      220.700   7.56797e-14
      220.800   7.06458e-14
      220.900   6.59382e-14
      221.000   6.15305e-14
      221.100   5.74052e-14
      221.200   5.35485e-14
      221.300   4.99404e-14
      221.400   4.65656e-14
      221.500   4.34115e-14
      221.600   4.04626e-14
      221.700   3.77057e-14
      221.800   3.51296e-14
      221.900   3.27241e-14
      222.000   3.04772e-14
      222.100   2.83776e-14
      222.200   2.64189e-14
      222.300   2.45897e-14
      222.400   2.28823e-14
      222.500   2.12887e-14
      222.600   1.98031e-14
      222.700   1.84167e-14
      222.800   1.71238e-14
      222.900   1.59193e-14
      223.000   1.47958e-14
      223.100   1.37486e-14
      223.200   1.27728e-14
      223.300   1.18641e-14
      223.400   1.10176e-14
      223.500   1.02290e-14
      223.600   9.49530e-15
      223.700   8.81204e-15
      223.800   8.17601e-15
      223.900   7.58495e-15
      224.000   7.03451e-15
      224.100   6.52263e-15
      224.200   6.04670e-15
      224.300   5.60446e-15
      224.400   5.19318e-15
      224.500   4.81109e-15
      224.600   4.45598e-15
      224.700   4.12650e-15
      224.800   3.82040e-15
      224.900   3.53607e-15
      225.000   3.27230e-15
      225.100   3.02743e-15
      225.200   2.80023e-15
      225.300   2.58966e-15
      225.400   2.39425e-15
      225.500   2.21304e-15
      225.600   2.04509e-15
      225.700   1.88953e-15
      225.800   1.74532e-15
      225.900   1.61176e-15
      226.000   1.48813e-15
      226.100   1.37360e-15
      226.200   1.26757e-15
      226.300   1.16959e-15
      226.400   1.07900e-15
      226.500   9.95134e-16
      226.600   9.17548e-16
      226.700   8.45857e-16
      226.800   7.79535e-16
      226.900   7.18217e-16
      227.000   6.61604e-16
      227.100   6.09283e-16
      227.200   5.60963e-16
      227.300   5.16355e-16
      227.400   4.75181e-16
      227.500   4.37175e-16
      227.600   4.02113e-16
      227.700   3.69770e-16
      227.800   3.39952e-16
      227.900   3.12463e-16
      228.000   2.87122e-16
      228.100   2.63771e-16
      228.200   2.42256e-16
      228.300   2.22442e-16
      228.400   2.04203e-16
      228.500   1.87406e-16
      228.600   1.71952e-16
      228.700   1.57731e-16
      228.800   1.44648e-16
      228.900   1.32622e-16
      229.000   1.21561e-16
      229.100   1.11395e-16
      229.200   1.02054e-16
      229.300   9.34731e-17
      229.400   8.55921e-17
      229.500   7.83552e-17
      229.600   7.17118e-17
      229.700   6.56158e-17
      229.800   6.00211e-17
      229.900   5.49080e-17
      230.000   5.03626e-17
      230.100   4.64491e-17
      230.200   4.28313e-17
      230.300   3.94896e-17
      230.400   3.64002e-17
      230.500   3.35481e-17
      230.600   3.09168e-17
      230.700   2.84855e-17
      230.800   2.62406e-17
      230.900   2.41684e-17
      231.000   2.22545e-17
      231.100   2.04886e-17
      231.200   1.88587e-17
      231.300   1.73554e-17
      231.400   1.59693e-17
      231.500   1.46901e-17
      231.600   1.35105e-17
      231.700   1.24235e-17
      231.800   1.14217e-17
      231.900   1.04985e-17
      232.000   9.64790e-18
      232.100   8.86428e-18
      232.200   8.14276e-18
      232.300   7.47846e-18
      232.400   6.86681e-18
      232.500   6.30373e-18
      232.600   5.78581e-18
      232.700   5.30932e-18
      232.800   4.87100e-18
      232.900   4.46793e-18
      233.000   4.09730e-18
      233.100   3.75673e-18
      233.200   3.44357e-18
      233.300   3.15593e-18
      233.400   2.89173e-18
      233.500   2.64951e-18
      233.600   2.42736e-18
      233.700   2.22330e-18
      233.800   2.03320e-18
      233.900   1.85860e-18
      234.000   1.69854e-18
      234.100   1.55197e-18
      234.200   1.41774e-18
      234.300   1.29481e-18
      234.400   1.18228e-18
      234.500   1.07929e-18
      234.600   9.85033e-19
      234.700   8.98818e-19
      234.800   8.19979e-19
      234.900   7.47859e-19
      235.000   6.81916e-19
      235.100   6.21658e-19
      235.200   5.66589e-19
      235.300   5.16274e-19
      235.400   4.70319e-19
      235.500   4.28348e-19
      235.600   3.90041e-19
      235.700   3.55096e-19
      235.800   3.23316e-19
      235.900   2.94311e-19
      236.000   2.67846e-19
      236.100   2.43699e-19
      236.200   2.21677e-19
      236.300   2.01593e-19
      236.400   1.83288e-19
      236.500   1.66602e-19
      236.600   1.51400e-19
      236.700   1.37550e-19
      236.800   1.24934e-19
      236.900   1.13449e-19
      237.000   1.02993e-19
      237.100   9.34750e-20
      237.200   8.48183e-20
      237.300   7.69408e-20
      237.400   6.98077e-20
      237.500   6.35992e-20
      237.600   5.84144e-20
      237.700   5.36573e-20
      237.800   4.92784e-20
      237.900   4.52484e-20
      238.000   4.15417e-20
      238.100   3.81302e-20
      238.200   3.49927e-20
      238.300   3.21070e-20
      238.400   2.94539e-20
      238.500   2.70144e-20
      238.600   2.47725e-20
      238.700   2.27127e-20
      238.800   2.08197e-20
      238.900   1.90807e-20
      239.000   1.74834e-20
      239.100   1.60168e-20
      239.200   1.46707e-20
      239.300   1.34383e-20
      239.400   1.23099e-20
      239.500   1.12738e-20
      239.600   1.03227e-20
      239.700   9.45033e-21
      239.800   8.64963e-21
      239.900   7.91519e-21
      240.000   7.24168e-21
      240.100   6.62392e-21
      240.200   6.05757e-21
      240.300   5.53858e-21
      240.400   5.06279e-21
      240.500   4.62713e-21
      240.600   4.22798e-21
      240.700   3.86247e-21
      240.800   3.52876e-21
      240.900   3.22405e-21
      241.000   2.94505e-21
      241.100   2.68961e-21
      241.200   2.45581e-21
      241.300   2.25221e-21
      241.400   2.08407e-21
      241.500   1.93791e-21
      241.600   1.80178e-21
      241.700   1.67498e-21
      241.800   1.55689e-21
      241.900   1.44694e-21
      242.000   1.34459e-21
      242.100   1.24932e-21
      242.200   1.16091e-21
      242.300   1.07881e-21
      242.400   1.00236e-21
      242.500   9.31215e-22
      242.600   8.65004e-22
      242.700   8.03382e-22
      242.800   7.46064e-22
      242.900   6.92738e-22
      243.000   6.43137e-22
      243.100   5.97010e-22
      243.200   5.54100e-22
      243.300   5.14212e-22
      243.400   4.77143e-22
      243.500   4.42775e-22
      243.600   4.10931e-22
      243.700   3.81310e-22
      243.800   3.53773e-22
      243.900   3.28192e-22
      244.000   3.04407e-22
      244.100   2.82309e-22
      244.200   2.61781e-22
      244.300   2.42704e-22
      244.400   2.24992e-22
      244.500   2.08540e-22
      244.600   1.93263e-22
      244.700   1.79111e-22
      244.800   1.66025e-22
      244.900   1.53876e-22
      245.000   1.42590e-22
      245.100   1.32114e-22
      245.200   1.22394e-22
      245.300   1.13372e-22
      245.400   1.04996e-22
      245.500   9.72281e-23
      245.600   9.00208e-23
      245.700   8.33334e-23
      245.800   7.71297e-23
      245.900   7.14072e-23
      246.000   6.61106e-23
      246.100   6.11964e-23
      246.200   5.66395e-23
      246.300   5.24131e-23
      246.400   4.84958e-23
      246.500   4.48637e-23
      246.600   4.14972e-23
      246.700   3.83780e-23
      246.800   3.54863e-23
      246.900   3.28076e-23
      247.000   3.03386e-23
      247.100   2.80564e-23
      247.200   2.59421e-23
      247.300   2.39835e-23
      247.400   2.21689e-23
      247.500   2.04883e-23
      247.600   1.89321e-23
      247.700   1.74911e-23
      247.800   1.61573e-23
      247.900   1.49225e-23
      248.000   1.37801e-23
      248.100   1.27316e-23
      248.200   1.17607e-23
      248.300   1.08620e-23
      248.400   1.00304e-23
      248.500   9.26053e-24
      248.600   8.54840e-24
      248.700   7.88989e-24
      248.800   7.28078e-24
      248.900   6.71763e-24
      249.000   6.19696e-24
      249.100   5.71885e-24
      249.200   5.32505e-24
      249.300   5.00704e-24
      249.400   4.71923e-24
      249.500   4.44766e-24
      249.600   4.19130e-24
      249.700   3.94943e-24
      249.800   3.72125e-24
      249.900   3.50590e-24
      250.000   3.30286e-24
      250.100   3.11198e-24
      250.200   2.93219e-24
      250.300   2.76273e-24
      250.400   2.60287e-24
      250.500   2.45213e-24
      250.600   2.30998e-24
      250.700   2.17592e-24
      250.800   2.04951e-24
      250.900   1.93031e-24
      251.000   1.81795e-24
      251.100   1.71200e-24
      251.200   1.61231e-24
      251.300   1.51857e-24
      251.400   1.43017e-24
      251.500   1.34682e-24
      251.600   1.26826e-24
      251.700   1.19424e-24
      251.800   1.12445e-24
      251.900   1.05868e-24
      252.000   9.96677e-25
      252.100   9.38290e-25
      252.200   8.83238e-25
      252.300   8.31452e-25
      252.400   7.82750e-25
      252.500   7.36884e-25
      252.600   6.93651e-25
      252.700   6.52924e-25
      252.800   6.14554e-25
      252.900   5.78399e-25
      253.000   5.44343e-25
      253.100   5.12267e-25
      253.200   4.84331e-25
      253.300   4.67581e-25
      253.400   4.53618e-25
      253.500   4.40087e-25
      253.600   4.26967e-25
      253.700   4.14234e-25
      253.800   4.01884e-25
      253.900   3.89897e-25
      254.000   3.78266e-25
      254.100   3.66978e-25
      254.200   3.56025e-25
      254.300   3.45397e-25
      254.400   3.35084e-25
      254.500   3.25080e-25
      254.600   3.15367e-25
      254.700   3.05948e-25
      254.800   2.96820e-25
      254.900   2.87960e-25
      255.000   2.79365e-25
      255.100   2.71020e-25
      255.200   2.62925e-25
      255.300   2.55069e-25
      255.400   2.47446e-25
      255.500   2.40052e-25
      255.600   2.32874e-25
      255.700   2.25909e-25
      255.800   2.19151e-25
      255.900   2.12592e-25
      256.000   2.06227e-25
      256.100   2.00057e-25
      256.200   1.94071e-25
      256.300   1.88263e-25
      256.400   1.82631e-25
      256.500   1.77163e-25
      256.600   1.71857e-25
      256.700   1.66709e-25
      256.800   1.61713e-25
      256.900   1.56865e-25
      257.000   1.52161e-25
      257.100   1.47597e-25
      257.200   1.43169e-25
      257.300   1.38872e-25
      257.400   1.34751e-25
      257.500   1.30770e-25
      257.600   1.26910e-25
      257.700   1.23163e-25
      257.800   1.19526e-25
      257.900   1.15995e-25
      258.000   1.12568e-25
      258.100   1.09240e-25
      258.200   1.06011e-25
      258.300   1.02876e-25
      258.400   9.98321e-26
      258.500   9.68767e-26
      258.600   9.40092e-26
      258.700   9.12252e-26
      258.800   8.85221e-26
      258.900   8.58997e-26
      259.000   8.33531e-26
      259.100   8.08815e-26
      259.200   7.84834e-26
      259.300   7.61577e-26
      259.400   7.38999e-26
      259.500   7.17075e-26
      259.600   6.95808e-26
      259.700   6.75161e-26
      259.800   6.55117e-26
      259.900   6.35654e-26
      260.000   6.16771e-26
      260.100   5.98445e-26
      260.200   5.80656e-26
      260.300   5.63391e-26
      260.400   5.46633e-26
      260.500   5.30374e-26
      260.600   5.14584e-26
      260.700   4.99262e-26
      260.800   4.84401e-26
      260.900   4.69966e-26
      261.000   4.55967e-26
      261.100   4.42392e-26
      261.200   4.29207e-26
      261.300   4.16415e-26
      261.400   4.04003e-26
      261.500   3.91975e-26
      261.600   3.80362e-26
      261.700   3.69097e-26
      261.800   3.58166e-26
      261.900   3.47549e-26
      262.000   3.37246e-26
      262.100   3.27243e-26
      262.200   3.17539e-26
      262.300   3.08116e-26
      262.400   2.98972e-26
      262.500   2.90094e-26
      262.600   2.81476e-26
      262.700   2.73113e-26
      262.800   2.64996e-26
      262.900   2.57112e-26
      263.000   2.49471e-26
      263.100   2.42050e-26
      263.200   2.34853e-26
      263.300   2.27865e-26
      263.400   2.21084e-26
      263.500   2.14503e-26
      263.600   2.08118e-26
      263.700   2.01918e-26
      263.800   1.95901e-26
      263.900   1.90067e-26
      264.000   1.84400e-26
      264.100   1.78900e-26
      264.200   1.73561e-26
      264.300   1.68384e-26
      264.400   1.63359e-26
      264.500   1.58480e-26
      264.600   1.53747e-26
      264.700   1.49154e-26
      264.800   1.44695e-26
      264.900   1.40370e-26
      265.000   1.36173e-26
      265.100   1.32098e-26
      265.200   1.28146e-26
      265.300   1.24310e-26
      265.400   1.20589e-26
      265.500   1.16977e-26
      265.600   1.13474e-26
      265.700   1.10385e-26
      265.800   1.08698e-26
      265.900   1.07078e-26
      266.000   1.05481e-26
      266.100   1.03908e-26
      266.200   1.02358e-26
      266.300   1.00830e-26
      266.400   9.93242e-27
      266.500   9.78401e-27
      266.600   9.63777e-27
      266.700   9.49351e-27
      266.800   9.35157e-27
      266.900   9.21165e-27
      267.000   9.07373e-27
      267.100   8.93785e-27
      267.200   8.80402e-27
      267.300   8.67208e-27
      267.400   8.54201e-27
      267.500   8.41391e-27
      267.600   8.28769e-27
      267.700   8.16332e-27
      267.800   8.04069e-27
      267.900   7.91991e-27
      268.000   7.80100e-27
      268.100   7.68381e-27
      268.200   7.56834e-27
      268.300   7.45464e-27
      268.400   7.34250e-27
      268.500   7.23200e-27
      268.600   7.12312e-27
      268.700   7.01599e-27
      268.800   6.91038e-27
      268.900   6.80632e-27
      269.000   6.70386e-27
      269.100   6.60280e-27
      269.200   6.50336e-27
      269.300   6.40539e-27
      269.400   6.30882e-27
      269.500   6.21367e-27
      269.600   6.12004e-27
      269.700   6.02767e-27
      269.800   5.93676e-27
      269.900   5.84718e-27
      270.000   5.75900e-27
      270.100   5.67237e-27
      270.200   5.58714e-27
      270.300   5.50321e-27
      270.400   5.42045e-27
      270.500   5.33895e-27
      270.600   5.25860e-27
      270.700   5.17956e-27
      270.800   5.10164e-27
      270.900   5.02486e-27
      271.000   4.94929e-27
      271.100   4.87478e-27
      271.200   4.80139e-27
      271.300   4.72911e-27
      271.400   4.65790e-27
      271.500   4.58779e-27
      271.600   4.51867e-27
      271.700   4.45057e-27
      271.800   4.38355e-27
      271.900   4.31748e-27
      272.000   4.25243e-27
      272.100   4.18832e-27
      272.200   4.12517e-27
      272.300   4.06294e-27
      272.400   4.00165e-27
      272.500   3.94130e-27
      272.600   3.88184e-27
      272.700   3.82326e-27
      272.800   3.76553e-27
      272.900   3.70871e-27
      273.000   3.65272e-27
      273.100   3.59754e-27
      273.200   3.54322e-27
      273.300   3.48972e-27
      273.400   3.43698e-27
      273.500   3.38502e-27
      273.600   3.33386e-27
      273.700   3.28345e-27
      273.800   3.23378e-27
      273.900   3.18488e-27
      274.000   3.13672e-27
      274.100   3.08927e-27
      274.200   3.04250e-27
      274.300   2.99644e-27
      274.400   2.94980e-27
      274.500   2.90060e-27
      274.600   2.85162e-27
      274.700   2.80349e-27
      274.800   2.75615e-27
      274.900   2.70959e-27
      275.000   2.66379e-27
      275.100   2.61876e-27
      275.200   2.57446e-27
      275.300   2.53089e-27
      275.400   2.48807e-27
      275.500   2.44595e-27
      275.600   2.40452e-27
      275.700   2.36379e-27
      275.800   2.32373e-27
      275.900   2.28435e-27
      276.000   2.24563e-27
      276.100   2.20753e-27
      276.200   2.17005e-27
      276.300   2.13320e-27
      276.400   2.09698e-27
      276.500   2.06135e-27
      276.600   2.02634e-27
      276.700   1.99188e-27
      276.800   1.95800e-27
      276.900   1.92468e-27
      277.000   1.89192e-27
      277.100   1.85970e-27
      277.200   1.82802e-27
      277.300   1.79687e-27
      277.400   1.76625e-27
      277.500   1.73611e-27
      277.600   1.70649e-27
      277.700   1.67735e-27
      277.800   1.64868e-27
      277.900   1.62053e-27
      278.000   1.59285e-27
      278.100   1.56562e-27
      278.200   1.53884e-27
      278.300   1.51252e-27
      278.400   1.48663e-27
      278.500   1.46116e-27
      278.600   1.43612e-27
      278.700   1.41152e-27
      278.800   1.38788e-27
      278.900   1.36715e-27
      279.000   1.34674e-27
      279.100   1.32664e-27
      279.200   1.30679e-27
      279.300   1.28726e-27
      279.400   1.26800e-27
      279.500   1.24900e-27
      279.600   1.23029e-27
      279.700   1.21185e-27
      279.800   1.19368e-27
      279.900   1.17577e-27
      280.000   1.15811e-27
      280.100   1.14070e-27
      280.200   1.12355e-27
      280.300   1.10665e-27
      280.400   1.08999e-27
      280.500   1.07357e-27
      280.600   1.05739e-27
      280.700   1.04145e-27
      280.800   1.02573e-27
      280.900   1.01024e-27
      281.000   9.94979e-28
      281.100   9.79933e-28
      281.200   9.65106e-28
      281.300   9.50496e-28
      281.400   9.36105e-28
      281.500   9.21917e-28
      281.600   9.07924e-28
      281.700   8.94139e-28
      281.800   8.80571e-28
      281.900   8.67190e-28
      282.000   8.53998e-28
      282.100   8.41003e-28
      282.200   8.28210e-28
      282.300   8.15586e-28
      282.400   8.03148e-28
      282.500   7.90888e-28
      282.600   7.78819e-28
      282.700   7.66924e-28
      282.800   7.55191e-28
      282.900   7.43651e-28
      283.000   7.32270e-28
      283.100   7.21049e-28
      283.200   7.10003e-28
      283.300   7.00543e-28
      283.400   6.98900e-28
      283.500   6.98180e-28
      283.600   6.97437e-28
      283.700   6.96687e-28
      283.800   6.95916e-28
      283.900   6.95129e-28
      284.000   6.94327e-28
      284.100   6.93504e-28
      284.200   6.92676e-28
      284.300   6.91839e-28
      284.400   6.90977e-28
      284.500   6.90101e-28
      284.600   6.89217e-28
      284.700   6.88315e-28
      284.800   6.87397e-28
      284.900   6.86471e-28
      285.000   6.85524e-28
      285.100   6.84563e-28
      285.200   6.83585e-28
      285.300   6.82598e-28
      285.400   6.81604e-28
      285.500   6.80582e-28
      285.600   6.79562e-28
      285.700   6.78516e-28
      285.800   6.77465e-28
      285.900   6.76394e-28
      286.000   6.75304e-28
      286.100   6.74215e-28
      286.200   6.73109e-28
      286.300   6.71995e-28
      286.400   6.70858e-28
      286.500   6.69711e-28
      286.600   6.68552e-28
      286.700   6.67380e-28
      286.800   6.66197e-28
      286.900   6.65007e-28
      287.000   6.63798e-28
      287.100   6.62577e-28
      287.200   6.61348e-28
      287.300   6.60098e-28
      287.400   6.58841e-28
      287.500   6.57576e-28
      287.600   6.56299e-28
      287.700   6.55012e-28
      287.800   6.53715e-28
      287.900   6.52408e-28
      288.000   6.51098e-28
      288.100   6.49779e-28
      288.200   6.48442e-28
      288.300   6.47102e-28
      288.400   6.45761e-28
      288.500   6.44398e-28
      288.600   6.43025e-28
      288.700   6.41649e-28
      288.800   6.40256e-28
      288.900   6.38854e-28
      289.000   6.37448e-28
      289.100   6.36025e-28
      289.200   6.34589e-28
      289.300   6.33150e-28
      289.400   6.31706e-28
      289.500   6.30250e-28
      289.600   6.28779e-28
      289.700   6.27307e-28
      289.800   6.25824e-28
      289.900   6.24323e-28
      290.000   6.22831e-28
      290.100   6.21307e-28
      290.200   6.19793e-28
      290.300   6.18267e-28
      290.400   6.16728e-28
      290.500   6.15187e-28
      290.600   6.13630e-28
      290.700   6.12069e-28
      290.800   6.10505e-28
      290.900   6.08932e-28
      291.000   6.07350e-28
      291.100   6.05757e-28
      291.200   6.04158e-28
      291.300   6.02556e-28
      291.400   6.00941e-28
      291.500   5.99319e-28
      291.600   5.97694e-28
      291.700   5.96059e-28
      291.800   5.94418e-28
      291.900   5.92768e-28
      292.000   5.91120e-28
      292.100   5.89464e-28
      292.200   5.87797e-28
      292.300   5.86122e-28
      292.400   5.84442e-28
      292.500   5.82756e-28
      292.600   5.81053e-28
      292.700   5.79336e-28
      292.800   5.77612e-28
      292.900   5.75880e-28
      293.000   5.74146e-28
      293.100   5.72408e-28
      293.200   5.70660e-28
      293.300   5.68905e-28
      293.400   5.67151e-28
      293.500   5.65386e-28
      293.600   5.63618e-28
      293.700   5.61848e-28
      293.800   5.60074e-28
      293.900   5.58290e-28
      294.000   5.56500e-28
      294.100   5.54709e-28
      294.200   5.52915e-28
      294.300   5.51118e-28
      294.400   5.49313e-28
      294.500   5.47502e-28
      294.600   5.45685e-28
      294.700   5.43872e-28
      294.800   5.42051e-28
      294.900   5.40220e-28
      295.000   5.38391e-28
      295.100   5.36563e-28
      295.200   5.34727e-28
      295.300   5.32882e-28
      295.400   5.31039e-28
      295.500   5.29193e-28
      295.600   5.27340e-28
      295.700   5.25484e-28
      295.800   5.23626e-28
      295.900   5.21763e-28
      296.000   5.19904e-28
      296.100   5.18032e-28
      296.200   5.16166e-28
      296.300   5.14290e-28
      296.400   5.12417e-28
      296.500   5.10535e-28
      296.600   5.08655e-28
      296.700   5.06769e-28
      296.800   5.04883e-28
      296.900   5.02995e-28
      297.000   5.01107e-28
      297.100   4.99215e-28
      297.200   4.97619e-28
      297.300   4.98232e-28
      297.400   5.04253e-28
      297.500   5.10327e-28
      297.600   5.16454e-28
      297.700   5.22645e-28
      297.800   5.28879e-28
      297.900   5.35167e-28
      298.000   5.41498e-28
      298.100   5.47881e-28
      298.200   5.54311e-28
      298.300   5.60793e-28
      298.400   5.67328e-28
      298.500   5.73910e-28
      298.600   5.80548e-28
      298.700   5.87229e-28
      298.800   5.93960e-28
      298.900   6.00749e-28
      299.000   6.07595e-28
      299.100   6.14490e-28
      299.200   6.21436e-28
      299.300   6.28426e-28
      299.400   6.35472e-28
      299.500   6.42568e-28
      299.600   6.49707e-28
      299.700   6.56895e-28
      299.800   6.64140e-28
      299.900   6.71439e-28
      300.000   6.78776e-28
      300.100   6.86178e-28
      300.192   6.93031e-28
      300.285   6.99999e-28
      300.377   7.06934e-28
      300.470   7.13996e-28
      300.562   7.21011e-28
      300.654   7.28068e-28
      300.747   7.35263e-28
      300.839   7.42413e-28
      300.932   7.49677e-28
      301.025   7.57003e-28
      301.117   7.64280e-28
      301.210   7.71671e-28
      301.303   7.79126e-28
      301.395   7.86522e-28
      301.488   7.94053e-28
      301.581   8.01610e-28
      301.674   8.09227e-28
      301.766   8.16793e-28
      301.859   8.24500e-28
      301.952   8.32232e-28
      302.045   8.40017e-28
      302.138   8.73512e-28
      302.231   9.18827e-28
      302.324   9.66744e-28
      302.417   1.01705e-27
      302.510   1.06976e-27
      302.603   1.12498e-27
      302.696   1.18287e-27
      302.789   1.24357e-27
      302.882   1.30716e-27
      302.976   1.37450e-27
      303.069   1.44428e-27
      303.162   1.51736e-27
      303.255   1.59389e-27
      303.349   1.67490e-27
      303.442   1.75883e-27
      303.535   1.84657e-27
      303.629   1.93940e-27
      303.722   2.03555e-27
      303.816   2.13722e-27
      303.909   2.24247e-27
      304.003   2.35368e-27
      304.096   2.46881e-27
      304.190   2.59048e-27
      304.283   2.71629e-27
      304.377   2.84909e-27
      304.471   2.98800e-27
      304.564   3.13159e-27
      304.658   3.28321e-27
      304.752   3.44176e-27
      304.846   3.60718e-27
      304.939   3.77814e-27
      305.033   3.95857e-27
      305.127   4.14690e-27
      305.221   4.34345e-27
      305.315   4.54880e-27
      305.409   4.76288e-27
      305.503   4.98630e-27
      305.597   5.21953e-27
      305.691   5.46262e-27
      305.785   5.71638e-27
      305.879   5.98087e-27
      305.973   6.25638e-27
      306.067   6.54388e-27
      306.161   6.84339e-27
      306.255   7.15554e-27
      306.350   7.48433e-27
      306.444   7.82329e-27
      306.538   8.17653e-27
      306.633   8.54814e-27
      306.727   8.93133e-27
      306.821   9.33028e-27
      306.916   9.74989e-27
      307.010   1.01848e-26
      307.105   1.06447e-26
      307.199   1.11188e-26
      307.294   1.16177e-26
      307.388   1.21314e-26
      307.483   1.26718e-26
      307.577   1.32283e-26
      307.672   1.38134e-26
      307.767   1.44220e-26
      307.861   1.50480e-26
      307.956   1.57065e-26
      308.051   1.63913e-26
      308.146   1.71032e-26
      308.240   1.78351e-26
      308.335   1.86038e-26
      308.430   1.94030e-26
      308.525   2.02340e-26
      308.620   2.10967e-26
      308.715   2.19932e-26
      308.810   2.29245e-26
      308.905   2.38914e-26
      309.000   2.48949e-26
      309.095   2.59373e-26
      309.190   2.70192e-26
      309.285   2.81424e-26
      309.380   2.93079e-26
      309.476   3.05298e-26
      309.571   3.17848e-26
      309.666   3.30876e-26
      309.761   3.44380e-26
      309.857   3.58528e-26
      309.952   3.73048e-26
      310.047   3.88094e-26
      310.143   4.03866e-26
      310.238   4.20044e-26
      310.334   4.36983e-26
      310.429   4.54368e-26
      310.525   4.72550e-26
      310.620   4.91202e-26
      310.716   5.10721e-26
      310.811   5.30733e-26
      310.907   5.51655e-26
      311.003   5.73320e-26
      311.098   5.95526e-26
      311.194   6.18755e-26
      311.290   6.42803e-26
      311.386   6.67678e-26
      311.481   6.93148e-26
      311.577   7.19760e-26
      311.673   7.47314e-26
      311.769   7.75812e-26
      311.865   8.05252e-26
      311.961   8.35919e-26
      312.057   8.68153e-26
      312.153   9.01667e-26
      312.249   9.36344e-26
      312.345   9.72225e-26
      312.441   1.00935e-25
      312.537   1.04771e-25
      312.633   1.08739e-25
      312.730   1.12888e-25
      312.826   1.17132e-25
      312.922   1.21518e-25
      313.018   1.26052e-25
      313.115   1.30788e-25
      313.211   1.35633e-25
      313.307   1.40638e-25
      313.404   1.45862e-25
      313.500   1.51204e-25
      313.597   1.56778e-25
      313.693   1.62471e-25
      313.790   1.68415e-25
      313.886   1.74489e-25
      313.983   1.80826e-25
      314.079   1.87300e-25
      314.176   1.94047e-25
      314.273   2.01013e-25
      314.369   2.08127e-25
      314.466   2.15542e-25
      314.563   2.23192e-25
      314.660   2.31075e-25
      314.756   2.39128e-25
      314.853   2.47514e-25
      314.950   2.56162e-25
      315.047   2.65076e-25
      315.144   2.74270e-25
      315.241   2.83741e-25
      315.338   2.93505e-25
      315.435   3.03561e-25
      315.532   3.13921e-25
      315.629   3.24591e-25
      315.726   3.35582e-25
      315.823   3.46910e-25
      315.921   3.58681e-25
      316.018   3.70689e-25
      316.115   3.83049e-25
      316.212   3.95771e-25
      316.310   4.08998e-25
      316.407   4.22467e-25
      316.504   4.36335e-25
      316.602   4.50745e-25
      316.699   4.65421e-25
      316.796   4.80504e-25
      316.894   4.96181e-25
      316.991   5.12181e-25
      317.089   5.29064e-25
      317.187   5.46600e-25
      317.284   5.64444e-25
      317.382   5.82987e-25
      317.479   6.01873e-25
      317.577   6.21484e-25
      317.675   6.41646e-25
      317.773   6.62396e-25
      317.870   6.83510e-25
      317.968   7.05456e-25
      318.066   7.28001e-25
      318.164   7.51174e-25
      318.262   7.74990e-25
      318.360   7.99474e-25
      318.458   8.24625e-25
      318.556   8.50456e-25
      318.654   8.76994e-25
      318.752   9.04239e-25
      318.850   9.32222e-25
      318.948   9.60971e-25
      319.046   9.90488e-25
      319.144   1.02079e-24
      319.242   1.05188e-24
      319.341   1.08413e-24
      319.439   1.11688e-24
      319.537   1.15049e-24
      319.635   1.18498e-24
      319.734   1.22071e-24
      319.832   1.25699e-24
      319.930   1.29421e-24
      320.029   1.33276e-24
      320.127   1.37189e-24
      320.226   1.41244e-24
      320.324   1.45359e-24
      320.423   1.49619e-24
      320.522   1.53985e-24
      320.620   1.58413e-24
      320.719   1.62998e-24
      320.818   1.67696e-24
      320.916   1.72460e-24
      321.015   1.77391e-24
      321.114   1.82440e-24
      321.213   1.87612e-24
      321.311   1.92854e-24
      321.410   1.98272e-24
      321.509   2.03822e-24
      321.608   2.09499e-24
      321.707   2.15313e-24
      321.806   2.21266e-24
      321.905   2.27351e-24
      322.004   2.33585e-24
      322.103   2.41146e-24
      322.202   2.50963e-24
      322.301   2.62022e-24
      322.401   2.73631e-24
      322.500   2.85576e-24
      322.599   2.97979e-24
      322.698   3.10858e-24
      322.798   3.24377e-24
      322.897   3.38275e-24
      322.996   3.52690e-24
      323.096   3.67814e-24
      323.195   3.83345e-24
      323.294   3.99452e-24
      323.394   4.16326e-24
      323.493   4.33656e-24
      323.593   4.51808e-24
      323.692   4.70432e-24
      323.792   4.89929e-24
      323.892   5.10133e-24
      323.991   5.30866e-24
      324.091   5.52553e-24
      324.191   5.75029e-24
      324.291   5.98289e-24
      324.390   6.22119e-24
      324.490   6.47070e-24
      324.590   6.72857e-24
      324.690   6.99543e-24
      324.790   7.27163e-24
      324.890   7.55726e-24
      324.990   7.85285e-24
      325.090   8.15854e-24
      325.190   8.47425e-24
      325.290   8.80056e-24
      325.390   9.13805e-24
      325.490   9.48656e-24
      325.590   9.84647e-24
      325.690   1.02184e-23
      325.790   1.06023e-23
      325.891   1.10028e-23
      325.991   1.14121e-23
      326.091   1.18346e-23
      326.192   1.22750e-23
      326.292   1.27249e-23
      326.392   1.31888e-23
      326.493   1.36722e-23
      326.593   1.41658e-23
      326.694   1.46794e-23
      326.794   1.52039e-23
      326.895   1.57499e-23
      326.995   1.63071e-23
      327.096   1.68865e-23
      327.197   1.74836e-23
      327.297   1.80938e-23
      327.398   1.87309e-23
      327.499   1.93885e-23
      327.599   2.00592e-23
      327.700   2.07565e-23
      327.801   2.14738e-23
      327.902   2.22121e-23
      328.003   2.29723e-23
      328.104   2.37543e-23
      328.205   2.45587e-23
      328.306   2.53859e-23
      328.407   2.62362e-23
      328.508   2.71105e-23
      328.609   2.80091e-23
      328.710   2.89324e-23
      328.811   2.98814e-23
      328.912   3.08566e-23
      329.013   3.18576e-23
      329.115   3.28963e-23
      329.216   3.39528e-23
      329.317   3.50367e-23
      329.419   3.61604e-23
      329.520   3.73030e-23
      329.621   3.84750e-23
      329.723   3.96904e-23
      329.824   4.09228e-23
      329.926   4.22001e-23
      330.027   4.34977e-23
      330.129   4.48412e-23
      330.230   4.62041e-23
      330.332   4.76158e-23
      330.434   4.90618e-23
      330.535   5.05296e-23
      330.637   5.20477e-23
      330.739   5.36011e-23
      330.840   5.51774e-23
      330.942   5.68079e-23
      331.044   5.84770e-23
      331.146   6.01849e-23
      331.248   6.19331e-23
      331.350   6.37218e-23
      331.452   6.55548e-23
      331.554   6.74859e-23
      331.656   6.95561e-23
      331.758   7.16779e-23
      331.860   7.38541e-23
      331.962   7.60839e-23
      332.064   7.83685e-23
      332.166   8.07090e-23
      332.268   8.31074e-23
      332.371   8.55871e-23
      332.473   8.81024e-23
      332.575   9.05394e-23
      332.677   9.25726e-23
      332.780   9.42921e-23
      332.882   9.60183e-23
      332.985   9.77829e-23
      333.087   9.95539e-23
      333.190   1.01365e-22
      333.292   1.03131e-22
      333.395   1.04806e-22
      333.497   1.06430e-22
      333.600   1.08085e-22
      333.702   1.09738e-22
      333.805   1.11422e-22
      333.908   1.13123e-22
      334.011   1.14838e-22
      334.113   1.16550e-22
      334.216   1.18294e-22
      334.319   1.20053e-22
      334.422   1.21826e-22
      334.525   1.23614e-22
      334.628   1.25417e-22
      334.731   1.27233e-22
      334.834   1.29064e-22
      334.937   1.30910e-22
      335.040   1.32771e-22
      335.143   1.34644e-22
      335.246   1.36531e-22
      335.349   1.38431e-22
      335.452   1.40344e-22
      335.555   1.42272e-22
      335.659   1.44232e-22
      335.762   1.46189e-22
      335.865   1.48156e-22
      335.969   1.50156e-22
      336.072   1.52149e-22
      336.175   1.54154e-22
      336.279   1.56191e-22
      336.382   1.58222e-22
      336.486   1.60286e-22
      336.589   1.62339e-22
      336.693   1.64427e-22
      336.796   1.66503e-22
      336.900   1.68615e-22
      337.004   1.70738e-22
      337.107   1.72848e-22
      337.211   1.74993e-22
      337.315   1.77149e-22
      337.419   1.79315e-22
      337.523   1.81488e-22
      337.626   1.83653e-22
      337.730   1.85851e-22
      337.834   1.88056e-22
      337.938   1.90264e-22
      338.042   1.92462e-22
      338.146   1.94696e-22
      338.250   1.96941e-22
      338.354   1.99197e-22
      338.458   2.01462e-22
      338.562   2.03736e-22
      338.667   2.06039e-22
      338.771   2.08330e-22
      338.875   2.10628e-22
      338.979   2.12934e-22
      339.084   2.15270e-22
      339.188   2.17589e-22
      339.292   2.19920e-22
      339.397   2.22277e-22
      339.501   2.24621e-22
      339.606   2.26994e-22
      339.710   2.29348e-22
      339.815   2.31733e-22
      339.919   2.34100e-22
      340.024   2.36497e-22
      340.128   2.38873e-22
      340.233   2.41280e-22
      340.338   2.43691e-22
      340.442   2.46082e-22
      340.547   2.48502e-22
      340.652   2.50926e-22
      340.757   2.53352e-22
      340.862   2.55783e-22
      340.966   2.58194e-22
      341.071   2.60626e-22
      341.176   2.63064e-22
      341.281   2.65504e-22
      341.386   2.67947e-22
      341.491   2.70390e-22
      341.596   2.72838e-22
      341.702   2.75309e-22
      341.807   2.77753e-22
      341.912   2.80201e-22
      342.017   2.82650e-22
      342.122   2.85098e-22
      342.228   2.87566e-22
      342.333   2.90012e-22
      342.438   2.92459e-22
      342.544   2.94924e-22
      342.649   2.97364e-22
      342.754   2.99805e-22
      342.860   3.02262e-22
      342.965   3.04699e-22
      343.071   3.07150e-22
      343.176   3.09579e-22
      343.282   3.12028e-22
      343.388   3.14472e-22
      343.493   3.16942e-22
      343.599   3.19904e-22
      343.705   3.22923e-22
      343.810   3.25910e-22
      343.916   3.28932e-22
      344.022   3.31960e-22
      344.128   3.34988e-22
      344.234   3.38022e-22
      344.340   3.41056e-22
      344.446   3.44093e-22
      344.552   3.47132e-22
      344.658   3.50180e-22
      344.764   3.53220e-22
      344.870   3.56267e-22
      344.976   3.59309e-22
      345.082   3.62356e-22
      345.188   3.65403e-22
      345.294   3.68447e-22
      345.401   3.71522e-22
      345.507   3.74565e-22
      345.613   3.77606e-22
      345.719   3.80647e-22
      345.826   3.83716e-22
      345.932   3.86751e-22
      346.039   3.89812e-22
      346.145   3.92841e-22
      346.252   3.95896e-22
      346.358   3.98916e-22
      346.465   4.01958e-22
      346.571   4.04973e-22
      346.678   4.08005e-22
      346.785   4.11036e-22
      346.891   4.14028e-22
      346.998   4.17041e-22
      347.105   4.20051e-22
      347.212   4.23055e-22
      347.319   4.26050e-22
      347.425   4.29005e-22
      347.532   4.31985e-22
      347.639   4.34952e-22
      347.746   4.37910e-22
      347.853   4.40865e-22
      347.960   4.43802e-22
      348.067   4.46735e-22
      348.174   4.49653e-22
      348.281   4.52555e-22
      348.389   4.55480e-22
      348.496   4.58355e-22
      348.603   4.61232e-22
      348.710   4.64084e-22
      348.818   4.66957e-22
      348.925   4.69737e-22
      349.032   4.70190e-22
      349.140   4.65027e-22
      349.247   4.59952e-22
      349.355   4.54886e-22
      349.462   4.49914e-22
      349.570   4.44938e-22
      349.677   4.40063e-22
      349.785   4.35186e-22
      349.892   4.30405e-22
      350.000   4.25630e-22
      350.100   4.21249e-22
      350.193   4.17212e-22
      350.287   4.13162e-22
      350.380   4.09193e-22
      350.473   4.05259e-22
      350.567   4.01312e-22
      350.660   3.97443e-22
      350.754   3.93569e-22
      350.847   3.89770e-22
      350.941   3.85959e-22
      351.034   3.82223e-22
      351.128   3.78483e-22
      351.221   3.74812e-22
      351.315   3.71135e-22
      351.409   3.67487e-22
      351.502   3.63912e-22
      351.596   3.60329e-22
      351.690   3.56776e-22
      351.783   3.53296e-22
      351.877   3.49809e-22
      351.971   3.46349e-22
      352.065   3.42922e-22
      352.159   3.39525e-22
      352.252   3.36193e-22
      352.346   3.32853e-22
      352.440   3.29545e-22
      352.534   3.26268e-22
      352.628   3.23019e-22
      352.722   3.19796e-22
      352.816   3.16604e-22
      352.910   3.13440e-22
      353.004   3.10307e-22
      353.098   3.07197e-22
      353.192   3.04117e-22
      353.287   3.01032e-22
      353.381   2.98005e-22
      353.475   2.95011e-22
      353.569   2.92038e-22
      353.663   2.89093e-22
      353.758   2.86147e-22
      353.852   2.83257e-22
      353.946   2.80392e-22
      354.041   2.77522e-22
      354.135   2.74709e-22
      354.229   2.71919e-22
      354.324   2.69129e-22
      354.418   2.66389e-22
      354.513   2.63647e-22
      354.607   2.60963e-22
      354.702   2.57862e-22
      354.796   2.54537e-22
      354.891   2.51188e-22
      354.985   2.47919e-22
      355.080   2.44655e-22
      355.175   2.41431e-22
      355.269   2.38280e-22
      355.364   2.35136e-22
      355.459   2.32032e-22
      355.553   2.28998e-22
      355.648   2.25971e-22
      355.743   2.22982e-22
      355.838   2.20027e-22
      355.933   2.17114e-22
      356.027   2.14265e-22
      356.122   2.11421e-22
      356.217   2.08613e-22
      356.312   2.05843e-22
      356.407   2.03105e-22
      356.502   2.00402e-22
      356.597   1.97732e-22
      356.692   1.95098e-22
      356.787   1.92497e-22
      356.882   1.89926e-22
      356.977   1.87391e-22
      357.073   1.84861e-22
      357.168   1.82386e-22
      357.263   1.79945e-22
      357.358   1.77534e-22
      357.453   1.75155e-22
      357.549   1.72781e-22
      357.644   1.70461e-22
      357.739   1.68172e-22
      357.835   1.65887e-22
      357.930   1.63655e-22
      358.025   1.61451e-22
      358.121   1.59253e-22
      358.216   1.57105e-22
      358.312   1.54962e-22
      358.407   1.52870e-22
      358.503   1.50782e-22
      358.598   1.48744e-22
      358.694   1.46709e-22
      358.790   1.44701e-22
      358.885   1.42738e-22
      358.981   1.40782e-22
      359.076   1.38871e-22
      359.172   1.36965e-22
      359.268   1.35082e-22
      359.364   1.33224e-22
      359.459   1.31411e-22
      359.555   1.29601e-22
      359.651   1.27815e-22
      359.747   1.26051e-22
      359.843   1.24312e-22
      359.939   1.22594e-22
      360.035   1.20900e-22
      360.131   1.19228e-22
      360.227   1.17576e-22
      360.323   1.15947e-22
      360.419   1.15001e-22
      360.515   1.14644e-22
      360.611   1.14396e-22
      360.707   1.14143e-22
      360.803   1.13888e-22
      360.899   1.13629e-22
      360.995   1.13367e-22
      361.092   1.13098e-22
      361.188   1.12829e-22
      361.284   1.12556e-22
      361.380   1.12279e-22
      361.477   1.11997e-22
      361.573   1.11714e-22
      361.669   1.11427e-22
      361.766   1.11134e-22
      361.862   1.10841e-22
      361.959   1.10542e-22
      362.055   1.10241e-22
      362.152   1.09936e-22
      362.248   1.09630e-22
      362.345   1.09317e-22
      362.441   1.09006e-22
      362.538   1.08687e-22
      362.635   1.08366e-22
      362.731   1.08045e-22
      362.828   1.07716e-22
      362.925   1.07386e-22
      363.021   1.07057e-22
      363.118   1.06721e-22
      363.215   1.06382e-22
      363.312   1.06040e-22
      363.409   1.05696e-22
      363.505   1.05352e-22
      363.602   1.05002e-22
      363.699   1.04650e-22
      363.796   1.04295e-22
      363.893   1.03938e-22
      363.990   1.03577e-22
      364.087   1.03215e-22
      364.184   1.02850e-22
      364.281   1.02483e-22
      364.378   1.02114e-22
      364.475   1.01742e-22
      364.573   1.01364e-22
      364.670   1.00987e-22
      364.767   1.00609e-22
      364.864   1.00229e-22
      364.961   9.98455e-23
      365.059   9.94569e-23
      365.156   9.90704e-23
      365.253   9.86818e-23
      365.351   9.82871e-23
      365.448   9.78943e-23
      365.545   9.75005e-23
      365.643   9.71003e-23
      365.740   9.67020e-23
      365.838   9.62985e-23
      365.935   9.58970e-23
      366.033   9.54905e-23
      366.130   9.50859e-23
      366.228   9.48504e-23
      366.326   9.48554e-23
      366.423   9.49324e-23
      366.521   9.50060e-23
      366.618   9.50733e-23
      366.716   9.51357e-23
      366.814   9.51933e-23
      366.912   9.52459e-23
      367.010   9.52941e-23
      367.107   9.53361e-23
      367.205   9.53733e-23
      367.303   9.54056e-23
      367.401   9.54326e-23
      367.499   9.54547e-23
      367.597   9.54718e-23
      367.695   9.54831e-23
      367.793   9.54898e-23
      367.891   9.54919e-23
      367.989   9.54893e-23
      368.087   9.54810e-23
      368.185   9.54673e-23
      368.283   9.54492e-23
      368.381   9.54263e-23
      368.480   9.53972e-23
      368.578   9.53644e-23
      368.676   9.53264e-23
      368.774   9.52839e-23
      368.873   9.52358e-23
      368.971   9.51832e-23
      369.069   9.51261e-23
      369.168   9.50631e-23
      369.266   9.49953e-23
      369.364   9.49234e-23
      369.463   9.48470e-23
      369.561   9.47659e-23
      369.660   9.46787e-23
      369.758   9.45875e-23
      369.857   9.44917e-23
      369.955   9.43920e-23
      370.054   9.42861e-23
      370.153   9.41756e-23
      370.251   9.40621e-23
      370.350   9.39433e-23
      370.449   9.38197e-23
      370.547   9.36924e-23
      370.646   9.35596e-23
      370.745   9.34227e-23
      370.844   9.32814e-23
      370.943   9.31356e-23
      371.041   9.29870e-23
      371.140   9.28322e-23
      371.239   9.26736e-23
      371.338   9.25113e-23
      371.437   9.23443e-23
      371.536   9.21726e-23
      371.635   9.19972e-23
      371.734   9.18182e-23
      371.833   9.16349e-23
      371.932   9.14476e-23
      372.032   9.12549e-23
      372.131   9.16893e-23
      372.230   9.34471e-23
      372.329   9.59022e-23
      372.428   9.83958e-23
      372.528   1.00953e-22
      372.627   1.03524e-22
      372.726   1.06134e-22
      372.826   1.08810e-22
      372.925   1.11498e-22
      373.024   1.14224e-22
      373.124   1.17016e-22
      373.223   1.19815e-22
      373.323   1.22682e-22
      373.422   1.25559e-22
      373.522   1.28500e-22
      373.621   1.31446e-22
      373.721   1.34462e-22
      373.820   1.37479e-22
      373.920   1.40563e-22
      374.020   1.43685e-22
      374.119   1.46805e-22
      374.219   1.49994e-22
      374.319   1.53215e-22
      374.419   1.56466e-22
      374.518   1.59719e-22
      374.618   1.63036e-22
      374.718   1.66385e-22
      374.818   1.69759e-22
      374.918   1.73163e-22
      375.018   1.76599e-22
      375.118   1.80061e-22
      375.218   1.83551e-22
      375.318   1.87068e-22
      375.418   1.90611e-22
      375.518   1.94176e-22
      375.618   1.97765e-22
      375.718   2.01377e-22
      375.818   2.05010e-22
      375.918   2.08665e-22
      376.019   2.12379e-22
      376.119   2.16076e-22
      376.219   2.19787e-22
      376.319   2.23519e-22
      376.420   2.27303e-22
      376.520   2.31063e-22
      376.620   2.34839e-22
      376.721   2.38666e-22
      376.821   2.42466e-22
      376.922   2.46365e-22
      377.022   2.50854e-22
      377.122   2.56055e-22
      377.223   2.61352e-22
      377.323   2.66634e-22
      377.424   2.72012e-22
      377.525   2.77422e-22
      377.625   2.82811e-22
      377.726   2.88287e-22
      377.827   2.93799e-22
      377.927   2.99285e-22
      378.028   3.04851e-22
      378.129   3.10447e-22
      378.230   3.16071e-22
      378.330   3.21663e-22
      378.431   3.27331e-22
      378.532   3.33018e-22
      378.633   3.38727e-22
      378.734   3.44452e-22
      378.835   3.50186e-22
      378.936   3.55934e-22
      379.037   3.61691e-22
      379.138   3.67451e-22
      379.239   3.73224e-22
      379.340   3.78998e-22
      379.441   3.84777e-22
      379.542   3.90552e-22
      379.643   3.96324e-22
      379.745   4.02153e-22
      379.846   4.07917e-22
      379.947   4.13667e-22
      380.048   4.19409e-22
      380.150   4.25199e-22
      380.251   4.30915e-22
      380.352   4.36612e-22
      380.454   4.42346e-22
      380.555   4.48005e-22
      380.656   4.53637e-22
      380.758   4.59303e-22
      380.859   4.64882e-22
      380.961   4.70486e-22
      381.062   4.76003e-22
      381.164   4.81546e-22
      381.266   4.87050e-22
      381.367   4.92462e-22
      381.469   4.97889e-22
      381.570   5.03217e-22
      381.672   5.08554e-22
      381.774   5.13851e-22
      381.876   5.19091e-22
      381.977   5.24371e-22
      382.079   5.30102e-22
      382.181   5.36166e-22
      382.283   5.42182e-22
      382.385   5.48147e-22
      382.487   5.54065e-22
      382.589   5.59919e-22
      382.691   5.65714e-22
      382.793   5.71452e-22
      382.895   5.77133e-22
      382.997   5.82747e-22
      383.099   5.88294e-22
      383.201   5.93770e-22
      383.303   5.99185e-22
      383.405   6.04519e-22
      383.507   6.09772e-22
      383.610   6.15008e-22
      383.712   6.20118e-22
      383.814   6.25141e-22
      383.916   6.30086e-22
      384.019   6.34993e-22
      384.121   6.39772e-22
      384.223   6.44454e-22
      384.326   6.49104e-22
      384.428   6.53597e-22
      384.531   6.58036e-22
      384.633   6.62345e-22
      384.736   6.66601e-22
      384.838   6.70714e-22
      384.941   6.74775e-22
      385.043   6.78696e-22
      385.146   6.82560e-22
      385.249   6.86320e-22
      385.351   6.89944e-22
      385.454   6.93503e-22
      385.557   6.96954e-22
      385.660   7.00307e-22
      385.762   7.03520e-22
      385.865   7.06657e-22
      385.968   7.09691e-22
      386.071   7.12617e-22
      386.174   7.15439e-22
      386.277   7.18149e-22
      386.380   7.20748e-22
      386.483   7.23239e-22
      386.586   7.25626e-22
      386.689   7.27901e-22
      386.792   7.30067e-22
      386.895   7.32123e-22
      386.998   7.34069e-22
      387.101   7.32576e-22
      387.204   7.19622e-22
      387.308   7.02967e-22
      387.411   6.86848e-22
      387.514   6.71096e-22
      387.617   6.55710e-22
      387.721   6.40531e-22
      387.824   6.25839e-22
      387.927   6.11471e-22
      388.031   5.97304e-22
      388.134   5.83598e-22
      388.238   5.70081e-22
      388.341   5.56988e-22
      388.445   5.44076e-22
      388.548   5.31572e-22
      388.652   5.19246e-22
      388.755   5.07317e-22
      388.859   4.95544e-22
      388.962   4.84153e-22
      389.066   4.72907e-22
      389.170   4.61932e-22
      389.274   4.51201e-22
      389.377   4.40815e-22
      389.481   4.30563e-22
      389.585   4.20555e-22
      389.689   4.10773e-22
      389.793   4.01211e-22
      389.897   3.91878e-22
      390.000   3.82838e-22
      390.104   3.73925e-22
      390.208   3.65210e-22
      390.312   3.56699e-22
      390.416   3.48383e-22
      390.520   3.40250e-22
      390.625   3.32226e-22
      390.729   3.24472e-22
      390.833   3.16889e-22
      390.937   3.09483e-22
      391.041   3.02249e-22
      391.145   2.95181e-22
      391.250   2.88207e-22
      391.354   2.81459e-22
      391.458   2.74865e-22
      391.563   2.68360e-22
      391.667   2.62069e-22
      391.771   2.55924e-22
      391.876   2.49861e-22
      391.980   2.43996e-22
      392.085   2.38214e-22
      392.189   2.32620e-22
      392.294   2.27102e-22
      392.398   2.21767e-22
      392.503   2.16505e-22
      392.607   2.11414e-22
      392.712   2.06395e-22
      392.817   2.01491e-22
      392.921   1.96750e-22
      393.026   1.92073e-22
      393.131   1.87508e-22
      393.236   1.83046e-22
      393.340   1.78733e-22
      393.445   1.74481e-22
      393.550   1.70328e-22
      393.655   1.66271e-22
      393.760   1.62311e-22
      393.865   1.58443e-22
      393.970   1.54669e-22
      394.075   1.50980e-22
      394.180   1.47380e-22
      394.285   1.43864e-22
      394.390   1.40432e-22
      394.495   1.37078e-22
      394.600   1.33806e-22
      394.706   1.30580e-22
      394.811   1.27461e-22
      394.916   1.24413e-22
      395.021   1.21438e-22
      395.126   1.18536e-22
      395.232   1.15672e-22
      395.337   1.12904e-22
      395.443   1.10176e-22
      395.548   1.07538e-22
      395.653   1.04963e-22
      395.759   1.02424e-22
      395.864   9.99700e-23
      395.970   9.75510e-23
      396.075   9.52119e-23
      396.181   9.29060e-23
      396.286   9.06756e-23
      396.392   8.84801e-23
      396.498   8.63362e-23
      396.603   8.42611e-23
      396.709   8.22184e-23
      396.815   8.02235e-23
      396.921   7.82760e-23
      397.026   7.63946e-23
      397.132   7.45392e-23
      397.238   7.27297e-23
      397.344   7.09614e-23
      397.450   6.92389e-23
      397.556   6.75547e-23
      397.662   6.59112e-23
      397.768   6.43078e-23
      397.874   6.27421e-23
      397.980   6.12140e-23
      398.086   5.97221e-23
      398.192   5.82670e-23
      398.298   5.68462e-23
      398.404   5.54597e-23
      398.510   5.41063e-23
      398.617   5.27742e-23
      398.723   5.14855e-23
      398.829   5.02274e-23
      398.935   4.89998e-23
      399.042   4.77913e-23
      399.148   4.66219e-23
      399.255   4.54712e-23
      399.361   4.43586e-23
      399.467   4.32715e-23
      399.574   4.22024e-23
      399.680   4.11680e-23
      399.787   4.01491e-23
      399.893       0.00000
      400.000       0.00000
