Filter: Al-poly/Ti-poly
observation_date 22-Sept-2010 22:40:45
wavelength effective area
      1.00000   2.76606e-10
      1.10000   7.87995e-10
      1.20000   2.04352e-09
      1.30000   4.87280e-09
      1.40000   1.10215e-08
      1.50000   2.34292e-08
      1.60000   4.72414e-08
      1.70000   9.13105e-08
      1.80000   1.69182e-07
      1.90000   3.02493e-07
      2.00000   5.22945e-07
      2.10000   8.77999e-07
      2.20000   1.43850e-06
      2.30000   2.29679e-06
      2.40000   3.58024e-06
      2.50000   5.73252e-06
      2.60000   8.86507e-06
      2.70000   1.32009e-05
      2.80000   1.92802e-05
      2.90000   2.78672e-05
      3.00000   3.96472e-05
      3.10000   5.56775e-05
      3.20000   7.73294e-05
      3.30000   0.000106300
      3.40000   0.000144590
      3.50000   0.000194754
      3.60000   0.000261088
      3.70000   0.000346275
      3.80000   0.000457310
      3.90000   0.000600544
      4.00000   0.000783668
      4.10000    0.00101780
      4.20000    0.00131705
      4.30000    0.00169926
      4.40000    0.00218636
      4.50000    0.00280509
      4.60000    0.00358656
      4.70000    0.00458509
      4.80000    0.00585500
      4.90000    0.00738004
      5.00000    0.00954588
      5.10000     0.0121727
      5.20000     0.0155660
      5.30000     0.0197360
      5.40000     0.0249794
      5.50000     0.0316684
      5.60000     0.0389140
      5.70000     0.0503723
      5.80000     0.0587958
      5.90000     0.0893740
      6.00000      0.119597
      6.10000      0.152148
      6.20000      0.185971
      6.30000      0.217859
      6.40000      0.244776
      6.50000      0.264046
      6.60000      0.271914
      6.70000      0.278890
      6.80000      0.277767
      6.90000      0.362402
      7.00000      0.391886
      7.10000      0.412075
      7.20000      0.427402
      7.30000      0.439286
      7.40000      0.447576
      7.50000      0.453486
      7.60000      0.457143
      7.70000      0.457380
      7.80000      0.453385
      7.90000      0.449892
      8.00000      0.753407
      8.10000      0.822573
      8.20000      0.833647
      8.30000      0.840818
      8.40000      0.844704
      8.50000      0.847190
      8.60000      0.848019
      8.70000      0.847759
      8.80000      0.846138
      8.90000      0.843591
      9.00000      0.840068
      9.10000      0.835621
      9.20000      0.830424
      9.30000      0.824412
      9.40000      0.817722
      9.50000      0.810414
      9.60000      0.802451
      9.70000      0.793936
      9.80000      0.785012
      9.90000      0.775711
      10.0000      0.766092
      10.1000      0.756166
      10.2000      0.745959
      10.3000      0.735427
      10.4000      0.724598
      10.5000      0.713496
      10.6000      0.702160
      10.7000      0.690615
      10.8000      0.678876
      10.9000      0.666974
      11.0000      0.654924
      11.1000      0.642757
      11.2000      0.630481
      11.3000      0.618129
      11.4000      0.605699
      11.5000      0.593197
      11.6000      0.580642
      11.7000      0.567996
      11.8000      0.555328
      11.9000      0.542594
      12.0000      0.529231
      12.1000      0.517870
      12.2000      0.515607
      12.3000      0.507880
      12.4000      0.496435
      12.5000      0.484747
      12.6000      0.473018
      12.7000      0.461329
      12.8000      0.449714
      12.9000      0.438183
      13.0000      0.426771
      13.1000      0.415506
      13.2000      0.404398
      13.3000      0.393460
      13.4000      0.382705
      13.5000      0.372244
      13.6000      0.362057
      13.7000      0.352041
      13.8000      0.342191
      13.9000      0.332521
      14.0000      0.323029
      14.1000      0.313704
      14.2000      0.304546
      14.3000      0.295552
      14.4000      0.286711
      14.5000      0.278036
      14.6000      0.269529
      14.7000      0.261178
      14.8000      0.252986
      14.9000      0.244954
      15.0000      0.237082
      15.1000      0.229377
      15.2000      0.221864
      15.3000      0.214522
      15.4000      0.207344
      15.5000      0.200331
      15.6000      0.193492
      15.7000      0.186831
      15.8000      0.180374
      15.9000      0.174093
      16.0000      0.167983
      16.1000      0.162045
      16.2000      0.156312
      16.3000      0.150741
      16.4000      0.145316
      16.5000      0.140033
      16.6000      0.134905
      16.7000      0.129935
      16.8000      0.125094
      16.9000      0.120380
      17.0000      0.115813
      17.1000      0.111392
      17.2000      0.107086
      17.3000      0.102901
      17.4000     0.0989320
      17.5000     0.0951496
      17.6000     0.0915211
      17.7000     0.0880715
      17.8000     0.0848630
      17.9000     0.0817457
      18.0000     0.0786970
      18.1000     0.0757534
      18.2000     0.0728615
      18.3000     0.0700113
      18.4000     0.0672075
      18.5000     0.0644532
      18.6000     0.0617338
      18.7000     0.0590493
      18.8000     0.0564624
      18.9000     0.0539498
      19.0000     0.0515382
      19.1000     0.0492266
      19.2000     0.0469890
      19.3000     0.0448634
      19.4000     0.0428268
      19.5000     0.0408583
      19.6000     0.0390095
      19.7000     0.0372269
      19.8000     0.0355043
      19.9000     0.0338859
      20.0000     0.0323146
      20.1000     0.0308054
      20.2000     0.0293637
      20.3000     0.0279624
      20.4000     0.0266322
      20.5000     0.0253471
      20.6000     0.0241034
      20.7000     0.0229266
      20.8000     0.0217814
      20.9000     0.0206898
      21.0000     0.0196811
      21.1000     0.0187367
      21.2000     0.0179596
      21.3000     0.0172335
      21.4000     0.0166117
      21.5000     0.0160979
      21.6000     0.0156919
      21.7000     0.0152815
      21.8000     0.0148712
      21.9000     0.0144386
      22.0000     0.0139925
      22.1000     0.0135092
      22.2000     0.0129551
      22.3000     0.0123412
      22.4000     0.0114974
      22.5000     0.0105883
      22.6000    0.00882694
      22.7000    0.00800729
      22.8000     0.0118303
      22.9000     0.0161143
      23.0000     0.0200780
      23.1000     0.0223844
      23.2000     0.0230809
      23.3000     0.0228039
      23.4000     0.0220231
      23.5000     0.0212438
      23.6000     0.0204700
      23.7000     0.0196778
      23.8000     0.0188917
      23.9000     0.0181392
      24.0000     0.0173962
      24.1000     0.0166779
      24.2000     0.0159729
      24.3000     0.0153008
      24.4000     0.0146429
      24.5000     0.0140131
      24.6000     0.0133996
      24.7000     0.0128148
      24.8000     0.0122463
      24.9000     0.0117035
      25.0000     0.0111770
      25.1000     0.0106755
      25.2000     0.0101892
      25.3000    0.00972605
      25.4000    0.00927715
      25.5000    0.00885139
      25.6000    0.00843854
      25.7000    0.00804873
      25.8000    0.00766919
      25.9000    0.00731188
      26.0000    0.00696253
      26.1000    0.00663521
      26.2000    0.00631357
      26.3000    0.00601462
      26.4000    0.00571890
      26.5000    0.00544594
      26.6000    0.00517576
      26.7000    0.00492536
      26.8000    0.00467976
      26.9000    0.00444965
      27.0000    0.00422593
      27.1000    0.00401364
      27.2000    0.00380934
      27.3000     0.0160528
      27.4000     0.0436739
      27.5000     0.0634832
      27.6000     0.0617394
      27.7000     0.0600128
      27.8000     0.0583101
      27.9000     0.0566240
      28.0000     0.0549985
      28.1000     0.0533977
      28.2000     0.0518463
      28.3000     0.0503326
      28.4000     0.0488520
      28.5000     0.0474203
      28.6000     0.0460076
      28.7000     0.0446686
      28.8000     0.0433433
      28.9000     0.0420663
      29.0000     0.0408123
      29.1000     0.0395912
      29.2000     0.0384053
      29.3000     0.0372376
      29.4000     0.0361182
      29.5000     0.0350106
      29.6000     0.0339463
      29.7000     0.0329016
      29.8000     0.0318846
      29.9000     0.0309007
      30.0000     0.0299289
      30.1000     0.0290029
      30.2000     0.0280869
      30.3000     0.0289411
      30.4000     0.0307866
      30.5000     0.0320182
      30.6000     0.0310554
      30.7000     0.0301031
      30.8000     0.0291886
      30.9000     0.0282925
      31.0000     0.0274170
      31.1000     0.0265755
      31.2000     0.0257433
      31.3000     0.0249475
      31.4000     0.0241663
      31.5000     0.0234047
      31.6000     0.0226744
      31.7000     0.0219524
      31.8000     0.0212615
      31.9000     0.0205842
      32.0000     0.0199191
      32.1000     0.0192745
      32.2000     0.0186373
      32.3000     0.0180271
      32.4000     0.0174327
      32.5000     0.0168491
      32.6000     0.0163035
      32.7000     0.0157655
      32.8000     0.0152463
      32.9000     0.0147449
      33.0000     0.0142492
      33.1000     0.0137936
      33.2000     0.0133490
      33.3000     0.0129150
      33.4000     0.0125004
      33.5000     0.0120907
      33.6000     0.0116969
      33.7000     0.0113159
      33.8000     0.0109392
      33.9000     0.0105829
      34.0000     0.0102329
      34.1000    0.00989098
      34.2000    0.00956563
      34.3000    0.00924392
      34.4000    0.00893297
      34.5000    0.00863469
      34.6000    0.00833978
      34.7000    0.00805589
      34.8000    0.00777879
      34.9000    0.00750484
      35.0000    0.00724754
      35.1000    0.00699458
      35.2000    0.00674644
      35.3000    0.00651689
      35.4000    0.00628999
      35.5000    0.00606931
      35.6000    0.00586005
      35.7000    0.00565322
      35.8000    0.00545400
      35.9000    0.00526354
      36.0000    0.00507531
      36.1000    0.00489556
      36.2000    0.00472248
      36.3000    0.00455143
      36.4000    0.00438934
      36.5000    0.00423226
      36.6000    0.00407707
      36.7000    0.00393097
      36.8000    0.00378869
      36.9000    0.00364813
      37.0000    0.00351650
      37.1000    0.00338783
      37.2000    0.00326071
      37.3000    0.00314219
      37.4000    0.00302603
      37.5000    0.00291131
      37.6000    0.00280458
      37.7000    0.00269988
      37.8000    0.00259648
      37.9000    0.00250039
      38.0000    0.00240622
      38.1000    0.00231322
      38.2000    0.00222671
      38.3000    0.00214213
      38.4000    0.00205860
      38.5000    0.00198070
      38.6000    0.00190486
      38.7000    0.00182999
      38.8000    0.00175983
      38.9000    0.00169197
      39.0000    0.00162497
      39.1000    0.00156178
      39.2000    0.00150118
      39.3000    0.00144135
      39.4000    0.00138442
      39.5000    0.00133038
      39.6000    0.00127705
      39.7000    0.00122574
      39.8000    0.00117768
      39.9000    0.00113024
      40.0000    0.00108400
      40.1000    0.00104136
      40.2000   0.000999274
      40.3000   0.000957744
      40.4000   0.000919802
      40.5000   0.000882505
      40.6000   0.000845698
      40.7000   0.000811463
      40.8000   0.000778468
      40.9000   0.000745912
      41.0000   0.000714998
      41.1000   0.000685860
      41.2000   0.000657116
      41.3000   0.000629201
      41.4000   0.000603561
      41.5000   0.000578263
      41.6000   0.000553307
      41.7000   0.000530499
      41.8000   0.000508254
      41.9000   0.000486312
      42.0000   0.000465686
      42.1000   0.000446185
      42.2000   0.000426949
      42.3000   0.000408271
      42.4000   0.000391198
      42.5000   0.000374358
      42.6000   0.000357751
      42.7000   0.000342524
      42.8000   0.000327812
      42.9000   0.000313303
      43.0000   0.000299482
      43.1000   0.000286661
      43.2000   0.000274019
      43.3000   0.000261553
      43.4000    0.00232136
      43.5000    0.00606753
      43.6000     0.0132069
      43.7000     0.0221671
      43.8000     0.0277836
      43.9000     0.0286106
      44.0000     0.0277067
      44.1000     0.0252189
      44.2000     0.0245247
      44.3000     0.0239868
      44.4000     0.0234633
      44.5000     0.0229580
      44.6000     0.0224544
      44.7000     0.0219524
      44.8000     0.0214770
      44.9000     0.0210067
      45.0000     0.0205380
      45.1000     0.0200785
      45.2000     0.0196394
      45.3000     0.0192017
      45.4000     0.0187654
      45.5000     0.0183476
      45.6000     0.0179393
      45.7000     0.0175323
      45.8000     0.0171276
      45.9000     0.0167473
      46.0000     0.0163682
      46.1000     0.0159904
      46.2000     0.0156352
      46.3000     0.0153180
      46.4000     0.0150019
      46.5000     0.0146867
      46.6000     0.0143889
      46.7000     0.0141002
      46.8000     0.0138125
      46.9000     0.0135256
      47.0000     0.0132613
      47.1000     0.0129993
      47.2000     0.0127381
      47.3000     0.0124805
      47.4000     0.0122367
      47.5000     0.0119938
      47.6000     0.0117516
      47.7000     0.0115159
      47.8000     0.0112902
      47.9000     0.0110653
      48.0000     0.0108410
      48.1000     0.0106248
      48.2000     0.0104149
      48.3000     0.0102056
      48.4000    0.00999709
      48.5000    0.00979889
      48.6000    0.00960520
      48.7000    0.00941214
      48.8000    0.00921968
      48.9000    0.00903738
      49.0000    0.00885756
      49.1000    0.00867833
      49.2000    0.00849969
      49.3000    0.00833120
      49.4000    0.00816407
      49.5000    0.00799748
      49.6000    0.00783143
      49.7000    0.00767545
      49.8000    0.00752021
      49.9000    0.00736547
      50.0000    0.00721135
      50.1000    0.00706434
      50.2000    0.00692215
      50.3000    0.00678242
      50.4000    0.00664535
      50.5000    0.00651087
      50.6000    0.00637891
      50.7000    0.00624935
      50.8000    0.00612209
      50.9000    0.00599751
      51.0000    0.00587544
      51.1000    0.00575580
      51.2000    0.00563829
      51.3000    0.00552308
      51.4000    0.00541036
      51.5000    0.00529949
      51.6000    0.00519063
      51.7000    0.00508370
      51.8000    0.00497782
      51.9000    0.00487391
      52.0000    0.00477189
      52.1000    0.00467194
      52.2000    0.00457378
      52.3000    0.00447734
      52.4000    0.00438311
      52.5000    0.00429066
      52.6000    0.00419857
      52.7000    0.00410689
      52.8000    0.00401687
      52.9000    0.00392884
      53.0000    0.00384272
      53.1000    0.00375820
      53.2000    0.00367548
      53.3000    0.00359433
      53.4000    0.00351478
      53.5000    0.00343699
      53.6000    0.00336068
      53.7000    0.00328584
      53.8000    0.00321261
      53.9000    0.00314081
      54.0000    0.00307055
      54.1000    0.00300196
      54.2000    0.00293466
      54.3000    0.00286861
      54.4000    0.00280397
      54.5000    0.00274062
      54.6000    0.00267860
      54.7000    0.00261805
      54.8000    0.00255874
      54.9000    0.00250056
      55.0000    0.00244364
      55.1000    0.00238786
      55.2000    0.00233121
      55.3000    0.00227400
      55.4000    0.00221800
      55.5000    0.00216314
      55.6000    0.00210962
      55.7000    0.00205734
      55.8000    0.00200617
      55.9000    0.00195621
      56.0000    0.00190771
      56.1000    0.00185955
      56.2000    0.00181186
      56.3000    0.00176539
      56.4000    0.00171995
      56.5000    0.00167554
      56.6000    0.00163220
      56.7000    0.00158995
      56.8000    0.00154864
      56.9000    0.00150835
      57.0000    0.00146967
      57.1000    0.00143227
      57.2000    0.00139571
      57.3000    0.00135995
      57.4000    0.00132508
      57.5000    0.00129105
      57.6000    0.00125780
      57.7000    0.00122530
      57.8000    0.00119363
      57.9000    0.00116275
      58.0000    0.00113259
      58.1000    0.00110311
      58.2000    0.00107440
      58.3000    0.00104637
      58.4000    0.00101897
      58.5000   0.000992223
      58.6000   0.000966186
      58.7000   0.000940797
      58.8000   0.000915994
      58.9000   0.000891769
      59.0000   0.000868131
      59.1000   0.000845101
      59.2000   0.000822626
      59.3000   0.000800706
      59.4000   0.000779327
      59.5000   0.000758509
      59.6000   0.000738217
      59.7000   0.000718399
      59.8000   0.000699044
      59.9000   0.000680161
      60.0000   0.000661811
      60.1000   0.000643916
      60.2000   0.000626463
      60.3000   0.000609443
      60.4000   0.000592843
      60.5000   0.000576691
      60.6000   0.000560931
      60.7000   0.000545564
      60.8000   0.000530587
      60.9000   0.000515974
      61.0000   0.000501743
      61.1000   0.000487886
      61.2000   0.000474383
      61.3000   0.000461229
      61.4000   0.000448413
      61.5000   0.000435928
      61.6000   0.000423775
      61.7000   0.000411963
      61.8000   0.000400603
      61.9000   0.000389586
      62.0000   0.000378848
      62.1000   0.000368388
      62.2000   0.000358225
      62.3000   0.000348321
      62.4000   0.000338661
      62.5000   0.000329243
      62.6000   0.000320062
      62.7000   0.000311137
      62.8000   0.000302696
      62.9000   0.000294482
      63.0000   0.000286481
      63.1000   0.000278682
      63.2000   0.000271071
      63.3000   0.000263645
      63.4000   0.000256407
      63.5000   0.000249373
      63.6000   0.000242522
      63.7000   0.000235846
      63.8000   0.000229343
      63.9000   0.000223005
      64.0000   0.000216826
      64.1000   0.000210807
      64.2000   0.000204954
      64.3000   0.000199262
      64.4000   0.000193717
      64.5000   0.000188312
      64.6000   0.000183044
      64.7000   0.000177910
      64.8000   0.000172909
      64.9000   0.000168038
      65.0000   0.000163298
      65.1000   0.000158696
      65.2000   0.000154219
      65.3000   0.000149856
      65.4000   0.000145608
      65.5000   0.000141469
      65.6000   0.000137436
      65.7000   0.000133511
      65.8000   0.000129693
      65.9000   0.000125981
      66.0000   0.000122375
      66.1000   0.000118872
      66.2000   0.000115463
      66.3000   0.000112143
      66.4000   0.000108909
      66.5000   0.000105760
      66.6000   0.000102696
      66.7000   9.97172e-05
      66.8000   9.68239e-05
      66.9000   9.40302e-05
      67.0000   9.13298e-05
      67.1000   8.87028e-05
      67.2000   8.61460e-05
      67.3000   8.36616e-05
      67.4000   8.12442e-05
      67.5000   7.88931e-05
      67.6000   7.66069e-05
      67.7000   7.43841e-05
      67.8000   7.22200e-05
      67.9000   7.01099e-05
      68.0000   6.80631e-05
      68.1000   6.60808e-05
      68.2000   6.41527e-05
      68.3000   6.22785e-05
      68.4000   6.04565e-05
      68.5000   5.86854e-05
      68.6000   5.69639e-05
      68.7000   5.52907e-05
      68.8000   5.36637e-05
      68.9000   5.20959e-05
      69.0000   5.06508e-05
      69.1000   4.93992e-05
      69.2000   4.82645e-05
      69.3000   4.71638e-05
      69.4000   4.61055e-05
      69.5000   4.50506e-05
      69.6000   4.39915e-05
      69.7000   4.29734e-05
      69.8000   4.19990e-05
      69.9000   4.10456e-05
      70.0000   4.01117e-05
      70.1000   3.91873e-05
      70.2000   3.83322e-05
      70.3000   3.75443e-05
      70.4000   3.67705e-05
      70.5000   3.60186e-05
      70.6000   3.52868e-05
      70.7000   3.45695e-05
      70.8000   3.38650e-05
      70.9000   3.31587e-05
      71.0000   3.24527e-05
      71.1000   3.17769e-05
      71.2000   3.11302e-05
      71.3000   3.04672e-05
      71.4000   2.97825e-05
      71.5000   2.91414e-05
      71.6000   2.85591e-05
      71.7000   2.79813e-05
      71.8000   2.73988e-05
      71.9000   2.68363e-05
      72.0000   2.63074e-05
      72.1000   2.57782e-05
      72.2000   2.52073e-05
      72.3000   2.46500e-05
      72.4000   2.41442e-05
      72.5000   2.36492e-05
      72.6000   2.31642e-05
      72.7000   2.26890e-05
      72.8000   2.22231e-05
      72.9000   2.17667e-05
      73.0000   2.13263e-05
      73.1000   2.08981e-05
      73.2000   2.04786e-05
      73.3000   2.00676e-05
      73.4000   1.96671e-05
      73.5000   1.92786e-05
      73.6000   1.88976e-05
      73.7000   1.85240e-05
      73.8000   1.81574e-05
      73.9000   1.77977e-05
      74.0000   1.74465e-05
      74.1000   1.71194e-05
      74.2000   1.68035e-05
      74.3000   1.64768e-05
      74.4000   1.61436e-05
      74.5000   1.58201e-05
      74.6000   1.55099e-05
      74.7000   1.52057e-05
      74.8000   1.49082e-05
      74.9000   1.46182e-05
      75.0000   1.43328e-05
      75.1000   1.40524e-05
      75.2000   1.37773e-05
      75.3000   1.35073e-05
      75.4000   1.32439e-05
      75.5000   1.29888e-05
      75.6000   1.27383e-05
      75.7000   1.24925e-05
      75.8000   1.22518e-05
      75.9000   1.20175e-05
      76.0000   1.17894e-05
      76.1000   1.15744e-05
      76.2000   1.13646e-05
      76.3000   1.11587e-05
      76.4000   1.09586e-05
      76.5000   1.07621e-05
      76.6000   1.05689e-05
      76.7000   1.03789e-05
      76.8000   1.01921e-05
      76.9000   1.00086e-05
      77.0000   9.82852e-06
      77.1000   9.65174e-06
      77.2000   9.47819e-06
      77.3000   9.30775e-06
      77.4000   9.14031e-06
      77.5000   8.97562e-06
      77.6000   8.81185e-06
      77.7000   8.65094e-06
      77.8000   8.49273e-06
      77.9000   8.33712e-06
      78.0000   8.18291e-06
      78.1000   8.02788e-06
      78.2000   7.87589e-06
      78.3000   7.73440e-06
      78.4000   7.59825e-06
      78.5000   7.46378e-06
      78.6000   7.32939e-06
      78.7000   7.19736e-06
      78.8000   7.06476e-06
      78.9000   6.93376e-06
      79.0000   6.80498e-06
      79.1000   6.67835e-06
      79.2000   6.55414e-06
      79.3000   6.43438e-06
      79.4000   6.31764e-06
      79.5000   6.20243e-06
      79.6000   6.08714e-06
      79.7000   5.97389e-06
      79.8000   5.86154e-06
      79.9000   5.75061e-06
      80.0000   5.64145e-06
      80.1000   5.53170e-06
      80.2000   5.42377e-06
      80.3000   5.31518e-06
      80.4000   5.20621e-06
      80.5000   5.09929e-06
      80.6000   4.99457e-06
      80.7000   4.89197e-06
      80.8000   4.79179e-06
      80.9000   4.69453e-06
      81.0000   4.59918e-06
      81.1000   4.50576e-06
      81.2000   4.41420e-06
      81.3000   4.32450e-06
      81.4000   4.24084e-06
      81.5000   4.15901e-06
      81.6000   4.07993e-06
      81.7000   4.00485e-06
      81.8000   3.93128e-06
      81.9000   3.86078e-06
      82.0000   3.79241e-06
      82.1000   3.72536e-06
      82.2000   3.65817e-06
      82.3000   3.59231e-06
      82.4000   3.52968e-06
      82.5000   3.47231e-06
      82.6000   3.41574e-06
      82.7000   3.35905e-06
      82.8000   3.30203e-06
      82.9000   3.24584e-06
      83.0000   3.19092e-06
      83.1000   3.13706e-06
      83.2000   3.08412e-06
      83.3000   3.03210e-06
      83.4000   2.98105e-06
      83.5000   2.93105e-06
      83.6000   2.88264e-06
      83.7000   2.83499e-06
      83.8000   2.78786e-06
      83.9000   2.74093e-06
      84.0000   2.69468e-06
      84.1000   2.64960e-06
      84.2000   2.60595e-06
      84.3000   2.56300e-06
      84.4000   2.52043e-06
      84.5000   2.47833e-06
      84.6000   2.43695e-06
      84.7000   2.39673e-06
      84.8000   2.35746e-06
      84.9000   2.31888e-06
      85.0000   2.28024e-06
      85.1000   2.24200e-06
      85.2000   2.20436e-06
      85.3000   2.16828e-06
      85.4000   2.13291e-06
      85.5000   2.09817e-06
      85.6000   2.06353e-06
      85.7000   2.02945e-06
      85.8000   1.99591e-06
      85.9000   1.96291e-06
      86.0000   1.93042e-06
      86.1000   1.89847e-06
      86.2000   1.86764e-06
      86.3000   1.83728e-06
      86.4000   1.80738e-06
      86.5000   1.77791e-06
      86.6000   1.74889e-06
      86.7000   1.72033e-06
      86.8000   1.69094e-06
      86.9000   1.66199e-06
      87.0000   1.63354e-06
      87.1000   1.60585e-06
      87.2000   1.57866e-06
      87.3000   1.55194e-06
      87.4000   1.52525e-06
      87.5000   1.49891e-06
      87.6000   1.47298e-06
      87.7000   1.44772e-06
      87.8000   1.42292e-06
      87.9000   1.39853e-06
      88.0000   1.37454e-06
      88.1000   1.35092e-06
      88.2000   1.32769e-06
      88.3000   1.30514e-06
      88.4000   1.28326e-06
      88.5000   1.26180e-06
      88.6000   1.24060e-06
      88.7000   1.21959e-06
      88.8000   1.19895e-06
      88.9000   1.17863e-06
      89.0000   1.15863e-06
      89.1000   1.13897e-06
      89.2000   1.11968e-06
      89.3000   1.10086e-06
      89.4000   1.08253e-06
      89.5000   1.06450e-06
      89.6000   1.04676e-06
      89.7000   1.02927e-06
      89.8000   1.01205e-06
      89.9000   9.95076e-07
      90.0000   9.78391e-07
      90.1000   9.62019e-07
      90.2000   9.45688e-07
      90.3000   9.29112e-07
      90.4000   9.12813e-07
      90.5000   8.96815e-07
      90.6000   8.81289e-07
      90.7000   8.65972e-07
      90.8000   8.50795e-07
      90.9000   8.35655e-07
      91.0000   8.20714e-07
      91.1000   8.06037e-07
      91.2000   7.91474e-07
      91.3000   7.76958e-07
      91.4000   7.62671e-07
      91.5000   7.48666e-07
      91.6000   7.34926e-07
      91.7000   7.22192e-07
      91.8000   7.10849e-07
      91.9000   7.01073e-07
      92.0000   6.90596e-07
      92.1000   6.80084e-07
      92.2000   6.69244e-07
      92.3000   6.58135e-07
      92.4000   6.46966e-07
      92.5000   6.36001e-07
      92.6000   6.25209e-07
      92.7000   6.14592e-07
      92.8000   6.04149e-07
      92.9000   5.93978e-07
      93.0000   5.84162e-07
      93.1000   5.74495e-07
      93.2000   5.64983e-07
      93.3000   5.55851e-07
      93.4000   5.46954e-07
      93.5000   5.38187e-07
      93.6000   5.29539e-07
      93.7000   5.21002e-07
      93.8000   5.12596e-07
      93.9000   5.04316e-07
      94.0000   4.96152e-07
      94.1000   4.88104e-07
      94.2000   4.80193e-07
      94.3000   4.72453e-07
      94.4000   4.64964e-07
      94.5000   4.57600e-07
      94.6000   4.50355e-07
      94.7000   4.43242e-07
      94.8000   4.36232e-07
      94.9000   4.29324e-07
      95.0000   4.22519e-07
      95.1000   4.15845e-07
      95.2000   4.09259e-07
      95.3000   4.02764e-07
      95.4000   3.96378e-07
      95.5000   3.90171e-07
      95.6000   3.84048e-07
      95.7000   3.78010e-07
      95.8000   3.72008e-07
      95.9000   3.66084e-07
      96.0000   3.60241e-07
      96.1000   3.54473e-07
      96.2000   3.48782e-07
      96.3000   3.43202e-07
      96.4000   3.37706e-07
      96.5000   3.32293e-07
      96.6000   3.26977e-07
      96.7000   3.21770e-07
      96.8000   3.16634e-07
      96.9000   3.11569e-07
      97.0000   3.06581e-07
      97.1000   3.01694e-07
      97.2000   2.96873e-07
      97.3000   2.92077e-07
      97.4000   2.87313e-07
      97.5000   2.82639e-07
      97.6000   2.78032e-07
      97.7000   2.73509e-07
      97.8000   2.69068e-07
      97.9000   2.64708e-07
      98.0000   2.60410e-07
      98.1000   2.56174e-07
      98.2000   2.52011e-07
      98.3000   2.48293e-07
      98.4000   2.44809e-07
      98.5000   2.41493e-07
      98.6000   2.38228e-07
      98.7000   2.35005e-07
      98.8000   2.31818e-07
      98.9000   2.28666e-07
      99.0000   2.25567e-07
      99.1000   2.22505e-07
      99.2000   2.19465e-07
      99.3000   2.16397e-07
      99.4000   2.13377e-07
      99.5000   2.10396e-07
      99.6000   2.07468e-07
      99.7000   2.04681e-07
      99.8000   2.02016e-07
      99.9000   2.00128e-07
      100.000   1.99415e-07
      100.100   1.98636e-07
      100.200   1.97857e-07
      100.300   1.97078e-07
      100.400   1.96299e-07
      100.500   1.95547e-07
      100.600   1.94791e-07
      100.700   1.94033e-07
      100.800   1.93273e-07
      100.900   1.92512e-07
      101.000   1.91751e-07
      101.100   1.90991e-07
      101.200   1.90233e-07
      101.300   1.89479e-07
      101.400   1.88727e-07
      101.500   1.87912e-07
      101.600   1.87018e-07
      101.700   1.86145e-07
      101.800   1.85280e-07
      101.900   1.84417e-07
      102.000   1.83560e-07
      102.100   1.82733e-07
      102.200   1.81921e-07
      102.300   1.81111e-07
      102.400   1.80303e-07
      102.500   1.79495e-07
      102.600   1.78687e-07
      102.700   1.77879e-07
      102.800   1.77071e-07
      102.900   1.76263e-07
      103.000   1.75454e-07
      103.100   1.74646e-07
      103.200   1.73839e-07
      103.300   1.73033e-07
      103.400   1.72227e-07
      103.500   1.71424e-07
      103.600   1.70621e-07
      103.700   1.69818e-07
      103.800   1.68977e-07
      103.900   1.68090e-07
      104.000   1.67205e-07
      104.100   1.66326e-07
      104.200   1.65471e-07
      104.300   1.64740e-07
      104.400   1.64017e-07
      104.500   1.63296e-07
      104.600   1.62574e-07
      104.700   1.61815e-07
      104.800   1.61039e-07
      104.900   1.60262e-07
      105.000   1.59486e-07
      105.100   1.58735e-07
      105.200   1.58051e-07
      105.300   1.57368e-07
      105.400   1.56685e-07
      105.500   1.56004e-07
      105.600   1.55340e-07
      105.700   1.54682e-07
      105.800   1.54025e-07
      105.900   1.53372e-07
      106.000   1.52744e-07
      106.100   1.52165e-07
      106.200   1.51591e-07
      106.300   1.51018e-07
      106.400   1.50444e-07
      106.500   1.49870e-07
      106.600   1.49295e-07
      106.700   1.48718e-07
      106.800   1.48141e-07
      106.900   1.47562e-07
      107.000   1.46983e-07
      107.100   1.46403e-07
      107.200   1.45822e-07
      107.300   1.45243e-07
      107.400   1.44661e-07
      107.500   1.44080e-07
      107.600   1.43502e-07
      107.700   1.42926e-07
      107.800   1.42355e-07
      107.900   1.41777e-07
      108.000   1.41201e-07
      108.100   1.40626e-07
      108.200   1.40051e-07
      108.300   1.39474e-07
      108.400   1.38885e-07
      108.500   1.38295e-07
      108.600   1.37703e-07
      108.700   1.37109e-07
      108.800   1.36480e-07
      108.900   1.35802e-07
      109.000   1.35123e-07
      109.100   1.34443e-07
      109.200   1.33765e-07
      109.300   1.33089e-07
      109.400   1.32414e-07
      109.500   1.31742e-07
      109.600   1.31073e-07
      109.700   1.30407e-07
      109.800   1.29745e-07
      109.900   1.29087e-07
      110.000   1.28433e-07
      110.100   1.27782e-07
      110.200   1.27134e-07
      110.300   1.26508e-07
      110.400   1.25887e-07
      110.500   1.25266e-07
      110.600   1.24647e-07
      110.700   1.24028e-07
      110.800   1.23409e-07
      110.900   1.22790e-07
      111.000   1.22172e-07
      111.100   1.21554e-07
      111.200   1.20939e-07
      111.300   1.20366e-07
      111.400   1.19793e-07
      111.500   1.19221e-07
      111.600   1.18649e-07
      111.700   1.18078e-07
      111.800   1.17535e-07
      111.900   1.16993e-07
      112.000   1.16452e-07
      112.100   1.15912e-07
      112.200   1.15373e-07
      112.300   1.14810e-07
      112.400   1.14249e-07
      112.500   1.13691e-07
      112.600   1.13137e-07
      112.700   1.12589e-07
      112.800   1.12069e-07
      112.900   1.11490e-07
      113.000   1.10934e-07
      113.100   1.10389e-07
      113.200   1.09834e-07
      113.300   1.09292e-07
      113.400   1.08613e-07
      113.500   1.07900e-07
      113.600   1.07308e-07
      113.700   1.06681e-07
      113.800   1.05972e-07
      113.900   1.05382e-07
      114.000   1.04793e-07
      114.100   1.04120e-07
      114.200   1.03490e-07
      114.300   1.02929e-07
      114.400   1.02351e-07
      114.500   1.01758e-07
      114.600   1.01253e-07
      114.700   1.00685e-07
      114.800   1.00164e-07
      114.900   9.97475e-08
      115.000   9.92595e-08
      115.100   9.87306e-08
      115.200   9.81993e-08
      115.300   9.77615e-08
      115.400   9.72378e-08
      115.500   9.67581e-08
      115.600   9.62425e-08
      115.700   9.56730e-08
      115.800   9.51770e-08
      115.900   9.46426e-08
      116.000   9.41715e-08
      116.100   9.37974e-08
      116.200   9.34146e-08
      116.300   9.30135e-08
      116.400   9.25807e-08
      116.500   9.22171e-08
      116.600   9.18318e-08
      116.700   9.14641e-08
      116.800   9.10767e-08
      116.900   9.06060e-08
      117.000   9.02315e-08
      117.100   9.01295e-08
      117.200   9.02189e-08
      117.300   9.01213e-08
      117.400   9.00117e-08
      117.500   8.99051e-08
      117.600   8.96889e-08
      117.700   8.94300e-08
      117.800   8.91140e-08
      117.900   8.87689e-08
      118.000   8.83691e-08
      118.100   8.79171e-08
      118.200   8.75066e-08
      118.300   8.71140e-08
      118.400   8.65154e-08
      118.500   8.59346e-08
      118.600   8.54492e-08
      118.700   8.49313e-08
      118.800   8.43692e-08
      118.900   8.38399e-08
      119.000   8.32017e-08
      119.100   8.24466e-08
      119.200   8.18254e-08
      119.300   8.13151e-08
      119.400   8.08574e-08
      119.500   8.04240e-08
      119.600   7.99193e-08
      119.700   7.93317e-08
      119.800   7.85788e-08
      119.900   7.76073e-08
      120.000   7.67107e-08
      120.100   7.58748e-08
      120.200   7.53153e-08
      120.300   7.49145e-08
      120.400   7.45123e-08
      120.500   7.38896e-08
      120.600   7.31005e-08
      120.700   7.22604e-08
      120.800   7.14589e-08
      120.900   7.09485e-08
      121.000   7.08887e-08
      121.100   7.07548e-08
      121.200   7.04027e-08
      121.300   6.98911e-08
      121.400   6.92584e-08
      121.500   6.85355e-08
      121.600   6.74581e-08
      121.700   6.65271e-08
      121.800   6.54739e-08
      121.900   6.44088e-08
      122.000   6.32634e-08
      122.100   6.21872e-08
      122.200   6.11273e-08
      122.300   6.03722e-08
      122.400   5.99448e-08
      122.500   5.95878e-08
      122.600   5.91901e-08
      122.700   5.87906e-08
      122.800   5.83186e-08
      122.900   5.78906e-08
      123.000   5.78420e-08
      123.100   5.84504e-08
      123.200   5.91026e-08
      123.300   6.00925e-08
      123.400   6.13619e-08
      123.500   6.30309e-08
      123.600   6.44709e-08
      123.700   6.52345e-08
      123.800   6.58052e-08
      123.900   6.65687e-08
      124.000   6.76448e-08
      124.100   6.97407e-08
      124.200   7.40112e-08
      124.300   8.04012e-08
      124.400   8.65683e-08
      124.500   8.83798e-08
      124.600   8.81723e-08
      124.700   8.77324e-08
      124.800   8.73165e-08
      124.900   8.68996e-08
      125.000   8.64814e-08
      125.100   8.60597e-08
      125.200   8.56384e-08
      125.300   8.52180e-08
      125.400   8.47991e-08
      125.500   8.43819e-08
      125.600   8.39659e-08
      125.700   8.35519e-08
      125.800   8.31392e-08
      125.900   8.27287e-08
      126.000   8.23200e-08
      126.100   8.19132e-08
      126.200   8.15080e-08
      126.300   8.11042e-08
      126.400   8.07017e-08
      126.500   8.03000e-08
      126.600   7.98996e-08
      126.700   7.94999e-08
      126.800   7.91009e-08
      126.900   7.87021e-08
      127.000   7.83021e-08
      127.100   7.78985e-08
      127.200   7.74942e-08
      127.300   7.70893e-08
      127.400   7.66848e-08
      127.500   7.62808e-08
      127.600   7.58778e-08
      127.700   7.54757e-08
      127.800   7.50744e-08
      127.900   7.46744e-08
      128.000   7.42759e-08
      128.100   7.38788e-08
      128.200   7.34832e-08
      128.300   7.30891e-08
      128.400   7.26968e-08
      128.500   7.23057e-08
      128.600   7.19157e-08
      128.700   7.15277e-08
      128.800   7.11408e-08
      128.900   7.07549e-08
      129.000   7.03706e-08
      129.100   6.99860e-08
      129.200   6.95981e-08
      129.300   6.92113e-08
      129.400   6.88257e-08
      129.500   6.84415e-08
      129.600   6.80585e-08
      129.700   6.76766e-08
      129.800   6.72959e-08
      129.900   6.69166e-08
      130.000   6.65386e-08
      130.100   6.61623e-08
      130.200   6.57871e-08
      130.300   6.54136e-08
      130.400   6.50417e-08
      130.500   6.46711e-08
      130.600   6.43019e-08
      130.700   6.39346e-08
      130.800   6.35691e-08
      130.900   6.32051e-08
      131.000   6.28425e-08
      131.100   6.24817e-08
      131.200   6.21220e-08
      131.300   6.17625e-08
      131.400   6.14046e-08
      131.500   6.10480e-08
      131.600   6.06928e-08
      131.700   6.03389e-08
      131.800   5.99862e-08
      131.900   5.96345e-08
      132.000   5.92839e-08
      132.100   5.89344e-08
      132.200   5.85860e-08
      132.300   5.82386e-08
      132.400   5.78924e-08
      132.500   5.75473e-08
      132.600   5.72035e-08
      132.700   5.68609e-08
      132.800   5.65196e-08
      132.900   5.61799e-08
      133.000   5.58415e-08
      133.100   5.55046e-08
      133.200   5.51693e-08
      133.300   5.48350e-08
      133.400   5.45019e-08
      133.500   5.41701e-08
      133.600   5.38397e-08
      133.700   5.35110e-08
      133.800   5.31837e-08
      133.900   5.28579e-08
      134.000   5.25335e-08
      134.100   5.22106e-08
      134.200   5.18891e-08
      134.300   5.15691e-08
      134.400   5.12505e-08
      134.500   5.09336e-08
      134.600   5.06180e-08
      134.700   5.03040e-08
      134.800   4.99914e-08
      134.900   4.96803e-08
      135.000   4.93707e-08
      135.100   4.90626e-08
      135.200   4.87561e-08
      135.300   4.84511e-08
      135.400   4.81476e-08
      135.500   4.78450e-08
      135.600   4.75434e-08
      135.700   4.72431e-08
      135.800   4.69443e-08
      135.900   4.66469e-08
      136.000   4.63510e-08
      136.100   4.60564e-08
      136.200   4.57635e-08
      136.300   4.54715e-08
      136.400   4.51810e-08
      136.500   4.48918e-08
      136.600   4.46037e-08
      136.700   4.43169e-08
      136.800   4.40313e-08
      136.900   4.37470e-08
      137.000   4.34636e-08
      137.100   4.31814e-08
      137.200   4.29001e-08
      137.300   4.26201e-08
      137.400   4.23413e-08
      137.500   4.20636e-08
      137.600   4.17949e-08
      137.700   4.15462e-08
      137.800   4.13130e-08
      137.900   4.10805e-08
      138.000   4.08490e-08
      138.100   4.06186e-08
      138.200   4.03894e-08
      138.300   4.01611e-08
      138.400   3.99340e-08
      138.500   3.97081e-08
      138.600   3.94832e-08
      138.700   3.92595e-08
      138.800   3.90370e-08
      138.900   3.88155e-08
      139.000   3.85951e-08
      139.100   3.83757e-08
      139.200   3.81574e-08
      139.300   3.79400e-08
      139.400   3.77234e-08
      139.500   3.75078e-08
      139.600   3.72929e-08
      139.700   3.70788e-08
      139.800   3.68655e-08
      139.900   3.66528e-08
      140.000   3.64405e-08
      140.100   3.62289e-08
      140.200   3.60180e-08
      140.300   3.58079e-08
      140.400   3.55985e-08
      140.500   3.53897e-08
      140.600   3.51817e-08
      140.700   3.49744e-08
      140.800   3.47681e-08
      140.900   3.45624e-08
      141.000   3.43573e-08
      141.100   3.41532e-08
      141.200   3.39501e-08
      141.300   3.37477e-08
      141.400   3.35462e-08
      141.500   3.33457e-08
      141.600   3.31461e-08
      141.700   3.29473e-08
      141.800   3.27495e-08
      141.900   3.25527e-08
      142.000   3.23568e-08
      142.100   3.21870e-08
      142.200   3.20896e-08
      142.300   3.20545e-08
      142.400   3.20186e-08
      142.500   3.19820e-08
      142.600   3.19447e-08
      142.700   3.19069e-08
      142.800   3.18684e-08
      142.900   3.18292e-08
      143.000   3.17894e-08
      143.100   3.17487e-08
      143.200   3.17074e-08
      143.300   3.16652e-08
      143.400   3.16225e-08
      143.500   3.15793e-08
      143.600   3.15355e-08
      143.700   3.14910e-08
      143.800   3.14461e-08
      143.900   3.14006e-08
      144.000   3.13547e-08
      144.100   3.13082e-08
      144.200   3.12614e-08
      144.300   3.12142e-08
      144.400   3.11735e-08
      144.500   3.12229e-08
      144.600   3.13008e-08
      144.700   3.13812e-08
      144.800   3.14609e-08
      144.900   3.15398e-08
      145.000   3.16180e-08
      145.100   3.16956e-08
      145.200   3.17722e-08
      145.300   3.18479e-08
      145.400   3.19229e-08
      145.500   3.19969e-08
      145.600   3.20698e-08
      145.700   3.21416e-08
      145.800   3.22126e-08
      145.900   3.22825e-08
      146.000   3.23512e-08
      146.100   3.24188e-08
      146.200   3.24854e-08
      146.300   3.25508e-08
      146.400   3.26149e-08
      146.500   3.26778e-08
      146.600   3.27395e-08
      146.700   3.28002e-08
      146.800   3.28578e-08
      146.900   3.29113e-08
      147.000   3.29637e-08
      147.100   3.30149e-08
      147.200   3.30651e-08
      147.300   3.31144e-08
      147.400   3.31628e-08
      147.500   3.32103e-08
      147.600   3.32569e-08
      147.700   3.33027e-08
      147.800   3.33476e-08
      147.900   3.33917e-08
      148.000   3.34350e-08
      148.100   3.34776e-08
      148.200   3.35196e-08
      148.300   3.35609e-08
      148.400   3.36015e-08
      148.500   3.36412e-08
      148.600   3.36803e-08
      148.700   3.37185e-08
      148.800   3.37557e-08
      148.900   3.37922e-08
      149.000   3.38279e-08
      149.100   3.38626e-08
      149.200   3.38962e-08
      149.300   3.39287e-08
      149.400   3.39603e-08
      149.500   3.39908e-08
      149.600   3.40201e-08
      149.700   3.40483e-08
      149.800   3.40754e-08
      149.900   3.41016e-08
      150.000   3.41268e-08
      150.100   3.41508e-08
      150.200   3.41733e-08
      150.300   3.41949e-08
      150.400   3.42155e-08
      150.500   3.42350e-08
      150.600   3.42533e-08
      150.700   3.42706e-08
      150.800   3.42868e-08
      150.900   3.43017e-08
      151.000   3.43154e-08
      151.100   3.43284e-08
      151.200   3.43402e-08
      151.300   3.43509e-08
      151.400   3.43607e-08
      151.500   3.43693e-08
      151.600   3.43777e-08
      151.700   3.43861e-08
      151.800   3.43936e-08
      151.900   3.44000e-08
      152.000   3.44053e-08
      152.100   3.44097e-08
      152.200   3.44133e-08
      152.300   3.44155e-08
      152.400   3.44169e-08
      152.500   3.44174e-08
      152.600   3.44170e-08
      152.700   3.44155e-08
      152.800   3.44130e-08
      152.900   3.44097e-08
      153.000   3.44055e-08
      153.100   3.44003e-08
      153.200   3.43943e-08
      153.300   3.43874e-08
      153.400   3.43796e-08
      153.500   3.43708e-08
      153.600   3.43612e-08
      153.700   3.43510e-08
      153.800   3.43397e-08
      153.900   3.43275e-08
      154.000   3.43056e-08
      154.100   3.42765e-08
      154.200   3.42474e-08
      154.300   3.42174e-08
      154.400   3.41866e-08
      154.500   3.41547e-08
      154.600   3.41219e-08
      154.700   3.40883e-08
      154.800   3.40537e-08
      154.900   3.40180e-08
      155.000   3.39813e-08
      155.100   3.39438e-08
      155.200   3.39050e-08
      155.300   3.38652e-08
      155.400   3.38244e-08
      155.500   3.37827e-08
      155.600   3.37397e-08
      155.700   3.36956e-08
      155.800   3.36506e-08
      155.900   3.36044e-08
      156.000   3.35572e-08
      156.100   3.35087e-08
      156.200   3.34593e-08
      156.300   3.34090e-08
      156.400   3.33575e-08
      156.500   3.33006e-08
      156.600   3.32316e-08
      156.700   3.31609e-08
      156.800   3.30894e-08
      156.900   3.30171e-08
      157.000   3.29442e-08
      157.100   3.28702e-08
      157.200   3.27956e-08
      157.300   3.27203e-08
      157.400   3.26445e-08
      157.500   3.25678e-08
      157.600   3.24906e-08
      157.700   3.24128e-08
      157.800   3.23343e-08
      157.900   3.22550e-08
      158.000   3.21752e-08
      158.100   3.20949e-08
      158.200   3.20138e-08
      158.300   3.19321e-08
      158.400   3.18499e-08
      158.500   3.17670e-08
      158.600   3.16835e-08
      158.700   3.15991e-08
      158.800   3.15145e-08
      158.900   3.14288e-08
      159.000   3.13426e-08
      159.100   3.12555e-08
      159.200   3.11678e-08
      159.300   3.10792e-08
      159.400   3.09900e-08
      159.500   3.09001e-08
      159.600   3.08096e-08
      159.700   3.07183e-08
      159.800   3.06263e-08
      159.900   3.05337e-08
      160.000   3.04403e-08
      160.100   3.03461e-08
      160.200   3.02514e-08
      160.300   3.01559e-08
      160.400   3.00601e-08
      160.500   2.99634e-08
      160.600   2.98663e-08
      160.700   2.97687e-08
      160.800   2.96705e-08
      160.900   2.95718e-08
      161.000   2.94727e-08
      161.100   2.93732e-08
      161.200   2.92733e-08
      161.300   2.91730e-08
      161.400   2.90723e-08
      161.500   2.89715e-08
      161.600   2.88701e-08
      161.700   2.87681e-08
      161.800   2.86660e-08
      161.900   2.85636e-08
      162.000   2.84607e-08
      162.100   2.83577e-08
      162.200   2.82545e-08
      162.300   2.81509e-08
      162.400   2.80471e-08
      162.500   2.79429e-08
      162.600   2.78385e-08
      162.700   2.77338e-08
      162.800   2.76287e-08
      162.900   2.75233e-08
      163.000   2.74175e-08
      163.100   2.73115e-08
      163.200   2.72049e-08
      163.300   2.70980e-08
      163.400   2.69907e-08
      163.500   2.68830e-08
      163.600   2.67749e-08
      163.700   2.66664e-08
      163.800   2.65576e-08
      163.900   2.64484e-08
      164.000   2.63387e-08
      164.100   2.62288e-08
      164.200   2.61185e-08
      164.300   2.60093e-08
      164.400   2.58999e-08
      164.500   2.57902e-08
      164.600   2.56803e-08
      164.700   2.55701e-08
      164.800   2.54596e-08
      164.900   2.53490e-08
      165.000   2.52383e-08
      165.100   2.51274e-08
      165.200   2.50163e-08
      165.300   2.49052e-08
      165.400   2.47942e-08
      165.500   2.46830e-08
      165.600   2.45719e-08
      165.700   2.44608e-08
      165.800   2.43498e-08
      165.900   2.42388e-08
      166.000   2.41279e-08
      166.100   2.40171e-08
      166.200   2.39065e-08
      166.300   2.37960e-08
      166.400   2.36855e-08
      166.500   2.35752e-08
      166.600   2.34650e-08
      166.700   2.33549e-08
      166.800   2.32430e-08
      166.900   2.31219e-08
      167.000   2.29925e-08
      167.100   2.28630e-08
      167.200   2.27338e-08
      167.300   2.26048e-08
      167.400   2.24761e-08
      167.500   2.23476e-08
      167.600   2.22193e-08
      167.700   2.20912e-08
      167.800   2.19633e-08
      167.900   2.18356e-08
      168.000   2.17080e-08
      168.100   2.15806e-08
      168.200   2.14534e-08
      168.300   2.13263e-08
      168.400   2.11993e-08
      168.500   2.10727e-08
      168.600   2.09460e-08
      168.700   2.08195e-08
      168.800   2.06931e-08
      168.900   2.05671e-08
      169.000   2.04412e-08
      169.100   2.03154e-08
      169.200   2.01899e-08
      169.300   2.00646e-08
      169.400   1.99395e-08
      169.500   1.98091e-08
      169.600   1.96549e-08
      169.700   1.94767e-08
      169.800   1.92979e-08
      169.900   1.91199e-08
      170.000   1.89428e-08
      170.100   1.87666e-08
      170.200   1.85913e-08
      170.300   3.36114e-08
      170.400   1.66737e-07
      170.500   5.42102e-07
      170.600   1.13279e-06
      170.700   1.77737e-06
      170.800   2.14555e-06
      170.900   2.19854e-06
      171.000   2.16571e-06
      171.100   2.13312e-06
      171.200   2.10077e-06
      171.300   2.06864e-06
      171.400   2.03676e-06
      171.500   2.00513e-06
      171.600   1.97376e-06
      171.700   1.94269e-06
      171.800   1.91193e-06
      171.900   1.88152e-06
      172.000   1.85151e-06
      172.100   1.82188e-06
      172.200   1.79270e-06
      172.300   1.76394e-06
      172.400   1.73542e-06
      172.500   1.70732e-06
      172.600   1.67968e-06
      172.700   1.65251e-06
      172.800   1.62579e-06
      172.900   1.59952e-06
      173.000   1.57372e-06
      173.100   1.54836e-06
      173.200   1.52343e-06
      173.300   1.49894e-06
      173.400   1.47486e-06
      173.500   1.45121e-06
      173.600   1.42797e-06
      173.700   1.40513e-06
      173.800   1.38267e-06
      173.900   1.36061e-06
      174.000   1.33891e-06
      174.100   1.31757e-06
      174.200   1.29659e-06
      174.300   1.27595e-06
      174.400   1.25565e-06
      174.500   1.23568e-06
      174.600   1.21601e-06
      174.700   1.19667e-06
      174.800   1.17763e-06
      174.900   1.15888e-06
      175.000   1.14041e-06
      175.100   1.12222e-06
      175.200   1.10434e-06
      175.300   1.08672e-06
      175.400   1.06936e-06
      175.500   1.05228e-06
      175.600   1.03545e-06
      175.700   1.01888e-06
      175.800   1.00255e-06
      175.900   9.86474e-07
      176.000   9.70643e-07
      176.100   9.55059e-07
      176.200   9.39709e-07
      176.300   9.24588e-07
      176.400   9.09706e-07
      176.500   8.95046e-07
      176.600   8.80607e-07
      176.700   8.66387e-07
      176.800   8.52383e-07
      176.900   8.38594e-07
      177.000   8.25010e-07
      177.100   8.11626e-07
      177.200   7.98448e-07
      177.300   7.85468e-07
      177.400   7.72674e-07
      177.500   7.60069e-07
      177.600   7.47651e-07
      177.700   7.35418e-07
      177.800   7.23366e-07
      177.900   7.11480e-07
      178.000   6.99810e-07
      178.100   6.88314e-07
      178.200   6.76982e-07
      178.300   6.65818e-07
      178.400   6.54825e-07
      178.500   6.43992e-07
      178.600   6.33319e-07
      178.700   6.22802e-07
      178.800   6.12447e-07
      178.900   6.02250e-07
      179.000   5.92205e-07
      179.100   5.82310e-07
      179.200   5.72570e-07
      179.300   5.62981e-07
      179.400   5.53540e-07
      179.500   5.44252e-07
      179.600   5.35107e-07
      179.700   5.26113e-07
      179.800   5.17259e-07
      179.900   5.08549e-07
      180.000   4.99977e-07
      180.100   4.91547e-07
      180.200   4.83255e-07
      180.300   4.75100e-07
      180.400   4.67077e-07
      180.500   4.59189e-07
      180.600   4.51431e-07
      180.700   4.43803e-07
      180.800   4.36189e-07
      180.900   4.28573e-07
      181.000   4.21054e-07
      181.100   4.13667e-07
      181.200   4.06407e-07
      181.300   3.99271e-07
      181.400   3.92262e-07
      181.500   3.85373e-07
      181.600   3.78603e-07
      181.700   3.71950e-07
      181.800   3.65413e-07
      181.900   3.58990e-07
      182.000   3.52681e-07
      182.100   3.46480e-07
      182.200   3.40390e-07
      182.300   3.34407e-07
      182.400   3.28529e-07
      182.500   3.22754e-07
      182.600   3.17078e-07
      182.700   3.11502e-07
      182.800   3.06026e-07
      182.900   3.00644e-07
      183.000   2.95358e-07
      183.100   2.90166e-07
      183.200   2.85065e-07
      183.300   2.80052e-07
      183.400   2.75128e-07
      183.500   2.70292e-07
      183.600   2.65541e-07
      183.700   2.60693e-07
      183.800   2.55229e-07
      183.900   2.49747e-07
      184.000   2.44382e-07
      184.100   2.39129e-07
      184.200   2.33989e-07
      184.300   2.28953e-07
      184.400   2.24023e-07
      184.500   2.19197e-07
      184.600   2.14469e-07
      184.700   2.09838e-07
      184.800   2.05304e-07
      184.900   2.00863e-07
      185.000   1.96513e-07
      185.100   1.92251e-07
      185.200   1.88076e-07
      185.300   1.83989e-07
      185.400   1.79984e-07
      185.500   1.76061e-07
      185.600   1.72218e-07
      185.700   1.68451e-07
      185.800   1.64765e-07
      185.900   1.61157e-07
      186.000   1.57619e-07
      186.100   1.54154e-07
      186.200   1.50759e-07
      186.300   1.47434e-07
      186.400   1.44175e-07
      186.500   1.40983e-07
      186.600   1.37856e-07
      186.700   1.34792e-07
      186.800   1.31790e-07
      186.900   1.28849e-07
      187.000   1.25968e-07
      187.100   1.23146e-07
      187.200   1.20382e-07
      187.300   1.17677e-07
      187.400   1.15029e-07
      187.500   1.12435e-07
      187.600   1.09895e-07
      187.700   1.07408e-07
      187.800   1.04972e-07
      187.900   1.02587e-07
      188.000   1.00253e-07
      188.100   9.79674e-08
      188.200   9.57292e-08
      188.300   9.35378e-08
      188.400   9.13926e-08
      188.500   8.92937e-08
      188.600   8.72406e-08
      188.700   8.52324e-08
      188.800   8.32676e-08
      188.900   8.13458e-08
      189.000   7.94649e-08
      189.100   7.76238e-08
      189.200   7.58228e-08
      189.300   7.40614e-08
      189.400   7.23387e-08
      189.500   7.06532e-08
      189.600   6.90034e-08
      189.700   6.73831e-08
      189.800   6.57521e-08
      189.900   6.41612e-08
      190.000   6.26059e-08
      190.100   6.10869e-08
      190.200   5.96028e-08
      190.300   5.81531e-08
      190.400   5.67360e-08
      190.500   5.53520e-08
      190.600   5.40006e-08
      190.700   5.26801e-08
      190.800   5.13905e-08
      190.900   5.01312e-08
      191.000   4.89019e-08
      191.100   4.77031e-08
      191.200   4.65318e-08
      191.300   4.53881e-08
      191.400   4.42715e-08
      191.500   4.31807e-08
      191.600   4.21157e-08
      191.700   4.10760e-08
      191.800   4.00601e-08
      191.900   3.90687e-08
      192.000   3.81011e-08
      192.100   3.71575e-08
      192.200   3.62370e-08
      192.300   3.53381e-08
      192.400   3.44603e-08
      192.500   3.36033e-08
      192.600   3.27668e-08
      192.700   3.19387e-08
      192.800   3.10697e-08
      192.900   3.01148e-08
      193.000   2.91878e-08
      193.100   2.82885e-08
      193.200   2.74161e-08
      193.300   2.65692e-08
      193.400   2.57472e-08
      193.500   2.49488e-08
      193.600   2.41734e-08
      193.700   2.34205e-08
      193.800   2.26899e-08
      193.900   2.19809e-08
      194.000   2.12924e-08
      194.100   2.06251e-08
      194.200   1.99786e-08
      194.300   1.93512e-08
      194.400   1.87421e-08
      194.500   1.81510e-08
      194.600   1.75773e-08
      194.700   1.70208e-08
      194.800   1.64810e-08
      194.900   1.59570e-08
      195.000   1.54488e-08
      195.100   1.49570e-08
      195.200   1.44801e-08
      195.300   1.40175e-08
      195.400   1.35686e-08
      195.500   1.31331e-08
      195.600   1.27106e-08
      195.700   1.23008e-08
      195.800   1.19034e-08
      195.900   1.15178e-08
      196.000   1.11407e-08
      196.100   1.07750e-08
      196.200   1.04205e-08
      196.300   1.00768e-08
      196.400   9.74363e-09
      196.500   9.42050e-09
      196.600   9.10744e-09
      196.700   8.80396e-09
      196.800   8.51024e-09
      196.900   8.22605e-09
      197.000   7.95073e-09
      197.100   7.68389e-09
      197.200   7.42533e-09
      197.300   7.17469e-09
      197.400   6.93170e-09
      197.500   6.69638e-09
      197.600   6.46844e-09
      197.700   6.24838e-09
      197.800   6.03531e-09
      197.900   5.82879e-09
      198.000   5.62881e-09
      198.100   5.43518e-09
      198.200   5.24760e-09
      198.300   5.06589e-09
      198.400   4.89010e-09
      198.500   4.72040e-09
      198.600   4.55632e-09
      198.700   4.39746e-09
      198.800   4.24368e-09
      198.900   4.09490e-09
      199.000   3.95349e-09
      199.100   3.82438e-09
      199.200   3.71000e-09
      199.300   3.59907e-09
      199.400   3.49134e-09
      199.500   3.38665e-09
      199.600   3.28487e-09
      199.700   3.18592e-09
      199.800   3.08976e-09
      199.900   2.99633e-09
      200.000   2.90552e-09
      200.100   2.81763e-09
      200.200   2.73218e-09
      200.300   2.64919e-09
      200.400   2.56859e-09
      200.500   2.49030e-09
      200.600   2.41427e-09
      200.700   2.34044e-09
      200.800   2.26870e-09
      200.900   2.19906e-09
      201.000   2.13153e-09
      201.100   2.06599e-09
      201.200   2.00236e-09
      201.300   1.94059e-09
      201.400   1.88065e-09
      201.500   1.82240e-09
      201.600   1.76590e-09
      201.700   1.71105e-09
      201.800   1.65778e-09
      201.900   1.60615e-09
      202.000   1.55612e-09
      202.100   1.50753e-09
      202.200   1.46039e-09
      202.300   1.41558e-09
      202.400   1.37356e-09
      202.500   1.33300e-09
      202.600   1.29354e-09
      202.700   1.25520e-09
      202.800   1.21797e-09
      202.900   1.18182e-09
      203.000   1.14671e-09
      203.100   1.11261e-09
      203.200   1.07946e-09
      203.300   1.04725e-09
      203.400   1.01596e-09
      203.500   9.85575e-10
      203.600   9.56056e-10
      203.700   9.27385e-10
      203.800   8.99585e-10
      203.900   8.72602e-10
      204.000   8.46395e-10
      204.100   8.20953e-10
      204.200   7.96259e-10
      204.300   7.72268e-10
      204.400   7.48988e-10
      204.500   7.26385e-10
      204.600   7.04436e-10
      204.700   6.83135e-10
      204.800   6.62488e-10
      204.900   6.42454e-10
      205.000   6.23010e-10
      205.100   6.04145e-10
      205.200   5.85823e-10
      205.300   5.68053e-10
      205.400   5.50805e-10
      205.500   5.34058e-10
      205.600   5.17909e-10
      205.700   5.02334e-10
      205.800   4.87216e-10
      205.900   4.72553e-10
      206.000   4.58339e-10
      206.100   4.44528e-10
      206.200   4.31117e-10
      206.300   4.18103e-10
      206.400   4.05470e-10
      206.500   3.93197e-10
      206.600   3.81287e-10
      206.700   3.69724e-10
      206.800   3.58490e-10
      206.900   3.47587e-10
      207.000   3.37008e-10
      207.100   3.26742e-10
      207.200   3.16784e-10
      207.300   3.07117e-10
      207.400   2.97728e-10
      207.500   2.88613e-10
      207.600   2.79766e-10
      207.700   2.71173e-10
      207.800   2.62834e-10
      207.900   2.54740e-10
      208.000   2.46881e-10
      208.100   2.39253e-10
      208.200   2.31853e-10
      208.300   2.24668e-10
      208.400   2.17703e-10
      208.500   2.10947e-10
      208.600   2.04387e-10
      208.700   1.98019e-10
      208.800   1.91833e-10
      208.900   1.85511e-10
      209.000   1.78962e-10
      209.100   1.72632e-10
      209.200   1.66514e-10
      209.300   1.60599e-10
      209.400   1.54886e-10
      209.500   1.49364e-10
      209.600   1.44027e-10
      209.700   1.38874e-10
      209.800   1.33906e-10
      209.900   1.29101e-10
      210.000   1.24462e-10
      210.100   1.19981e-10
      210.200   1.15652e-10
      210.300   1.11472e-10
      210.400   1.07435e-10
      210.500   1.03536e-10
      210.600   9.97717e-11
      210.700   9.61381e-11
      210.800   9.26290e-11
      210.900   8.92413e-11
      211.000   8.59708e-11
      211.100   8.28155e-11
      211.200   7.97690e-11
      211.300   7.68333e-11
      211.400   7.40024e-11
      211.500   7.12683e-11
      211.600   6.86307e-11
      211.700   6.60866e-11
      211.800   6.36302e-11
      211.900   6.12606e-11
      212.000   5.89761e-11
      212.100   5.67719e-11
      212.200   5.45925e-11
      212.300   5.17016e-11
      212.400   4.84831e-11
      212.500   4.54513e-11
      212.600   4.25984e-11
      212.700   3.99121e-11
      212.800   3.73845e-11
      212.900   3.50080e-11
      213.000   3.27741e-11
      213.100   3.06774e-11
      213.200   2.87061e-11
      213.300   2.68546e-11
      213.400   2.51143e-11
      213.500   2.34800e-11
      213.600   2.19456e-11
      213.700   2.05060e-11
      213.800   1.91543e-11
      213.900   1.78873e-11
      214.000   1.66989e-11
      214.100   1.55844e-11
      214.200   1.45406e-11
      214.300   1.35623e-11
      214.400   1.26458e-11
      214.500   1.17877e-11
      214.600   1.09849e-11
      214.700   1.02335e-11
      214.800   9.53053e-12
      214.900   8.87358e-12
      215.000   8.25889e-12
      215.100   7.68485e-12
      215.200   7.14938e-12
      215.300   6.64965e-12
      215.400   6.18260e-12
      215.500   5.74665e-12
      215.600   5.34016e-12
      215.700   4.96059e-12
      215.800   4.60660e-12
      215.900   4.27675e-12
      216.000   3.96913e-12
      216.100   3.68245e-12
      216.200   3.41551e-12
      216.300   3.16696e-12
      216.400   2.93556e-12
      216.500   2.72013e-12
      216.600   2.51979e-12
      216.700   2.33349e-12
      216.800   2.16022e-12
      216.900   1.99924e-12
      217.000   1.84966e-12
      217.100   1.71064e-12
      217.200   1.58167e-12
      217.300   1.46191e-12
      217.400   1.35073e-12
      217.500   1.24767e-12
      217.600   1.15205e-12
      217.700   1.06339e-12
      217.800   9.81231e-13
      217.900   9.05204e-13
      218.000   8.34831e-13
      218.100   7.69683e-13
      218.200   7.09393e-13
      218.300   6.53632e-13
      218.400   6.02036e-13
      218.500   5.54303e-13
      218.600   5.10215e-13
      218.700   4.69449e-13
      218.800   4.31792e-13
      218.900   3.97042e-13
      219.000   3.64940e-13
      219.100   3.35586e-13
      219.200   3.10718e-13
      219.300   2.90968e-13
      219.400   2.72414e-13
      219.500   2.55003e-13
      219.600   2.38661e-13
      219.700   2.23323e-13
      219.800   2.08938e-13
      219.900   1.95441e-13
      220.000   1.82777e-13
      220.100   1.70903e-13
      220.200   1.59772e-13
      220.300   1.49341e-13
      220.400   1.39560e-13
      220.500   1.30397e-13
      220.600   1.21816e-13
      220.700   1.13775e-13
      220.800   1.06241e-13
      220.900   9.91936e-14
      221.000   9.25928e-14
      221.100   8.64127e-14
      221.200   8.06332e-14
      221.300   7.52243e-14
      221.400   7.01636e-14
      221.500   6.54323e-14
      221.600   6.10072e-14
      221.700   5.68690e-14
      221.800   5.30008e-14
      221.900   4.93876e-14
      222.000   4.60115e-14
      222.100   4.28557e-14
      222.200   3.99107e-14
      222.300   3.71595e-14
      222.400   3.45905e-14
      222.500   3.21921e-14
      222.600   2.99555e-14
      222.700   2.78675e-14
      222.800   2.59196e-14
      222.900   2.41043e-14
      223.000   2.24105e-14
      223.100   2.08312e-14
      223.200   1.93591e-14
      223.300   1.79878e-14
      223.400   1.67099e-14
      223.500   1.55189e-14
      223.600   1.44106e-14
      223.700   1.33781e-14
      223.800   1.24166e-14
      223.900   1.15228e-14
      224.000   1.06902e-14
      224.100   9.91558e-15
      224.200   9.19515e-15
      224.300   8.52549e-15
      224.400   7.90249e-15
      224.500   7.32351e-15
      224.600   6.78525e-15
      224.700   6.28564e-15
      224.800   5.82133e-15
      224.900   5.38990e-15
      225.000   4.98952e-15
      225.100   4.61771e-15
      225.200   4.27260e-15
      225.300   3.95266e-15
      225.400   3.65563e-15
      225.500   3.38010e-15
      225.600   3.12464e-15
      225.700   2.88795e-15
      225.800   2.66845e-15
      225.900   2.46508e-15
      226.000   2.27678e-15
      226.100   2.10226e-15
      226.200   1.94065e-15
      226.300   1.79126e-15
      226.400   1.65309e-15
      226.500   1.52512e-15
      226.600   1.40670e-15
      226.700   1.29723e-15
      226.800   1.19593e-15
      226.900   1.10224e-15
      227.000   1.01571e-15
      227.100   9.35705e-16
      227.200   8.61795e-16
      227.300   7.93540e-16
      227.400   7.30516e-16
      227.500   6.72321e-16
      227.600   6.18615e-16
      227.700   5.69057e-16
      227.800   5.23351e-16
      227.900   4.81199e-16
      228.000   4.42328e-16
      228.100   4.06497e-16
      228.200   3.73470e-16
      228.300   3.43045e-16
      228.400   3.15027e-16
      228.500   2.89216e-16
      228.600   2.65460e-16
      228.700   2.43591e-16
      228.800   2.23464e-16
      228.900   2.04959e-16
      229.000   1.87930e-16
      229.100   1.72275e-16
      229.200   1.57885e-16
      229.300   1.44661e-16
      229.400   1.32511e-16
      229.500   1.21350e-16
      229.600   1.11101e-16
      229.700   1.01693e-16
      229.800   9.30552e-17
      229.900   8.51583e-17
      230.000   7.81367e-17
      230.100   7.20921e-17
      230.200   6.65020e-17
      230.300   6.13366e-17
      230.400   5.65593e-17
      230.500   5.21474e-17
      230.600   4.80753e-17
      230.700   4.43115e-17
      230.800   4.08349e-17
      230.900   3.76244e-17
      231.000   3.46581e-17
      231.100   3.19200e-17
      231.200   2.93919e-17
      231.300   2.70592e-17
      231.400   2.49076e-17
      231.500   2.29212e-17
      231.600   2.10886e-17
      231.700   1.93993e-17
      231.800   1.78418e-17
      231.900   1.64060e-17
      232.000   1.50825e-17
      232.100   1.38628e-17
      232.200   1.27393e-17
      232.300   1.17045e-17
      232.400   1.07513e-17
      232.500   9.87353e-18
      232.600   9.06579e-18
      232.700   8.32238e-18
      232.800   7.63825e-18
      232.900   7.00889e-18
      233.000   6.42997e-18
      233.100   5.89778e-18
      233.200   5.40824e-18
      233.300   4.95839e-18
      233.400   4.54506e-18
      233.500   4.16597e-18
      233.600   3.81815e-18
      233.700   3.49852e-18
      233.800   3.20070e-18
      233.900   2.92705e-18
      234.000   2.67607e-18
      234.100   2.44616e-18
      234.200   2.23551e-18
      234.300   2.04253e-18
      234.400   1.86578e-18
      234.500   1.70396e-18
      234.600   1.55579e-18
      234.700   1.42021e-18
      234.800   1.29617e-18
      234.900   1.18266e-18
      235.000   1.07883e-18
      235.100   9.83902e-19
      235.200   8.97117e-19
      235.300   8.17790e-19
      235.400   7.45306e-19
      235.500   6.79078e-19
      235.600   6.18605e-19
      235.700   5.63417e-19
      235.800   5.13207e-19
      235.900   4.67362e-19
      236.000   4.25513e-19
      236.100   3.87314e-19
      236.200   3.52461e-19
      236.300   3.20662e-19
      236.400   2.91668e-19
      236.500   2.65227e-19
      236.600   2.41125e-19
      236.700   2.19160e-19
      236.800   1.99142e-19
      236.900   1.80910e-19
      237.000   1.64306e-19
      237.100   1.49184e-19
      237.200   1.35425e-19
      237.300   1.22899e-19
      237.400   1.11552e-19
      237.500   1.01674e-19
      237.600   9.34241e-20
      237.700   8.58520e-20
      237.800   7.88789e-20
      237.900   7.24586e-20
      238.000   6.65509e-20
      238.100   6.11113e-20
      238.200   5.61065e-20
      238.300   5.15014e-20
      238.400   4.72654e-20
      238.500   4.33691e-20
      238.600   3.97866e-20
      238.700   3.64939e-20
      238.800   3.34663e-20
      238.900   3.06840e-20
      239.000   2.81272e-20
      239.100   2.57787e-20
      239.200   2.36220e-20
      239.300   2.16468e-20
      239.400   1.98375e-20
      239.500   1.81755e-20
      239.600   1.66493e-20
      239.700   1.52487e-20
      239.800   1.39626e-20
      239.900   1.27824e-20
      240.000   1.16997e-20
      240.100   1.07062e-20
      240.200   9.79494e-21
      240.300   8.95954e-21
      240.400   8.19334e-21
      240.500   7.49145e-21
      240.600   6.84811e-21
      240.700   6.25875e-21
      240.800   5.72042e-21
      240.900   5.22868e-21
      241.000   4.77822e-21
      241.100   4.36564e-21
      241.200   3.98783e-21
      241.300   3.65877e-21
      241.400   3.38705e-21
      241.500   3.15085e-21
      241.600   2.93076e-21
      241.700   2.72565e-21
      241.800   2.53458e-21
      241.900   2.35657e-21
      242.000   2.19081e-21
      242.100   2.03644e-21
      242.200   1.89313e-21
      242.300   1.75999e-21
      242.400   1.63597e-21
      242.500   1.52049e-21
      242.600   1.41298e-21
      242.700   1.31288e-21
      242.800   1.21973e-21
      242.900   1.13303e-21
      243.000   1.05235e-21
      243.100   9.77285e-22
      243.200   9.07427e-22
      243.300   8.42460e-22
      243.400   7.82060e-22
      243.500   7.26038e-22
      243.600   6.74107e-22
      243.700   6.25781e-22
      243.800   5.80834e-22
      243.900   5.39063e-22
      244.000   5.00208e-22
      244.100   4.64093e-22
      244.200   4.30529e-22
      244.300   3.99324e-22
      244.400   3.70339e-22
      244.500   3.43404e-22
      244.600   3.18382e-22
      244.700   2.95193e-22
      244.800   2.73742e-22
      244.900   2.53818e-22
      245.000   2.35302e-22
      245.100   2.18107e-22
      245.200   2.02145e-22
      245.300   1.87323e-22
      245.400   1.73557e-22
      245.500   1.60786e-22
      245.600   1.48930e-22
      245.700   1.37925e-22
      245.800   1.27711e-22
      245.900   1.18286e-22
      246.000   1.09558e-22
      246.100   1.01458e-22
      246.200   9.39423e-23
      246.300   8.69691e-23
      246.400   8.05033e-23
      246.500   7.45055e-23
      246.600   6.89438e-23
      246.700   6.37885e-23
      246.800   5.90071e-23
      246.900   5.45761e-23
      247.000   5.04900e-23
      247.100   4.67118e-23
      247.200   4.32099e-23
      247.300   3.99645e-23
      247.400   3.69563e-23
      247.500   3.41691e-23
      247.600   3.15871e-23
      247.700   2.91953e-23
      247.800   2.69803e-23
      247.900   2.49289e-23
      248.000   2.30302e-23
      248.100   2.12869e-23
      248.200   1.96718e-23
      248.300   1.81763e-23
      248.400   1.67917e-23
      248.500   1.55095e-23
      248.600   1.43229e-23
      248.700   1.32251e-23
      248.800   1.22093e-23
      248.900   1.12697e-23
      249.000   1.04006e-23
      249.100   9.60218e-24
      249.200   8.94475e-24
      249.300   8.41412e-24
      249.400   7.93382e-24
      249.500   7.48040e-24
      249.600   7.05222e-24
      249.700   6.64805e-24
      249.800   6.26659e-24
      249.900   5.90644e-24
      250.000   5.56671e-24
      250.100   5.24721e-24
      250.200   4.94615e-24
      250.300   4.66225e-24
      250.400   4.39433e-24
      250.500   4.14159e-24
      250.600   3.90315e-24
      250.700   3.67817e-24
      250.800   3.46594e-24
      250.900   3.26575e-24
      251.000   3.07694e-24
      251.100   2.89885e-24
      251.200   2.73118e-24
      251.300   2.57348e-24
      251.400   2.42469e-24
      251.500   2.28434e-24
      251.600   2.15200e-24
      251.700   2.02725e-24
      251.800   1.90960e-24
      251.900   1.79866e-24
      252.000   1.69403e-24
      252.100   1.59546e-24
      252.200   1.50248e-24
      252.300   1.41498e-24
      252.400   1.33266e-24
      252.500   1.25510e-24
      252.600   1.18196e-24
      252.700   1.11303e-24
      252.800   1.04807e-24
      252.900   9.86824e-25
      253.000   9.29110e-25
      253.100   8.74731e-25
      253.200   8.27375e-25
      253.300   7.99088e-25
      253.400   7.75537e-25
      253.500   7.52706e-25
      253.600   7.30560e-25
      253.700   7.09058e-25
      253.800   6.88194e-25
      253.900   6.67937e-25
      254.000   6.48272e-25
      254.100   6.29180e-25
      254.200   6.10646e-25
      254.300   5.92656e-25
      254.400   5.75192e-25
      254.500   5.58242e-25
      254.600   5.41781e-25
      254.700   5.25811e-25
      254.800   5.10329e-25
      254.900   4.95295e-25
      255.000   4.80705e-25
      255.100   4.66533e-25
      255.200   4.52781e-25
      255.300   4.39429e-25
      255.400   4.26468e-25
      255.500   4.13890e-25
      255.600   4.01676e-25
      255.700   3.89820e-25
      255.800   3.78310e-25
      255.900   3.67136e-25
      256.000   3.56287e-25
      256.100   3.45768e-25
      256.200   3.35557e-25
      256.300   3.25646e-25
      256.400   3.16032e-25
      256.500   3.06692e-25
      256.600   2.97627e-25
      256.700   2.88828e-25
      256.800   2.80286e-25
      256.900   2.71993e-25
      257.000   2.63943e-25
      257.100   2.56128e-25
      257.200   2.48546e-25
      257.300   2.41183e-25
      257.400   2.34120e-25
      257.500   2.27292e-25
      257.600   2.20670e-25
      257.700   2.14240e-25
      257.800   2.07995e-25
      257.900   2.01932e-25
      258.000   1.96044e-25
      258.100   1.90323e-25
      258.200   1.84770e-25
      258.300   1.79378e-25
      258.400   1.74139e-25
      258.500   1.69051e-25
      258.600   1.64112e-25
      258.700   1.59315e-25
      258.800   1.54656e-25
      258.900   1.50134e-25
      259.000   1.45741e-25
      259.100   1.41476e-25
      259.200   1.37335e-25
      259.300   1.33319e-25
      259.400   1.29418e-25
      259.500   1.25629e-25
      259.600   1.21951e-25
      259.700   1.18379e-25
      259.800   1.14911e-25
      259.900   1.11541e-25
      260.000   1.08271e-25
      260.100   1.05096e-25
      260.200   1.02013e-25
      260.300   9.90190e-26
      260.400   9.61121e-26
      260.500   9.32907e-26
      260.600   9.05495e-26
      260.700   8.78885e-26
      260.800   8.53065e-26
      260.900   8.27975e-26
      261.000   8.03634e-26
      261.100   7.80020e-26
      261.200   7.57078e-26
      261.300   7.34808e-26
      261.400   7.13193e-26
      261.500   6.92236e-26
      261.600   6.71997e-26
      261.700   6.52357e-26
      261.800   6.33292e-26
      261.900   6.14768e-26
      262.000   5.96783e-26
      262.100   5.79316e-26
      262.200   5.62363e-26
      262.300   5.45895e-26
      262.400   5.29908e-26
      262.500   5.14381e-26
      262.600   4.99301e-26
      262.700   4.84663e-26
      262.800   4.70448e-26
      262.900   4.56637e-26
      263.000   4.43244e-26
      263.100   4.30234e-26
      263.200   4.17610e-26
      263.300   4.05350e-26
      263.400   3.93445e-26
      263.500   3.81890e-26
      263.600   3.70672e-26
      263.700   3.59777e-26
      263.800   3.49197e-26
      263.900   3.38935e-26
      264.000   3.28964e-26
      264.100   3.19283e-26
      264.200   3.09881e-26
      264.300   3.00760e-26
      264.400   2.91903e-26
      264.500   2.83302e-26
      264.600   2.74952e-26
      264.700   2.66848e-26
      264.800   2.58976e-26
      264.900   2.51339e-26
      265.000   2.43924e-26
      265.100   2.36722e-26
      265.200   2.29733e-26
      265.300   2.22948e-26
      265.400   2.16364e-26
      265.500   2.09970e-26
      265.600   2.03766e-26
      265.700   1.98301e-26
      265.800   1.95350e-26
      265.900   1.92518e-26
      266.000   1.89726e-26
      266.100   1.86974e-26
      266.200   1.84260e-26
      266.300   1.81584e-26
      266.400   1.78947e-26
      266.500   1.76346e-26
      266.600   1.73783e-26
      266.700   1.71253e-26
      266.800   1.68762e-26
      266.900   1.66306e-26
      267.000   1.63884e-26
      267.100   1.61497e-26
      267.200   1.59146e-26
      267.300   1.56826e-26
      267.400   1.54538e-26
      267.500   1.52284e-26
      267.600   1.50062e-26
      267.700   1.47873e-26
      267.800   1.45712e-26
      267.900   1.43583e-26
      268.000   1.41487e-26
      268.100   1.39420e-26
      268.200   1.37383e-26
      268.300   1.35375e-26
      268.400   1.33395e-26
      268.500   1.31443e-26
      268.600   1.29518e-26
      268.700   1.27624e-26
      268.800   1.25756e-26
      268.900   1.23915e-26
      269.000   1.22101e-26
      269.100   1.20311e-26
      269.200   1.18550e-26
      269.300   1.16813e-26
      269.400   1.15101e-26
      269.500   1.13413e-26
      269.600   1.11751e-26
      269.700   1.10111e-26
      269.800   1.08497e-26
      269.900   1.06905e-26
      270.000   1.05338e-26
      270.100   1.03798e-26
      270.200   1.02282e-26
      270.300   1.00788e-26
      270.400   9.93148e-27
      270.500   9.78634e-27
      270.600   9.64318e-27
      270.700   9.50231e-27
      270.800   9.36337e-27
      270.900   9.22641e-27
      271.000   9.09155e-27
      271.100   8.95853e-27
      271.200   8.82745e-27
      271.300   8.69831e-27
      271.400   8.57102e-27
      271.500   8.44565e-27
      271.600   8.32200e-27
      271.700   8.20012e-27
      271.800   8.08011e-27
      271.900   7.96178e-27
      272.000   7.84521e-27
      272.100   7.73030e-27
      272.200   7.61704e-27
      272.300   7.50539e-27
      272.400   7.39538e-27
      272.500   7.28700e-27
      272.600   7.18020e-27
      272.700   7.07492e-27
      272.800   6.97112e-27
      272.900   6.86892e-27
      273.000   6.76817e-27
      273.100   6.66884e-27
      273.200   6.57102e-27
      273.300   6.47463e-27
      273.400   6.37957e-27
      273.500   6.28589e-27
      273.600   6.19360e-27
      273.700   6.10262e-27
      273.800   6.01293e-27
      273.900   5.92462e-27
      274.000   5.83760e-27
      274.100   5.75181e-27
      274.200   5.66723e-27
      274.300   5.58391e-27
      274.400   5.49947e-27
      274.500   5.41041e-27
      274.600   5.32170e-27
      274.700   5.23448e-27
      274.800   5.14866e-27
      274.900   5.06420e-27
      275.000   4.98109e-27
      275.100   4.89933e-27
      275.200   4.81887e-27
      275.300   4.73969e-27
      275.400   4.66183e-27
      275.500   4.58521e-27
      275.600   4.50980e-27
      275.700   4.43563e-27
      275.800   4.36266e-27
      275.900   4.29088e-27
      276.000   4.22026e-27
      276.100   4.15075e-27
      276.200   4.08234e-27
      276.300   4.01504e-27
      276.400   3.94887e-27
      276.500   3.88373e-27
      276.600   3.81969e-27
      276.700   3.75663e-27
      276.800   3.69462e-27
      276.900   3.63357e-27
      277.000   3.57354e-27
      277.100   3.51446e-27
      277.200   3.45636e-27
      277.300   3.39919e-27
      277.400   3.34295e-27
      277.500   3.28758e-27
      277.600   3.23315e-27
      277.700   3.17955e-27
      277.800   3.12680e-27
      277.900   3.07498e-27
      278.000   3.02400e-27
      278.100   2.97382e-27
      278.200   2.92445e-27
      278.300   2.87590e-27
      278.400   2.82813e-27
      278.500   2.78111e-27
      278.600   2.73484e-27
      278.700   2.68937e-27
      278.800   2.64570e-27
      278.900   2.60752e-27
      279.000   2.56994e-27
      279.100   2.53289e-27
      279.200   2.49631e-27
      279.300   2.46028e-27
      279.400   2.42472e-27
      279.500   2.38965e-27
      279.600   2.35508e-27
      279.700   2.32099e-27
      279.800   2.28738e-27
      279.900   2.25424e-27
      280.000   2.22155e-27
      280.100   2.18930e-27
      280.200   2.15752e-27
      280.300   2.12617e-27
      280.400   2.09526e-27
      280.500   2.06479e-27
      280.600   2.03474e-27
      280.700   2.00512e-27
      280.800   1.97590e-27
      280.900   1.94708e-27
      281.000   1.91867e-27
      281.100   1.89066e-27
      281.200   1.86303e-27
      281.300   1.83580e-27
      281.400   1.80896e-27
      281.500   1.78248e-27
      281.600   1.75636e-27
      281.700   1.73061e-27
      281.800   1.70525e-27
      281.900   1.68023e-27
      282.000   1.65554e-27
      282.100   1.63122e-27
      282.200   1.60726e-27
      282.300   1.58360e-27
      282.400   1.56028e-27
      282.500   1.53727e-27
      282.600   1.51462e-27
      282.700   1.49228e-27
      282.800   1.47024e-27
      282.900   1.44854e-27
      283.000   1.42713e-27
      283.100   1.40601e-27
      283.200   1.38521e-27
      283.300   1.36749e-27
      283.400   1.36501e-27
      283.500   1.36433e-27
      283.600   1.36361e-27
      283.700   1.36287e-27
      283.800   1.36209e-27
      283.900   1.36128e-27
      284.000   1.36044e-27
      284.100   1.35956e-27
      284.200   1.35866e-27
      284.300   1.35775e-27
      284.400   1.35678e-27
      284.500   1.35579e-27
      284.600   1.35478e-27
      284.700   1.35374e-27
      284.800   1.35266e-27
      284.900   1.35156e-27
      285.000   1.35043e-27
      285.100   1.34926e-27
      285.200   1.34806e-27
      285.300   1.34684e-27
      285.400   1.34560e-27
      285.500   1.34431e-27
      285.600   1.34302e-27
      285.700   1.34168e-27
      285.800   1.34032e-27
      285.900   1.33893e-27
      286.000   1.33749e-27
      286.100   1.33606e-27
      286.200   1.33459e-27
      286.300   1.33310e-27
      286.400   1.33157e-27
      286.500   1.33001e-27
      286.600   1.32843e-27
      286.700   1.32682e-27
      286.800   1.32519e-27
      286.900   1.32354e-27
      287.000   1.32185e-27
      287.100   1.32014e-27
      287.200   1.31840e-27
      287.300   1.31663e-27
      287.400   1.31483e-27
      287.500   1.31302e-27
      287.600   1.31119e-27
      287.700   1.30933e-27
      287.800   1.30745e-27
      287.900   1.30554e-27
      288.000   1.30363e-27
      288.100   1.30170e-27
      288.200   1.29973e-27
      288.300   1.29775e-27
      288.400   1.29577e-27
      288.500   1.29374e-27
      288.600   1.29169e-27
      288.700   1.28963e-27
      288.800   1.28753e-27
      288.900   1.28541e-27
      289.000   1.28328e-27
      289.100   1.28112e-27
      289.200   1.27893e-27
      289.300   1.27672e-27
      289.400   1.27451e-27
      289.500   1.27227e-27
      289.600   1.26999e-27
      289.700   1.26771e-27
      289.800   1.26541e-27
      289.900   1.26306e-27
      290.000   1.26074e-27
      290.100   1.25834e-27
      290.200   1.25596e-27
      290.300   1.25356e-27
      290.400   1.25112e-27
      290.500   1.24868e-27
      290.600   1.24621e-27
      290.700   1.24372e-27
      290.800   1.24122e-27
      290.900   1.23870e-27
      291.000   1.23616e-27
      291.100   1.23360e-27
      291.200   1.23102e-27
      291.300   1.22843e-27
      291.400   1.22581e-27
      291.500   1.22317e-27
      291.600   1.22053e-27
      291.700   1.21786e-27
      291.800   1.21517e-27
      291.900   1.21247e-27
      292.000   1.20976e-27
      292.100   1.20704e-27
      292.200   1.20429e-27
      292.300   1.20152e-27
      292.400   1.19873e-27
      292.500   1.19593e-27
      292.600   1.19310e-27
      292.700   1.19023e-27
      292.800   1.18734e-27
      292.900   1.18443e-27
      293.000   1.18151e-27
      293.100   1.17859e-27
      293.200   1.17564e-27
      293.300   1.17267e-27
      293.400   1.16970e-27
      293.500   1.16670e-27
      293.600   1.16370e-27
      293.700   1.16068e-27
      293.800   1.15765e-27
      293.900   1.15460e-27
      294.000   1.15154e-27
      294.100   1.14847e-27
      294.200   1.14538e-27
      294.300   1.14229e-27
      294.400   1.13918e-27
      294.500   1.13605e-27
      294.600   1.13291e-27
      294.700   1.12977e-27
      294.800   1.12661e-27
      294.900   1.12342e-27
      295.000   1.12024e-27
      295.100   1.11705e-27
      295.200   1.11384e-27
      295.300   1.11062e-27
      295.400   1.10739e-27
      295.500   1.10415e-27
      295.600   1.10089e-27
      295.700   1.09762e-27
      295.800   1.09435e-27
      295.900   1.09106e-27
      296.000   1.08777e-27
      296.100   1.08445e-27
      296.200   1.08115e-27
      296.300   1.07781e-27
      296.400   1.07448e-27
      296.500   1.07113e-27
      296.600   1.06777e-27
      296.700   1.06441e-27
      296.800   1.06103e-27
      296.900   1.05765e-27
      297.000   1.05426e-27
      297.100   1.05086e-27
      297.200   1.04808e-27
      297.300   1.04996e-27
      297.400   1.06323e-27
      297.500   1.07664e-27
      297.600   1.09017e-27
      297.700   1.10385e-27
      297.800   1.11763e-27
      297.900   1.13155e-27
      298.000   1.14557e-27
      298.100   1.15971e-27
      298.200   1.17398e-27
      298.300   1.18836e-27
      298.400   1.20288e-27
      298.500   1.21751e-27
      298.600   1.23227e-27
      298.700   1.24714e-27
      298.800   1.26214e-27
      298.900   1.27727e-27
      299.000   1.29254e-27
      299.100   1.30794e-27
      299.200   1.32346e-27
      299.300   1.33908e-27
      299.400   1.35485e-27
      299.500   1.37074e-27
      299.600   1.38674e-27
      299.700   1.40285e-27
      299.800   1.41912e-27
      299.900   1.43551e-27
      300.000   1.45200e-27
      300.100   1.46865e-27
      300.192   1.48407e-27
      300.285   1.49977e-27
      300.377   1.51540e-27
      300.470   1.53133e-27
      300.562   1.54716e-27
      300.654   1.56310e-27
      300.747   1.57937e-27
      300.839   1.59554e-27
      300.932   1.61198e-27
      301.025   1.62857e-27
      301.117   1.64507e-27
      301.210   1.66183e-27
      301.303   1.67876e-27
      301.395   1.69556e-27
      301.488   1.71268e-27
      301.581   1.72987e-27
      301.674   1.74721e-27
      301.766   1.76444e-27
      301.859   1.78201e-27
      301.952   1.79965e-27
      302.045   1.81743e-27
      302.138   1.89087e-27
      302.231   1.98999e-27
      302.324   2.09485e-27
      302.417   2.20498e-27
      302.510   2.32047e-27
      302.603   2.44149e-27
      302.696   2.56845e-27
      302.789   2.70167e-27
      302.882   2.84127e-27
      302.976   2.98919e-27
      303.069   3.14258e-27
      303.162   3.30330e-27
      303.255   3.47169e-27
      303.349   3.65004e-27
      303.442   3.83492e-27
      303.535   4.02831e-27
      303.629   4.23303e-27
      303.722   4.44517e-27
      303.816   4.66963e-27
      303.909   4.90213e-27
      304.003   5.14791e-27
      304.096   5.40251e-27
      304.190   5.67172e-27
      304.283   5.95025e-27
      304.377   6.24439e-27
      304.471   6.55227e-27
      304.564   6.87069e-27
      304.658   7.20710e-27
      304.752   7.55909e-27
      304.846   7.92652e-27
      304.939   8.30648e-27
      305.033   8.70771e-27
      305.127   9.12674e-27
      305.221   9.56432e-27
      305.315   1.00217e-26
      305.409   1.04989e-26
      305.503   1.09971e-26
      305.597   1.15175e-26
      305.691   1.20602e-26
      305.785   1.26270e-26
      305.879   1.32181e-26
      305.973   1.38342e-26
      306.067   1.44775e-26
      306.161   1.51481e-26
      306.255   1.58473e-26
      306.350   1.65842e-26
      306.444   1.73443e-26
      306.538   1.81369e-26
      306.633   1.89712e-26
      306.727   1.98320e-26
      306.821   2.07287e-26
      306.916   2.16724e-26
      307.010   2.26510e-26
      307.105   2.36863e-26
      307.199   2.47541e-26
      307.294   2.58785e-26
      307.388   2.70369e-26
      307.483   2.82561e-26
      307.577   2.95124e-26
      307.672   3.08341e-26
      307.767   3.22097e-26
      307.861   3.36252e-26
      307.956   3.51153e-26
      308.051   3.66657e-26
      308.146   3.82784e-26
      308.240   3.99371e-26
      308.335   4.16804e-26
      308.430   4.34940e-26
      308.525   4.53809e-26
      308.620   4.73406e-26
      308.715   4.93785e-26
      308.810   5.14965e-26
      308.905   5.36971e-26
      309.000   5.59821e-26
      309.095   5.83568e-26
      309.190   6.08231e-26
      309.285   6.33853e-26
      309.380   6.60452e-26
      309.476   6.88356e-26
      309.571   7.17031e-26
      309.666   7.46816e-26
      309.761   7.77705e-26
      309.857   8.10089e-26
      309.952   8.43343e-26
      310.047   8.77822e-26
      310.143   9.13986e-26
      310.238   9.51102e-26
      310.334   9.89984e-26
      310.429   1.02992e-25
      310.525   1.07170e-25
      310.620   1.11459e-25
      310.716   1.15951e-25
      310.811   1.20558e-25
      310.907   1.25377e-25
      311.003   1.30371e-25
      311.098   1.35492e-25
      311.194   1.40853e-25
      311.290   1.46406e-25
      311.386   1.52153e-25
      311.481   1.58041e-25
      311.577   1.64196e-25
      311.673   1.70574e-25
      311.769   1.77173e-25
      311.865   1.83995e-25
      311.961   1.91104e-25
      312.057   1.98576e-25
      312.153   2.06348e-25
      312.249   2.14394e-25
      312.345   2.22724e-25
      312.441   2.31347e-25
      312.537   2.40264e-25
      312.633   2.49491e-25
      312.730   2.59145e-25
      312.826   2.69026e-25
      312.922   2.79243e-25
      313.018   2.89812e-25
      313.115   3.00856e-25
      313.211   3.12163e-25
      313.307   3.23848e-25
      313.404   3.36053e-25
      313.500   3.48539e-25
      313.597   3.61576e-25
      313.693   3.74898e-25
      313.790   3.88817e-25
      313.886   4.03047e-25
      313.983   4.17903e-25
      314.079   4.33088e-25
      314.176   4.48922e-25
      314.273   4.65279e-25
      314.369   4.81994e-25
      314.466   4.99426e-25
      314.563   5.17422e-25
      314.660   5.35975e-25
      314.756   5.54941e-25
      314.853   5.74701e-25
      314.950   5.95092e-25
      315.047   6.16122e-25
      315.144   6.37823e-25
      315.241   6.60193e-25
      315.338   6.83268e-25
      315.435   7.07047e-25
      315.532   7.31561e-25
      315.629   7.56819e-25
      315.726   7.82856e-25
      315.823   8.09704e-25
      315.921   8.37621e-25
      316.018   8.66115e-25
      316.115   8.95464e-25
      316.212   9.25688e-25
      316.310   9.57129e-25
      316.407   9.89168e-25
      316.504   1.02217e-24
      316.602   1.05649e-24
      316.699   1.09146e-24
      316.796   1.12742e-24
      316.894   1.16482e-24
      316.991   1.20301e-24
      317.089   1.24330e-24
      317.187   1.28516e-24
      317.284   1.32777e-24
      317.382   1.37208e-24
      317.479   1.41724e-24
      317.577   1.46415e-24
      317.675   1.51241e-24
      317.773   1.56211e-24
      317.870   1.61271e-24
      317.968   1.66533e-24
      318.066   1.71942e-24
      318.164   1.77504e-24
      318.262   1.83225e-24
      318.360   1.89109e-24
      318.458   1.95157e-24
      318.556   2.01372e-24
      318.654   2.07760e-24
      318.752   2.14323e-24
      318.850   2.21067e-24
      318.948   2.28000e-24
      319.046   2.35122e-24
      319.144   2.42437e-24
      319.242   2.49947e-24
      319.341   2.57742e-24
      319.439   2.65664e-24
      319.537   2.73797e-24
      319.635   2.82147e-24
      319.734   2.90803e-24
      319.832   2.99599e-24
      319.930   3.08626e-24
      320.029   3.17982e-24
      320.127   3.27484e-24
      320.226   3.37336e-24
      320.324   3.47340e-24
      320.423   3.57702e-24
      320.522   3.68330e-24
      320.620   3.79115e-24
      320.719   3.90287e-24
      320.818   4.01743e-24
      320.916   4.13366e-24
      321.015   4.25405e-24
      321.114   4.37737e-24
      321.213   4.50378e-24
      321.311   4.63196e-24
      321.410   4.76454e-24
      321.509   4.90044e-24
      321.608   5.03953e-24
      321.707   5.18206e-24
      321.806   5.32806e-24
      321.905   5.47742e-24
      322.004   5.63051e-24
      322.103   5.81576e-24
      322.202   6.05564e-24
      322.301   6.32575e-24
      322.401   6.60947e-24
      322.500   6.90155e-24
      322.599   7.20502e-24
      322.698   7.52032e-24
      322.798   7.85147e-24
      322.897   8.19209e-24
      322.996   8.54561e-24
      323.096   8.91672e-24
      323.195   9.29804e-24
      323.294   9.69374e-24
      323.394   1.01085e-23
      323.493   1.05348e-23
      323.593   1.09814e-23
      323.692   1.14400e-23
      323.792   1.19204e-23
      323.892   1.24185e-23
      323.991   1.29299e-23
      324.091   1.34652e-23
      324.191   1.40203e-23
      324.291   1.45951e-23
      324.390   1.51843e-23
      324.490   1.58016e-23
      324.590   1.64400e-23
      324.690   1.71009e-23
      324.790   1.77855e-23
      324.890   1.84938e-23
      324.990   1.92273e-23
      325.090   1.99863e-23
      325.190   2.07707e-23
      325.290   2.15818e-23
      325.390   2.24213e-23
      325.490   2.32887e-23
      325.590   2.41850e-23
      325.690   2.51117e-23
      325.790   2.60690e-23
      325.891   2.70682e-23
      325.991   2.80898e-23
      326.091   2.91454e-23
      326.192   3.02461e-23
      326.292   3.13713e-23
      326.392   3.25322e-23
      326.493   3.37426e-23
      326.593   3.49793e-23
      326.694   3.62669e-23
      326.794   3.75826e-23
      326.895   3.89533e-23
      326.995   4.03528e-23
      327.096   4.18087e-23
      327.197   4.33104e-23
      327.297   4.48459e-23
      327.398   4.64498e-23
      327.499   4.81064e-23
      327.599   4.97971e-23
      327.700   5.15559e-23
      327.801   5.33664e-23
      327.902   5.52308e-23
      328.003   5.71518e-23
      328.104   5.91292e-23
      328.205   6.11646e-23
      328.306   6.32587e-23
      328.407   6.54129e-23
      328.508   6.76294e-23
      328.609   6.99089e-23
      328.710   7.22523e-23
      328.811   7.46625e-23
      328.912   7.71409e-23
      329.013   7.96865e-23
      329.115   8.23299e-23
      329.216   8.50199e-23
      329.317   8.77817e-23
      329.419   9.06467e-23
      329.520   9.35617e-23
      329.621   9.65538e-23
      329.723   9.96584e-23
      329.824   1.02809e-22
      329.926   1.06076e-22
      330.027   1.09397e-22
      330.129   1.12838e-22
      330.230   1.16331e-22
      330.332   1.19951e-22
      330.434   1.23662e-22
      330.535   1.27431e-22
      330.637   1.31332e-22
      330.739   1.35326e-22
      330.840   1.39382e-22
      330.942   1.43580e-22
      331.044   1.47880e-22
      331.146   1.52283e-22
      331.248   1.56794e-22
      331.350   1.61411e-22
      331.452   1.66146e-22
      331.554   1.71135e-22
      331.656   1.76483e-22
      331.758   1.81967e-22
      331.860   1.87596e-22
      331.962   1.93367e-22
      332.064   1.99284e-22
      332.166   2.05350e-22
      332.268   2.11570e-22
      332.371   2.18005e-22
      332.473   2.24536e-22
      332.575   2.30876e-22
      332.677   2.36192e-22
      332.780   2.40714e-22
      332.882   2.45258e-22
      332.985   2.49906e-22
      333.087   2.54574e-22
      333.190   2.59350e-22
      333.292   2.64018e-22
      333.395   2.68458e-22
      333.497   2.72770e-22
      333.600   2.77167e-22
      333.702   2.81565e-22
      333.805   2.86046e-22
      333.908   2.90578e-22
      334.011   2.95149e-22
      334.113   2.99718e-22
      334.216   3.04376e-22
      334.319   3.09076e-22
      334.422   3.13819e-22
      334.525   3.18607e-22
      334.628   3.23437e-22
      334.731   3.28307e-22
      334.834   3.33222e-22
      334.937   3.38181e-22
      335.040   3.43183e-22
      335.143   3.48221e-22
      335.246   3.53304e-22
      335.349   3.58425e-22
      335.452   3.63587e-22
      335.555   3.68790e-22
      335.659   3.74088e-22
      335.762   3.79379e-22
      335.865   3.84704e-22
      335.969   3.90122e-22
      336.072   3.95529e-22
      336.175   4.00970e-22
      336.279   4.06504e-22
      336.382   4.12027e-22
      336.486   4.17642e-22
      336.589   4.23235e-22
      336.693   4.28927e-22
      336.796   4.34593e-22
      336.900   4.40360e-22
      337.004   4.46165e-22
      337.107   4.51939e-22
      337.211   4.57814e-22
      337.315   4.63724e-22
      337.419   4.69667e-22
      337.523   4.75637e-22
      337.626   4.81589e-22
      337.730   4.87637e-22
      337.834   4.93710e-22
      337.938   4.99799e-22
      338.042   5.05867e-22
      338.146   5.12034e-22
      338.250   5.18236e-22
      338.354   5.24475e-22
      338.458   5.30743e-22
      338.562   5.37042e-22
      338.667   5.43431e-22
      338.771   5.49789e-22
      338.875   5.56173e-22
      338.979   5.62588e-22
      339.084   5.69092e-22
      339.188   5.75554e-22
      339.292   5.82056e-22
      339.397   5.88640e-22
      339.501   5.95190e-22
      339.606   6.01831e-22
      339.710   6.08425e-22
      339.815   6.15113e-22
      339.919   6.21755e-22
      340.024   6.28489e-22
      340.128   6.35173e-22
      340.233   6.41951e-22
      340.338   6.48745e-22
      340.442   6.55492e-22
      340.547   6.62327e-22
      340.652   6.69181e-22
      340.757   6.76049e-22
      340.862   6.82937e-22
      340.966   6.89776e-22
      341.071   6.96685e-22
      341.176   7.03617e-22
      341.281   7.10563e-22
      341.386   7.17524e-22
      341.491   7.24496e-22
      341.596   7.31485e-22
      341.702   7.38551e-22
      341.807   7.45549e-22
      341.912   7.52565e-22
      342.017   7.59594e-22
      342.122   7.66627e-22
      342.228   7.73726e-22
      342.333   7.80771e-22
      342.438   7.87826e-22
      342.544   7.94945e-22
      342.649   8.01997e-22
      342.754   8.09061e-22
      342.860   8.16184e-22
      342.965   8.23253e-22
      343.071   8.30375e-22
      343.176   8.37442e-22
      343.282   8.44575e-22
      343.388   8.51703e-22
      343.493   8.58903e-22
      343.599   8.67423e-22
      343.705   8.76102e-22
      343.810   8.84703e-22
      343.916   8.93409e-22
      344.022   9.02143e-22
      344.128   9.10888e-22
      344.234   9.19659e-22
      344.340   9.28442e-22
      344.446   9.37239e-22
      344.552   9.46056e-22
      344.658   9.54905e-22
      344.764   9.63740e-22
      344.870   9.72607e-22
      344.976   9.81471e-22
      345.082   9.90357e-22
      345.188   9.99252e-22
      345.294   1.00815e-21
      345.401   1.01715e-21
      345.507   1.02607e-21
      345.613   1.03499e-21
      345.719   1.04392e-21
      345.826   1.05294e-21
      345.932   1.06188e-21
      346.039   1.07090e-21
      346.145   1.07984e-21
      346.252   1.08887e-21
      346.358   1.09780e-21
      346.465   1.10682e-21
      346.571   1.11575e-21
      346.678   1.12476e-21
      346.785   1.13378e-21
      346.891   1.14268e-21
      346.998   1.15167e-21
      347.105   1.16065e-21
      347.212   1.16963e-21
      347.319   1.17860e-21
      347.425   1.18746e-21
      347.532   1.19640e-21
      347.639   1.20532e-21
      347.746   1.21423e-21
      347.853   1.22313e-21
      347.960   1.23200e-21
      348.067   1.24086e-21
      348.174   1.24970e-21
      348.281   1.25850e-21
      348.389   1.26738e-21
      348.496   1.27613e-21
      348.603   1.28489e-21
      348.710   1.29359e-21
      348.818   1.30237e-21
      348.925   1.31089e-21
      349.032   1.31292e-21
      349.140   1.29928e-21
      349.247   1.28586e-21
      349.355   1.27245e-21
      349.462   1.25929e-21
      349.570   1.24610e-21
      349.677   1.23318e-21
      349.785   1.22024e-21
      349.892   1.20755e-21
      350.000   1.19487e-21
      350.100   1.18322e-21
      350.193   1.17249e-21
      350.287   1.16171e-21
      350.380   1.15114e-21
      350.473   1.14066e-21
      350.567   1.13014e-21
      350.660   1.11983e-21
      350.754   1.10949e-21
      350.847   1.09935e-21
      350.941   1.08917e-21
      351.034   1.07919e-21
      351.128   1.06918e-21
      351.221   1.05936e-21
      351.315   1.04952e-21
      351.409   1.03975e-21
      351.502   1.03017e-21
      351.596   1.02056e-21
      351.690   1.01102e-21
      351.783   1.00168e-21
      351.877   9.92316e-22
      351.971   9.83019e-22
      352.065   9.73804e-22
      352.159   9.64664e-22
      352.252   9.55695e-22
      352.346   9.46696e-22
      352.440   9.37780e-22
      352.534   9.28945e-22
      352.628   9.20178e-22
      352.722   9.11477e-22
      352.816   9.02856e-22
      352.910   8.94305e-22
      353.004   8.85831e-22
      353.098   8.77418e-22
      353.192   8.69078e-22
      353.287   8.60721e-22
      353.381   8.52519e-22
      353.475   8.44399e-22
      353.569   8.36330e-22
      353.663   8.28335e-22
      353.758   8.20333e-22
      353.852   8.12477e-22
      353.946   8.04685e-22
      354.041   7.96876e-22
      354.135   7.89217e-22
      354.229   7.81617e-22
      354.324   7.74011e-22
      354.418   7.66539e-22
      354.513   7.59056e-22
      354.607   7.51726e-22
      354.702   7.43196e-22
      354.796   7.34012e-22
      354.891   7.24757e-22
      354.985   7.15714e-22
      355.080   7.06683e-22
      355.175   6.97755e-22
      355.269   6.89028e-22
      355.364   6.80311e-22
      355.459   6.71703e-22
      355.553   6.63284e-22
      355.648   6.54878e-22
      355.743   6.46576e-22
      355.838   6.38360e-22
      355.933   6.30258e-22
      356.027   6.22330e-22
      356.122   6.14411e-22
      356.217   6.06588e-22
      356.312   5.98866e-22
      356.407   5.91228e-22
      356.502   5.83686e-22
      356.597   5.76231e-22
      356.692   5.68871e-22
      356.787   5.61598e-22
      356.882   5.54407e-22
      356.977   5.47312e-22
      357.073   5.40226e-22
      357.168   5.33292e-22
      357.263   5.26447e-22
      357.358   5.19686e-22
      357.453   5.13007e-22
      357.549   5.06340e-22
      357.644   4.99822e-22
      357.739   4.93386e-22
      357.835   4.86956e-22
      357.930   4.80672e-22
      358.025   4.74465e-22
      358.121   4.68270e-22
      358.216   4.62213e-22
      358.312   4.56168e-22
      358.407   4.50260e-22
      358.503   4.44363e-22
      358.598   4.38602e-22
      358.694   4.32847e-22
      358.790   4.27164e-22
      358.885   4.21608e-22
      358.981   4.16065e-22
      359.076   4.10647e-22
      359.172   4.05243e-22
      359.268   3.99898e-22
      359.364   3.94622e-22
      359.459   3.89471e-22
      359.555   3.84327e-22
      359.651   3.79244e-22
      359.747   3.74225e-22
      359.843   3.69270e-22
      359.939   3.64375e-22
      360.035   3.59545e-22
      360.131   3.54774e-22
      360.227   3.50058e-22
      360.323   3.45406e-22
      360.419   3.42782e-22
      360.515   3.41915e-22
      360.611   3.41369e-22
      360.707   3.40811e-22
      360.803   3.40242e-22
      360.899   3.39662e-22
      360.995   3.39074e-22
      361.092   3.38465e-22
      361.188   3.37852e-22
      361.284   3.37228e-22
      361.380   3.36593e-22
      361.477   3.35940e-22
      361.573   3.35284e-22
      361.669   3.34615e-22
      361.766   3.33928e-22
      361.862   3.33238e-22
      361.959   3.32531e-22
      362.055   3.31818e-22
      362.152   3.31091e-22
      362.248   3.30359e-22
      362.345   3.29608e-22
      362.441   3.28858e-22
      362.538   3.28088e-22
      362.635   3.27308e-22
      362.731   3.26525e-22
      362.828   3.25722e-22
      362.925   3.24912e-22
      363.021   3.24103e-22
      363.118   3.23274e-22
      363.215   3.22434e-22
      363.312   3.21585e-22
      363.409   3.20728e-22
      363.505   3.19869e-22
      363.602   3.18994e-22
      363.699   3.18111e-22
      363.796   3.17216e-22
      363.893   3.16313e-22
      363.990   3.15400e-22
      364.087   3.14480e-22
      364.184   3.13552e-22
      364.281   3.12615e-22
      364.378   3.11672e-22
      364.475   3.10718e-22
      364.573   3.09746e-22
      364.670   3.08776e-22
      364.767   3.07799e-22
      364.864   3.06815e-22
      364.961   3.05821e-22
      365.059   3.04811e-22
      365.156   3.03804e-22
      365.253   3.02790e-22
      365.351   3.01758e-22
      365.448   3.00728e-22
      365.545   2.99694e-22
      365.643   2.98641e-22
      365.740   2.97590e-22
      365.838   2.96524e-22
      365.935   2.95461e-22
      366.033   2.94383e-22
      366.130   2.93309e-22
      366.228   2.92756e-22
      366.326   2.92945e-22
      366.423   2.93355e-22
      366.521   2.93757e-22
      366.618   2.94138e-22
      366.716   2.94506e-22
      366.814   2.94860e-22
      366.912   2.95198e-22
      367.010   2.95523e-22
      367.107   2.95828e-22
      367.205   2.96120e-22
      367.303   2.96396e-22
      367.401   2.96657e-22
      367.499   2.96902e-22
      367.597   2.97132e-22
      367.695   2.97345e-22
      367.793   2.97543e-22
      367.891   2.97727e-22
      367.989   2.97896e-22
      368.087   2.98048e-22
      368.185   2.98183e-22
      368.283   2.98305e-22
      368.381   2.98411e-22
      368.480   2.98501e-22
      368.578   2.98576e-22
      368.676   2.98636e-22
      368.774   2.98681e-22
      368.873   2.98710e-22
      368.971   2.98724e-22
      369.069   2.98723e-22
      369.168   2.98706e-22
      369.266   2.98672e-22
      369.364   2.98624e-22
      369.463   2.98564e-22
      369.561   2.98488e-22
      369.660   2.98394e-22
      369.758   2.98285e-22
      369.857   2.98163e-22
      369.955   2.98027e-22
      370.054   2.97873e-22
      370.153   2.97705e-22
      370.251   2.97524e-22
      370.350   2.97329e-22
      370.449   2.97118e-22
      370.547   2.96892e-22
      370.646   2.96652e-22
      370.745   2.96397e-22
      370.844   2.96129e-22
      370.943   2.95845e-22
      371.041   2.95551e-22
      371.140   2.95238e-22
      371.239   2.94913e-22
      371.338   2.94576e-22
      371.437   2.94222e-22
      371.536   2.93854e-22
      371.635   2.93473e-22
      371.734   2.93080e-22
      371.833   2.92673e-22
      371.932   2.92253e-22
      372.032   2.91816e-22
      372.131   2.93384e-22
      372.230   2.99191e-22
      372.329   3.07238e-22
      372.428   3.15419e-22
      372.528   3.23817e-22
      372.627   3.32266e-22
      372.726   3.40848e-22
      372.826   3.49658e-22
      372.925   3.58517e-22
      373.024   3.67505e-22
      373.124   3.76719e-22
      373.223   3.85966e-22
      373.323   3.95447e-22
      373.422   4.04966e-22
      373.522   4.14708e-22
      373.621   4.24476e-22
      373.721   4.34481e-22
      373.820   4.44503e-22
      373.920   4.54755e-22
      374.020   4.65143e-22
      374.119   4.75533e-22
      374.219   4.86164e-22
      374.319   4.96911e-22
      374.419   5.07769e-22
      374.518   5.18641e-22
      374.618   5.29739e-22
      374.718   5.40956e-22
      374.818   5.52269e-22
      374.918   5.63690e-22
      375.018   5.75232e-22
      375.118   5.86871e-22
      375.218   5.98616e-22
      375.318   6.10465e-22
      375.418   6.22413e-22
      375.518   6.34448e-22
      375.618   6.46574e-22
      375.718   6.58790e-22
      375.818   6.71093e-22
      375.918   6.83481e-22
      376.019   6.96080e-22
      376.119   7.08638e-22
      376.219   7.21255e-22
      376.319   7.33959e-22
      376.420   7.46850e-22
      376.520   7.59679e-22
      376.620   7.72570e-22
      376.721   7.85654e-22
      376.821   7.98659e-22
      376.922   8.12011e-22
      377.022   8.27323e-22
      377.122   8.45000e-22
      377.223   8.63023e-22
      377.323   8.81013e-22
      377.424   8.99348e-22
      377.525   9.17809e-22
      377.625   9.36220e-22
      377.726   9.54950e-22
      377.827   9.73820e-22
      377.927   9.92623e-22
      378.028   1.01172e-21
      378.129   1.03094e-21
      378.230   1.05027e-21
      378.330   1.06952e-21
      378.431   1.08906e-21
      378.532   1.10868e-21
      378.633   1.12839e-21
      378.734   1.14819e-21
      378.835   1.16803e-21
      378.936   1.18795e-21
      379.037   1.20793e-21
      379.138   1.22794e-21
      379.239   1.24802e-21
      379.340   1.26813e-21
      379.441   1.28827e-21
      379.542   1.30844e-21
      379.643   1.32861e-21
      379.745   1.34901e-21
      379.846   1.36921e-21
      379.947   1.38939e-21
      380.048   1.40957e-21
      380.150   1.42994e-21
      380.251   1.45008e-21
      380.352   1.47018e-21
      380.454   1.49043e-21
      380.555   1.51046e-21
      380.656   1.53041e-21
      380.758   1.55052e-21
      380.859   1.57035e-21
      380.961   1.59029e-21
      381.062   1.60996e-21
      381.164   1.62975e-21
      381.266   1.64943e-21
      381.367   1.66882e-21
      381.469   1.68828e-21
      381.570   1.70743e-21
      381.672   1.72664e-21
      381.774   1.74575e-21
      381.876   1.76468e-21
      381.977   1.78376e-21
      382.079   1.80441e-21
      382.181   1.82622e-21
      382.283   1.84789e-21
      382.385   1.86942e-21
      382.487   1.89082e-21
      382.589   1.91202e-21
      382.691   1.93305e-21
      382.793   1.95391e-21
      382.895   1.97460e-21
      382.997   1.99508e-21
      383.099   2.01537e-21
      383.201   2.03543e-21
      383.303   2.05532e-21
      383.405   2.07494e-21
      383.507   2.09432e-21
      383.610   2.11368e-21
      383.712   2.13261e-21
      383.814   2.15126e-21
      383.916   2.16967e-21
      384.019   2.18799e-21
      384.121   2.20588e-21
      384.223   2.22345e-21
      384.326   2.24095e-21
      384.428   2.25791e-21
      384.531   2.27472e-21
      384.633   2.29110e-21
      384.736   2.30731e-21
      384.838   2.32305e-21
      384.941   2.33864e-21
      385.043   2.35374e-21
      385.146   2.36868e-21
      385.249   2.38328e-21
      385.351   2.39741e-21
      385.454   2.41135e-21
      385.557   2.42493e-21
      385.660   2.43818e-21
      385.762   2.45095e-21
      385.865   2.46348e-21
      385.968   2.47567e-21
      386.071   2.48750e-21
      386.174   2.49898e-21
      386.277   2.51008e-21
      386.380   2.52081e-21
      386.483   2.53117e-21
      386.586   2.54118e-21
      386.689   2.55082e-21
      386.792   2.56008e-21
      386.895   2.56897e-21
      386.998   2.57748e-21
      387.101   2.57392e-21
      387.204   2.53006e-21
      387.308   2.47313e-21
      387.411   2.41800e-21
      387.514   2.36410e-21
      387.617   2.31141e-21
      387.721   2.25939e-21
      387.824   2.20901e-21
      387.927   2.15971e-21
      388.031   2.11107e-21
      388.134   2.06398e-21
      388.238   2.01751e-21
      388.341   1.97246e-21
      388.445   1.92801e-21
      388.548   1.88494e-21
      388.652   1.84245e-21
      388.755   1.80130e-21
      388.859   1.76067e-21
      388.962   1.72132e-21
      389.066   1.68245e-21
      389.170   1.64450e-21
      389.274   1.60736e-21
      389.377   1.57139e-21
      389.481   1.53586e-21
      389.585   1.50116e-21
      389.689   1.46721e-21
      389.793   1.43401e-21
      389.897   1.40158e-21
      390.000   1.37015e-21
      390.104   1.33914e-21
      390.208   1.30880e-21
      390.312   1.27915e-21
      390.416   1.25016e-21
      390.520   1.22178e-21
      390.625   1.19377e-21
      390.729   1.16668e-21
      390.833   1.14018e-21
      390.937   1.11427e-21
      391.041   1.08895e-21
      391.145   1.06419e-21
      391.250   1.03975e-21
      391.354   1.01608e-21
      391.458   9.92936e-22
      391.563   9.70089e-22
      391.667   9.47980e-22
      391.771   9.26368e-22
      391.876   9.05032e-22
      391.980   8.84378e-22
      392.085   8.63999e-22
      392.189   8.44274e-22
      392.294   8.24804e-22
      392.398   8.05964e-22
      392.503   7.87369e-22
      392.607   7.69369e-22
      392.712   7.51612e-22
      392.817   7.34246e-22
      392.921   7.17451e-22
      393.026   7.00869e-22
      393.131   6.84674e-22
      393.236   6.68832e-22
      393.340   6.53509e-22
      393.445   6.38393e-22
      393.550   6.23618e-22
      393.655   6.09177e-22
      393.760   5.95070e-22
      393.865   5.81282e-22
      393.970   5.67819e-22
      394.075   5.54651e-22
      394.180   5.41795e-22
      394.285   5.29227e-22
      394.390   5.16951e-22
      394.495   5.04947e-22
      394.600   4.93225e-22
      394.706   4.81665e-22
      394.811   4.70478e-22
      394.916   4.59538e-22
      395.021   4.48854e-22
      395.126   4.38425e-22
      395.232   4.28126e-22
      395.337   4.18163e-22
      395.443   4.08341e-22
      395.548   3.98834e-22
      395.653   3.89549e-22
      395.759   3.80385e-22
      395.864   3.71524e-22
      395.970   3.62783e-22
      396.075   3.54325e-22
      396.181   3.45981e-22
      396.286   3.37904e-22
      396.392   3.29949e-22
      396.498   3.22176e-22
      396.603   3.14646e-22
      396.709   3.07229e-22
      396.815   2.99981e-22
      396.921   2.92900e-22
      397.026   2.86054e-22
      397.132   2.79299e-22
      397.238   2.72706e-22
      397.344   2.66259e-22
      397.450   2.59974e-22
      397.556   2.53825e-22
      397.662   2.47820e-22
      397.768   2.41958e-22
      397.874   2.36230e-22
      397.980   2.30635e-22
      398.086   2.25169e-22
      398.192   2.19834e-22
      398.298   2.14622e-22
      398.404   2.09532e-22
      398.510   2.04559e-22
      398.617   1.99662e-22
      398.723   1.94921e-22
      398.829   1.90289e-22
      398.935   1.85766e-22
      399.042   1.81311e-22
      399.148   1.76997e-22
      399.255   1.72749e-22
      399.361   1.68638e-22
      399.467   1.64619e-22
      399.574   1.60664e-22
      399.680   1.56835e-22
      399.787   1.53060e-22
      399.893       0.00000
      400.000       0.00000
