Filter: Al-poly/Ti-poly
observation_date 22-Sept-2008 22:40:45
wavelength effective area
      1.00000   2.76605e-10
      1.10000   7.87992e-10
      1.20000   2.04351e-09
      1.30000   4.87277e-09
      1.40000   1.10215e-08
      1.50000   2.34290e-08
      1.60000   4.72409e-08
      1.70000   9.13092e-08
      1.80000   1.69179e-07
      1.90000   3.02487e-07
      2.00000   5.22933e-07
      2.10000   8.77975e-07
      2.20000   1.43845e-06
      2.30000   2.29670e-06
      2.40000   3.58009e-06
      2.50000   5.73225e-06
      2.60000   8.86460e-06
      2.70000   1.32002e-05
      2.80000   1.92789e-05
      2.90000   2.78651e-05
      3.00000   3.96439e-05
      3.10000   5.56724e-05
      3.20000   7.73216e-05
      3.30000   0.000106288
      3.40000   0.000144573
      3.50000   0.000194728
      3.60000   0.000261051
      3.70000   0.000346221
      3.80000   0.000457233
      3.90000   0.000600435
      4.00000   0.000783514
      4.10000    0.00101759
      4.20000    0.00131675
      4.30000    0.00169885
      4.40000    0.00218579
      4.50000    0.00280431
      4.60000    0.00358549
      4.70000    0.00458364
      4.80000    0.00585303
      4.90000    0.00737740
      5.00000    0.00954226
      5.10000     0.0121678
      5.20000     0.0155594
      5.30000     0.0197271
      5.40000     0.0249676
      5.50000     0.0316525
      5.60000     0.0388934
      5.70000     0.0503442
      5.80000     0.0587614
      5.90000     0.0893190
      6.00000      0.119520
      6.10000      0.152045
      6.20000      0.185839
      6.30000      0.217698
      6.40000      0.244586
      6.50000      0.263831
      6.60000      0.271683
      6.70000      0.278642
      6.80000      0.277509
      6.90000      0.362052
      7.00000      0.391491
      7.10000      0.411643
      7.20000      0.426935
      7.30000      0.438787
      7.40000      0.447047
      7.50000      0.452930
      7.60000      0.456560
      7.70000      0.456775
      7.80000      0.452763
      7.90000      0.449252
      8.00000      0.752295
      8.10000      0.821315
      8.20000      0.832326
      8.30000      0.839440
      8.40000      0.843271
      8.50000      0.845704
      8.60000      0.846482
      8.70000      0.846172
      8.80000      0.844502
      8.90000      0.841907
      9.00000      0.838338
      9.10000      0.833845
      9.20000      0.828604
      9.30000      0.822549
      9.40000      0.815818
      9.50000      0.808469
      9.60000      0.800468
      9.70000      0.791915
      9.80000      0.782956
      9.90000      0.773621
      10.0000      0.763969
      10.1000      0.754012
      10.2000      0.743775
      10.3000      0.733215
      10.4000      0.722359
      10.5000      0.711232
      10.6000      0.699874
      10.7000      0.688307
      10.8000      0.676548
      10.9000      0.664628
      11.0000      0.652561
      11.1000      0.640380
      11.2000      0.628090
      11.3000      0.615726
      11.4000      0.603287
      11.5000      0.590777
      11.6000      0.578216
      11.7000      0.565566
      11.8000      0.552895
      11.9000      0.540161
      12.0000      0.526803
      12.1000      0.515440
      12.2000      0.513133
      12.3000      0.505388
      12.4000      0.493946
      12.5000      0.482262
      12.6000      0.470540
      12.7000      0.458860
      12.8000      0.447254
      12.9000      0.435735
      13.0000      0.424336
      13.1000      0.413085
      13.2000      0.401993
      13.3000      0.391072
      13.4000      0.380334
      13.5000      0.369892
      13.6000      0.359724
      13.7000      0.349728
      13.8000      0.339899
      13.9000      0.330251
      14.0000      0.320781
      14.1000      0.311479
      14.2000      0.302345
      14.3000      0.293376
      14.4000      0.284560
      14.5000      0.275911
      14.6000      0.267431
      14.7000      0.259108
      14.8000      0.250944
      14.9000      0.242941
      15.0000      0.235098
      15.1000      0.227423
      15.2000      0.219940
      15.3000      0.212629
      15.4000      0.205482
      15.5000      0.198500
      15.6000      0.191693
      15.7000      0.185064
      15.8000      0.178638
      15.9000      0.172390
      16.0000      0.166312
      16.1000      0.160406
      16.2000      0.154705
      16.3000      0.149166
      16.4000      0.143773
      16.5000      0.138522
      16.6000      0.133426
      16.7000      0.128487
      16.8000      0.123678
      16.9000      0.118996
      17.0000      0.114460
      17.1000      0.110070
      17.2000      0.105796
      17.3000      0.101642
      17.4000     0.0977033
      17.5000     0.0939507
      17.6000     0.0903513
      17.7000     0.0869301
      17.8000     0.0837485
      17.9000     0.0806581
      18.0000     0.0776361
      18.1000     0.0747187
      18.2000     0.0718533
      18.3000     0.0690296
      18.4000     0.0662525
      18.5000     0.0635251
      18.6000     0.0608327
      18.7000     0.0581757
      18.8000     0.0556156
      18.9000     0.0531297
      19.0000     0.0507443
      19.1000     0.0484580
      19.2000     0.0462457
      19.3000     0.0441443
      19.4000     0.0421314
      19.5000     0.0401863
      19.6000     0.0383597
      19.7000     0.0365989
      19.8000     0.0348977
      19.9000     0.0332997
      20.0000     0.0317486
      20.1000     0.0302592
      20.2000     0.0288367
      20.3000     0.0274544
      20.4000     0.0261424
      20.5000     0.0248753
      20.6000     0.0236494
      20.7000     0.0224895
      20.8000     0.0213612
      20.9000     0.0202859
      21.0000     0.0192923
      21.1000     0.0183622
      21.2000     0.0175965
      21.3000     0.0168810
      21.4000     0.0162680
      21.5000     0.0157609
      21.6000     0.0153596
      21.7000     0.0149542
      21.8000     0.0145491
      21.9000     0.0141222
      22.0000     0.0136824
      22.1000     0.0132064
      22.2000     0.0126615
      22.3000     0.0120584
      22.4000     0.0112310
      22.5000     0.0103402
      22.6000    0.00861785
      22.7000    0.00782351
      22.8000     0.0115956
      22.9000     0.0158284
      23.0000     0.0197218
      23.1000     0.0219850
      23.2000     0.0226613
      23.3000     0.0223848
      23.4000     0.0216140
      23.5000     0.0208449
      23.6000     0.0200815
      23.7000     0.0193004
      23.8000     0.0185255
      23.9000     0.0177840
      24.0000     0.0170519
      24.1000     0.0163444
      24.2000     0.0156502
      24.3000     0.0149884
      24.4000     0.0143409
      24.5000     0.0137211
      24.6000     0.0131175
      24.7000     0.0125423
      24.8000     0.0119832
      24.9000     0.0114495
      25.0000     0.0109321
      25.1000     0.0104392
      25.2000    0.00996132
      25.3000    0.00950640
      25.4000    0.00906557
      25.5000    0.00864753
      25.6000    0.00824230
      25.7000    0.00785975
      25.8000    0.00748741
      25.9000    0.00713692
      26.0000    0.00679435
      26.1000    0.00647342
      26.2000    0.00615817
      26.3000    0.00586519
      26.4000    0.00557549
      26.5000    0.00530810
      26.6000    0.00504355
      26.7000    0.00479839
      26.8000    0.00455801
      26.9000    0.00433282
      27.0000    0.00411396
      27.1000    0.00390633
      27.2000    0.00370657
      27.3000     0.0156158
      27.4000     0.0424743
      27.5000     0.0617240
      27.6000     0.0600133
      27.7000     0.0583201
      27.8000     0.0566509
      27.9000     0.0549986
      28.0000     0.0534059
      28.1000     0.0518379
      28.2000     0.0503185
      28.3000     0.0488366
      28.4000     0.0473874
      28.5000     0.0459864
      28.6000     0.0446045
      28.7000     0.0432947
      28.8000     0.0419987
      28.9000     0.0407503
      29.0000     0.0395247
      29.1000     0.0383315
      29.2000     0.0371731
      29.3000     0.0360329
      29.4000     0.0349400
      29.5000     0.0338589
      29.6000     0.0328204
      29.7000     0.0318014
      29.8000     0.0308096
      29.9000     0.0298504
      30.0000     0.0289033
      30.1000     0.0280009
      30.2000     0.0271087
      30.3000     0.0279250
      30.4000     0.0296970
      30.5000     0.0308759
      30.6000     0.0299386
      30.7000     0.0290119
      30.8000     0.0281222
      30.9000     0.0272506
      31.0000     0.0263994
      31.1000     0.0255813
      31.2000     0.0247727
      31.3000     0.0239995
      31.4000     0.0232409
      31.5000     0.0225015
      31.6000     0.0217926
      31.7000     0.0210921
      31.8000     0.0204219
      31.9000     0.0197651
      32.0000     0.0191204
      32.1000     0.0184958
      32.2000     0.0178786
      32.3000     0.0172877
      32.4000     0.0167123
      32.5000     0.0161476
      32.6000     0.0156198
      32.7000     0.0150996
      32.8000     0.0145979
      32.9000     0.0141133
      33.0000     0.0136345
      33.1000     0.0131945
      33.2000     0.0127655
      33.3000     0.0123468
      33.4000     0.0119468
      33.5000     0.0115518
      33.6000     0.0111722
      33.7000     0.0108049
      33.8000     0.0104421
      33.9000     0.0100988
      34.0000    0.00976179
      34.1000    0.00943271
      34.2000    0.00911960
      34.3000    0.00881014
      34.4000    0.00851112
      34.5000    0.00822435
      34.6000    0.00794096
      34.7000    0.00766822
      34.8000    0.00740211
      34.9000    0.00713916
      35.0000    0.00689220
      35.1000    0.00664951
      35.2000    0.00641155
      35.3000    0.00619140
      35.4000    0.00597389
      35.5000    0.00576243
      35.6000    0.00556194
      35.7000    0.00536388
      35.8000    0.00517315
      35.9000    0.00499085
      36.0000    0.00481078
      36.1000    0.00463887
      36.2000    0.00447337
      36.3000    0.00430992
      36.4000    0.00415503
      36.5000    0.00400500
      36.6000    0.00385683
      36.7000    0.00371737
      36.8000    0.00358160
      36.9000    0.00344755
      37.0000    0.00332202
      37.1000    0.00319936
      37.2000    0.00307826
      37.3000    0.00296534
      37.4000    0.00285473
      37.5000    0.00274554
      37.6000    0.00264397
      37.7000    0.00254437
      37.8000    0.00244607
      37.9000    0.00235473
      38.0000    0.00226524
      38.1000    0.00217691
      38.2000    0.00209475
      38.3000    0.00201447
      38.4000    0.00193523
      38.5000    0.00186133
      38.6000    0.00178942
      38.7000    0.00171846
      38.8000    0.00165198
      38.9000    0.00158770
      39.0000    0.00152427
      39.1000    0.00146446
      39.2000    0.00140712
      39.3000    0.00135054
      39.4000    0.00129672
      39.5000    0.00124564
      39.6000    0.00119526
      39.7000    0.00114681
      39.8000    0.00110144
      39.9000    0.00105667
      40.0000    0.00101306
      40.1000   0.000972844
      40.2000   0.000933175
      40.3000   0.000894053
      40.4000   0.000858307
      40.5000   0.000823189
      40.6000   0.000788554
      40.7000   0.000756342
      40.8000   0.000725307
      40.9000   0.000694706
      41.0000   0.000665655
      41.1000   0.000638280
      41.2000   0.000611290
      41.3000   0.000585093
      41.4000   0.000561029
      41.5000   0.000537302
      41.6000   0.000513911
      41.7000   0.000492532
      41.8000   0.000471692
      41.9000   0.000451148
      42.0000   0.000431841
      42.1000   0.000413592
      42.2000   0.000395602
      42.3000   0.000378143
      42.4000   0.000362184
      42.5000   0.000346453
      42.6000   0.000330949
      42.7000   0.000316733
      42.8000   0.000303005
      42.9000   0.000289475
      43.0000   0.000276591
      43.1000   0.000264641
      43.2000   0.000252865
      43.3000   0.000241262
      43.4000    0.00214038
      43.5000    0.00566137
      43.6000     0.0125787
      43.7000     0.0216662
      43.8000     0.0277446
      43.9000     0.0287080
      44.0000     0.0277735
      44.1000     0.0251075
      44.2000     0.0244019
      44.3000     0.0238658
      44.4000     0.0233441
      44.5000     0.0228406
      44.6000     0.0223388
      44.7000     0.0218386
      44.8000     0.0213649
      44.9000     0.0208964
      45.0000     0.0204294
      45.1000     0.0199717
      45.2000     0.0195342
      45.3000     0.0190982
      45.4000     0.0186636
      45.5000     0.0182474
      45.6000     0.0178407
      45.7000     0.0174353
      45.8000     0.0170322
      45.9000     0.0166534
      46.0000     0.0162758
      46.1000     0.0158996
      46.2000     0.0155458
      46.3000     0.0152298
      46.4000     0.0149150
      46.5000     0.0146011
      46.6000     0.0143045
      46.7000     0.0140170
      46.8000     0.0137304
      46.9000     0.0134447
      47.0000     0.0131815
      47.1000     0.0129205
      47.2000     0.0126604
      47.3000     0.0124039
      47.4000     0.0121612
      47.5000     0.0119192
      47.6000     0.0116781
      47.7000     0.0114435
      47.8000     0.0112188
      47.9000     0.0109948
      48.0000     0.0107715
      48.1000     0.0105563
      48.2000     0.0103473
      48.3000     0.0101390
      48.4000    0.00993139
      48.5000    0.00973410
      48.6000    0.00954129
      48.7000    0.00934912
      48.8000    0.00915757
      48.9000    0.00897612
      49.0000    0.00879715
      49.1000    0.00861877
      49.2000    0.00844099
      49.3000    0.00827331
      49.4000    0.00810699
      49.5000    0.00794122
      49.6000    0.00777600
      49.7000    0.00762079
      49.8000    0.00746633
      49.9000    0.00731238
      50.0000    0.00715905
      50.1000    0.00701280
      50.2000    0.00687138
      50.3000    0.00673242
      50.4000    0.00659610
      50.5000    0.00646237
      50.6000    0.00633115
      50.7000    0.00620232
      50.8000    0.00607578
      50.9000    0.00595191
      51.0000    0.00583054
      51.1000    0.00571161
      51.2000    0.00559478
      51.3000    0.00548026
      51.4000    0.00536820
      51.5000    0.00525799
      51.6000    0.00514979
      51.7000    0.00504351
      51.8000    0.00493826
      51.9000    0.00483498
      52.0000    0.00473358
      52.1000    0.00463424
      52.2000    0.00453668
      52.3000    0.00444083
      52.4000    0.00434719
      52.5000    0.00425532
      52.6000    0.00416381
      52.7000    0.00407271
      52.8000    0.00398327
      52.9000    0.00389581
      53.0000    0.00381025
      53.1000    0.00372628
      53.2000    0.00364410
      53.3000    0.00356349
      53.4000    0.00348447
      53.5000    0.00340720
      53.6000    0.00333141
      53.7000    0.00325708
      53.8000    0.00318435
      53.9000    0.00311304
      54.0000    0.00304327
      54.1000    0.00297515
      54.2000    0.00290833
      54.3000    0.00284274
      54.4000    0.00277857
      54.5000    0.00271567
      54.6000    0.00265410
      54.7000    0.00259398
      54.8000    0.00253510
      54.9000    0.00247734
      55.0000    0.00242084
      55.1000    0.00236547
      55.2000    0.00230924
      55.3000    0.00225248
      55.4000    0.00219689
      55.5000    0.00214246
      55.6000    0.00208935
      55.7000    0.00203747
      55.8000    0.00198671
      55.9000    0.00193714
      56.0000    0.00188902
      56.1000    0.00184124
      56.2000    0.00179393
      56.3000    0.00174783
      56.4000    0.00170276
      56.5000    0.00165871
      56.6000    0.00161572
      56.7000    0.00157382
      56.8000    0.00153285
      56.9000    0.00149290
      57.0000    0.00145453
      57.1000    0.00141745
      57.2000    0.00138119
      57.3000    0.00134573
      57.4000    0.00131116
      57.5000    0.00127742
      57.6000    0.00124447
      57.7000    0.00121224
      57.8000    0.00118086
      57.9000    0.00115024
      58.0000    0.00112035
      58.1000    0.00109113
      58.2000    0.00106267
      58.3000    0.00103490
      58.4000    0.00100775
      58.5000   0.000981243
      58.6000   0.000955444
      58.7000   0.000930289
      58.8000   0.000905715
      58.9000   0.000881716
      59.0000   0.000858299
      59.1000   0.000835485
      59.2000   0.000813222
      59.3000   0.000791510
      59.4000   0.000770335
      59.5000   0.000749716
      59.6000   0.000729620
      59.7000   0.000709994
      59.8000   0.000690827
      59.9000   0.000672129
      60.0000   0.000653958
      60.1000   0.000636241
      60.2000   0.000618961
      60.3000   0.000602110
      60.4000   0.000585677
      60.5000   0.000569688
      60.6000   0.000554087
      60.7000   0.000538878
      60.8000   0.000524054
      60.9000   0.000509591
      61.0000   0.000495507
      61.1000   0.000481795
      61.2000   0.000468433
      61.3000   0.000455418
      61.4000   0.000442738
      61.5000   0.000430386
      61.6000   0.000418363
      61.7000   0.000406678
      61.8000   0.000395441
      61.9000   0.000384544
      62.0000   0.000373922
      62.1000   0.000363577
      62.2000   0.000353526
      62.3000   0.000343732
      62.4000   0.000334179
      62.5000   0.000324866
      62.6000   0.000315789
      62.7000   0.000306965
      62.8000   0.000298620
      62.9000   0.000290499
      63.0000   0.000282589
      63.1000   0.000274880
      63.2000   0.000267357
      63.3000   0.000260017
      63.4000   0.000252864
      63.5000   0.000245912
      63.6000   0.000239141
      63.7000   0.000232544
      63.8000   0.000226118
      63.9000   0.000219856
      64.0000   0.000213751
      64.1000   0.000207805
      64.2000   0.000202022
      64.3000   0.000196400
      64.4000   0.000190922
      64.5000   0.000185583
      64.6000   0.000180380
      64.7000   0.000175310
      64.8000   0.000170370
      64.9000   0.000165560
      65.0000   0.000160880
      65.1000   0.000156336
      65.2000   0.000151915
      65.3000   0.000147608
      65.4000   0.000143413
      65.5000   0.000139328
      65.6000   0.000135347
      65.7000   0.000131473
      65.8000   0.000127704
      65.9000   0.000124041
      66.0000   0.000120482
      66.1000   0.000117026
      66.2000   0.000113662
      66.3000   0.000110386
      66.4000   0.000107196
      66.5000   0.000104089
      66.6000   0.000101066
      66.7000   9.81282e-05
      66.8000   9.52745e-05
      66.9000   9.25194e-05
      67.0000   8.98568e-05
      67.1000   8.72668e-05
      67.2000   8.47462e-05
      67.3000   8.22970e-05
      67.4000   7.99141e-05
      67.5000   7.75967e-05
      67.6000   7.53434e-05
      67.7000   7.31528e-05
      67.8000   7.10201e-05
      67.9000   6.89408e-05
      68.0000   6.69241e-05
      68.1000   6.49714e-05
      68.2000   6.30720e-05
      68.3000   6.12259e-05
      68.4000   5.94313e-05
      68.5000   5.76870e-05
      68.6000   5.59916e-05
      68.7000   5.43438e-05
      68.8000   5.27416e-05
      68.9000   5.11978e-05
      69.0000   4.97748e-05
      69.1000   4.85421e-05
      69.2000   4.74244e-05
      69.3000   4.63403e-05
      69.4000   4.52980e-05
      69.5000   4.42591e-05
      69.6000   4.32161e-05
      69.7000   4.22137e-05
      69.8000   4.12541e-05
      69.9000   4.03154e-05
      70.0000   3.93958e-05
      70.1000   3.84857e-05
      70.2000   3.76438e-05
      70.3000   3.68679e-05
      70.4000   3.61060e-05
      70.5000   3.53656e-05
      70.6000   3.46451e-05
      70.7000   3.39388e-05
      70.8000   3.32452e-05
      70.9000   3.25499e-05
      71.0000   3.18550e-05
      71.1000   3.11898e-05
      71.2000   3.05533e-05
      71.3000   2.99008e-05
      71.4000   2.92270e-05
      71.5000   2.85962e-05
      71.6000   2.80231e-05
      71.7000   2.74545e-05
      71.8000   2.68813e-05
      71.9000   2.63279e-05
      72.0000   2.58075e-05
      72.1000   2.52868e-05
      72.2000   2.47253e-05
      72.3000   2.41771e-05
      72.4000   2.36796e-05
      72.5000   2.31928e-05
      72.6000   2.27157e-05
      72.7000   2.22483e-05
      72.8000   2.17902e-05
      72.9000   2.13414e-05
      73.0000   2.09084e-05
      73.1000   2.04873e-05
      73.2000   2.00749e-05
      73.3000   1.96708e-05
      73.4000   1.92770e-05
      73.5000   1.88951e-05
      73.6000   1.85205e-05
      73.7000   1.81533e-05
      73.8000   1.77930e-05
      73.9000   1.74395e-05
      74.0000   1.70943e-05
      74.1000   1.67727e-05
      74.2000   1.64623e-05
      74.3000   1.61413e-05
      74.4000   1.58139e-05
      74.5000   1.54960e-05
      74.6000   1.51914e-05
      74.7000   1.48925e-05
      74.8000   1.46002e-05
      74.9000   1.43153e-05
      75.0000   1.40350e-05
      75.1000   1.37596e-05
      75.2000   1.34894e-05
      75.3000   1.32243e-05
      75.4000   1.29656e-05
      75.5000   1.27151e-05
      75.6000   1.24691e-05
      75.7000   1.22278e-05
      75.8000   1.19914e-05
      75.9000   1.17614e-05
      76.0000   1.15375e-05
      76.1000   1.13264e-05
      76.2000   1.11203e-05
      76.3000   1.09182e-05
      76.4000   1.07217e-05
      76.5000   1.05288e-05
      76.6000   1.03391e-05
      76.7000   1.01526e-05
      76.8000   9.96927e-06
      76.9000   9.78921e-06
      77.0000   9.61242e-06
      77.1000   9.43892e-06
      77.2000   9.26861e-06
      77.3000   9.10134e-06
      77.4000   8.93703e-06
      77.5000   8.77543e-06
      77.6000   8.61474e-06
      77.7000   8.45688e-06
      77.8000   8.30167e-06
      77.9000   8.14901e-06
      78.0000   7.99775e-06
      78.1000   7.84570e-06
      78.2000   7.69664e-06
      78.3000   7.55786e-06
      78.4000   7.42432e-06
      78.5000   7.29242e-06
      78.6000   7.16064e-06
      78.7000   7.03117e-06
      78.8000   6.90115e-06
      78.9000   6.77272e-06
      79.0000   6.64647e-06
      79.1000   6.52235e-06
      79.2000   6.40059e-06
      79.3000   6.28320e-06
      79.4000   6.16878e-06
      79.5000   6.05587e-06
      79.6000   5.94289e-06
      79.7000   5.83191e-06
      79.8000   5.72183e-06
      79.9000   5.61316e-06
      80.0000   5.50622e-06
      80.1000   5.39872e-06
      80.2000   5.29302e-06
      80.3000   5.18669e-06
      80.4000   5.07999e-06
      80.5000   4.97532e-06
      80.6000   4.87280e-06
      80.7000   4.77237e-06
      80.8000   4.67432e-06
      80.9000   4.57912e-06
      81.0000   4.48580e-06
      81.1000   4.39438e-06
      81.2000   4.30478e-06
      81.3000   4.21700e-06
      81.4000   4.13514e-06
      81.5000   4.05506e-06
      81.6000   3.97769e-06
      81.7000   3.90421e-06
      81.8000   3.83223e-06
      81.9000   3.76325e-06
      82.0000   3.69634e-06
      82.1000   3.63074e-06
      82.2000   3.56501e-06
      82.3000   3.50058e-06
      82.4000   3.43931e-06
      82.5000   3.38318e-06
      82.6000   3.32783e-06
      82.7000   3.27237e-06
      82.8000   3.21660e-06
      82.9000   3.16164e-06
      83.0000   3.10793e-06
      83.1000   3.05526e-06
      83.2000   3.00349e-06
      83.3000   2.95262e-06
      83.4000   2.90270e-06
      83.5000   2.85382e-06
      83.6000   2.80649e-06
      83.7000   2.75990e-06
      83.8000   2.71383e-06
      83.9000   2.66795e-06
      84.0000   2.62275e-06
      84.1000   2.57869e-06
      84.2000   2.53603e-06
      84.3000   2.49405e-06
      84.4000   2.45245e-06
      84.5000   2.41131e-06
      84.6000   2.37088e-06
      84.7000   2.33158e-06
      84.8000   2.29322e-06
      84.9000   2.25552e-06
      85.0000   2.21778e-06
      85.1000   2.18042e-06
      85.2000   2.14366e-06
      85.3000   2.10842e-06
      85.4000   2.07388e-06
      85.5000   2.03994e-06
      85.6000   2.00612e-06
      85.7000   1.97284e-06
      85.8000   1.94010e-06
      85.9000   1.90787e-06
      86.0000   1.87615e-06
      86.1000   1.84496e-06
      86.2000   1.81486e-06
      86.3000   1.78523e-06
      86.4000   1.75604e-06
      86.5000   1.72728e-06
      86.6000   1.69896e-06
      86.7000   1.67108e-06
      86.8000   1.64240e-06
      86.9000   1.61416e-06
      87.0000   1.58641e-06
      87.1000   1.55940e-06
      87.2000   1.53287e-06
      87.3000   1.50681e-06
      87.4000   1.48079e-06
      87.5000   1.45510e-06
      87.6000   1.42982e-06
      87.7000   1.40519e-06
      87.8000   1.38101e-06
      87.9000   1.35723e-06
      88.0000   1.33385e-06
      88.1000   1.31082e-06
      88.2000   1.28818e-06
      88.3000   1.26621e-06
      88.4000   1.24487e-06
      88.5000   1.22397e-06
      88.6000   1.20331e-06
      88.7000   1.18284e-06
      88.8000   1.16272e-06
      88.9000   1.14293e-06
      89.0000   1.12344e-06
      89.1000   1.10430e-06
      89.2000   1.08551e-06
      89.3000   1.06718e-06
      89.4000   1.04933e-06
      89.5000   1.03177e-06
      89.6000   1.01449e-06
      89.7000   9.97470e-07
      89.8000   9.80699e-07
      89.9000   9.64178e-07
      90.0000   9.47937e-07
      90.1000   9.32002e-07
      90.2000   9.16109e-07
      90.3000   8.99981e-07
      90.4000   8.84124e-07
      90.5000   8.68562e-07
      90.6000   8.53458e-07
      90.7000   8.38560e-07
      90.8000   8.23800e-07
      90.9000   8.09077e-07
      91.0000   7.94550e-07
      91.1000   7.80279e-07
      91.2000   7.66123e-07
      91.3000   7.52013e-07
      91.4000   7.38128e-07
      91.5000   7.24517e-07
      91.6000   7.11166e-07
      91.7000   6.98789e-07
      91.8000   6.87761e-07
      91.9000   6.78250e-07
      92.0000   6.68062e-07
      92.1000   6.57843e-07
      92.2000   6.47307e-07
      92.3000   6.36512e-07
      92.4000   6.25661e-07
      92.5000   6.15008e-07
      92.6000   6.04525e-07
      92.7000   5.94213e-07
      92.8000   5.84070e-07
      92.9000   5.74192e-07
      93.0000   5.64659e-07
      93.1000   5.55271e-07
      93.2000   5.46033e-07
      93.3000   5.37165e-07
      93.4000   5.28526e-07
      93.5000   5.20013e-07
      93.6000   5.11616e-07
      93.7000   5.03328e-07
      93.8000   4.95170e-07
      93.9000   4.87135e-07
      94.0000   4.79211e-07
      94.1000   4.71402e-07
      94.2000   4.63726e-07
      94.3000   4.56216e-07
      94.4000   4.48950e-07
      94.5000   4.41805e-07
      94.6000   4.34776e-07
      94.7000   4.27876e-07
      94.8000   4.21076e-07
      94.9000   4.14375e-07
      95.0000   4.07774e-07
      95.1000   4.01302e-07
      95.2000   3.94915e-07
      95.3000   3.88617e-07
      95.4000   3.82424e-07
      95.5000   3.76405e-07
      95.6000   3.70469e-07
      95.7000   3.64615e-07
      95.8000   3.58796e-07
      95.9000   3.53054e-07
      96.0000   3.47390e-07
      96.1000   3.41801e-07
      96.2000   3.36286e-07
      96.3000   3.30878e-07
      96.4000   3.25552e-07
      96.5000   3.20308e-07
      96.6000   3.15157e-07
      96.7000   3.10112e-07
      96.8000   3.05137e-07
      96.9000   3.00231e-07
      97.0000   2.95400e-07
      97.1000   2.90666e-07
      97.2000   2.85997e-07
      97.3000   2.81352e-07
      97.4000   2.76740e-07
      97.5000   2.72214e-07
      97.6000   2.67754e-07
      97.7000   2.63376e-07
      97.8000   2.59077e-07
      97.9000   2.54857e-07
      98.0000   2.50698e-07
      98.1000   2.46598e-07
      98.2000   2.42570e-07
      98.3000   2.38970e-07
      98.4000   2.35596e-07
      98.5000   2.32385e-07
      98.6000   2.29223e-07
      98.7000   2.26102e-07
      98.8000   2.23015e-07
      98.9000   2.19964e-07
      99.0000   2.16964e-07
      99.1000   2.13999e-07
      99.2000   2.11057e-07
      99.3000   2.08088e-07
      99.4000   2.05166e-07
      99.5000   2.02282e-07
      99.6000   1.99449e-07
      99.7000   1.96752e-07
      99.8000   1.94173e-07
      99.9000   1.92341e-07
      100.000   1.91639e-07
      100.100   1.90873e-07
      100.200   1.90107e-07
      100.300   1.89342e-07
      100.400   1.88577e-07
      100.500   1.87838e-07
      100.600   1.87094e-07
      100.700   1.86350e-07
      100.800   1.85603e-07
      100.900   1.84856e-07
      101.000   1.84108e-07
      101.100   1.83362e-07
      101.200   1.82619e-07
      101.300   1.81878e-07
      101.400   1.81140e-07
      101.500   1.80342e-07
      101.600   1.79468e-07
      101.700   1.78614e-07
      101.800   1.77768e-07
      101.900   1.76924e-07
      102.000   1.76086e-07
      102.100   1.75276e-07
      102.200   1.74483e-07
      102.300   1.73690e-07
      102.400   1.72899e-07
      102.500   1.72110e-07
      102.600   1.71320e-07
      102.700   1.70530e-07
      102.800   1.69740e-07
      102.900   1.68950e-07
      103.000   1.68160e-07
      103.100   1.67370e-07
      103.200   1.66582e-07
      103.300   1.65794e-07
      103.400   1.65008e-07
      103.500   1.64223e-07
      103.600   1.63440e-07
      103.700   1.62656e-07
      103.800   1.61835e-07
      103.900   1.60972e-07
      104.000   1.60110e-07
      104.100   1.59254e-07
      104.200   1.58421e-07
      104.300   1.57708e-07
      104.400   1.57001e-07
      104.500   1.56297e-07
      104.600   1.55592e-07
      104.700   1.54852e-07
      104.800   1.54095e-07
      104.900   1.53338e-07
      105.000   1.52581e-07
      105.100   1.51849e-07
      105.200   1.51181e-07
      105.300   1.50515e-07
      105.400   1.49848e-07
      105.500   1.49183e-07
      105.600   1.48535e-07
      105.700   1.47892e-07
      105.800   1.47251e-07
      105.900   1.46613e-07
      106.000   1.46000e-07
      106.100   1.45433e-07
      106.200   1.44871e-07
      106.300   1.44310e-07
      106.400   1.43748e-07
      106.500   1.43187e-07
      106.600   1.42624e-07
      106.700   1.42061e-07
      106.800   1.41496e-07
      106.900   1.40931e-07
      107.000   1.40364e-07
      107.100   1.39797e-07
      107.200   1.39230e-07
      107.300   1.38663e-07
      107.400   1.38096e-07
      107.500   1.37528e-07
      107.600   1.36963e-07
      107.700   1.36401e-07
      107.800   1.35843e-07
      107.900   1.35279e-07
      108.000   1.34716e-07
      108.100   1.34155e-07
      108.200   1.33594e-07
      108.300   1.33031e-07
      108.400   1.32457e-07
      108.500   1.31881e-07
      108.600   1.31304e-07
      108.700   1.30725e-07
      108.800   1.30113e-07
      108.900   1.29453e-07
      109.000   1.28793e-07
      109.100   1.28133e-07
      109.200   1.27475e-07
      109.300   1.26818e-07
      109.400   1.26163e-07
      109.500   1.25510e-07
      109.600   1.24861e-07
      109.700   1.24214e-07
      109.800   1.23571e-07
      109.900   1.22932e-07
      110.000   1.22297e-07
      110.100   1.21665e-07
      110.200   1.21036e-07
      110.300   1.20428e-07
      110.400   1.19824e-07
      110.500   1.19222e-07
      110.600   1.18620e-07
      110.700   1.18019e-07
      110.800   1.17418e-07
      110.900   1.16818e-07
      111.000   1.16218e-07
      111.100   1.15618e-07
      111.200   1.15021e-07
      111.300   1.14465e-07
      111.400   1.13909e-07
      111.500   1.13353e-07
      111.600   1.12797e-07
      111.700   1.12244e-07
      111.800   1.11715e-07
      111.900   1.11189e-07
      112.000   1.10663e-07
      112.100   1.10138e-07
      112.200   1.09615e-07
      112.300   1.09069e-07
      112.400   1.08525e-07
      112.500   1.07984e-07
      112.600   1.07446e-07
      112.700   1.06915e-07
      112.800   1.06410e-07
      112.900   1.05849e-07
      113.000   1.05310e-07
      113.100   1.04782e-07
      113.200   1.04244e-07
      113.300   1.03719e-07
      113.400   1.03063e-07
      113.500   1.02376e-07
      113.600   1.01804e-07
      113.700   1.01198e-07
      113.800   1.00516e-07
      113.900   9.99456e-08
      114.000   9.93758e-08
      114.100   9.87273e-08
      114.200   9.81199e-08
      114.300   9.75776e-08
      114.400   9.70200e-08
      114.500   9.64471e-08
      114.600   9.59586e-08
      114.700   9.54106e-08
      114.800   9.49070e-08
      114.900   9.45020e-08
      115.000   9.40298e-08
      115.100   9.35189e-08
      115.200   9.30060e-08
      115.300   9.25816e-08
      115.400   9.20760e-08
      115.500   9.16121e-08
      115.600   9.11145e-08
      115.700   9.05658e-08
      115.800   9.00868e-08
      115.900   8.95716e-08
      116.000   8.91165e-08
      116.100   8.87532e-08
      116.200   8.83817e-08
      116.300   8.79931e-08
      116.400   8.75745e-08
      116.500   8.72215e-08
      116.600   8.68480e-08
      116.700   8.64913e-08
      116.800   8.61159e-08
      116.900   8.56620e-08
      117.000   8.52991e-08
      117.100   8.51938e-08
      117.200   8.52694e-08
      117.300   8.51684e-08
      117.400   8.50560e-08
      117.500   8.49464e-08
      117.600   8.47335e-08
      117.700   8.44802e-08
      117.800   8.41729e-08
      117.900   8.38383e-08
      118.000   8.34522e-08
      118.100   8.30167e-08
      118.200   8.26206e-08
      118.300   8.22414e-08
      118.400   8.16679e-08
      118.500   8.11113e-08
      118.600   8.06449e-08
      118.700   8.01479e-08
      118.800   7.96093e-08
      118.900   7.91018e-08
      119.000   7.84916e-08
      119.100   7.77713e-08
      119.200   7.71774e-08
      119.300   7.66882e-08
      119.400   7.62488e-08
      119.500   7.58323e-08
      119.600   7.53487e-08
      119.700   7.47871e-08
      119.800   7.40697e-08
      119.900   7.31465e-08
      120.000   7.22941e-08
      120.100   7.14990e-08
      120.200   7.09645e-08
      120.300   7.05796e-08
      120.400   7.01936e-08
      120.500   6.95998e-08
      120.600   6.88495e-08
      120.700   6.80513e-08
      120.800   6.72896e-08
      120.900   6.68022e-08
      121.000   6.67390e-08
      121.100   6.66062e-08
      121.200   6.62679e-08
      121.300   6.57796e-08
      121.400   6.51775e-08
      121.500   6.44906e-08
      121.600   6.34702e-08
      121.700   6.25878e-08
      121.800   6.15906e-08
      121.900   6.05825e-08
      122.000   5.94990e-08
      122.100   5.84808e-08
      122.200   5.74782e-08
      122.300   5.67622e-08
      122.400   5.63546e-08
      122.500   5.60131e-08
      122.600   5.56335e-08
      122.700   5.52522e-08
      122.800   5.48030e-08
      122.900   5.43951e-08
      123.000   5.43438e-08
      123.100   5.49097e-08
      123.200   5.55166e-08
      123.300   5.64405e-08
      123.400   5.76267e-08
      123.500   5.91879e-08
      123.600   6.05337e-08
      123.700   6.12442e-08
      123.800   6.17734e-08
      123.900   6.24835e-08
      124.000   6.34869e-08
      124.100   6.54470e-08
      124.200   6.94472e-08
      124.300   7.54352e-08
      124.400   8.12126e-08
      124.500   8.29031e-08
      124.600   8.26997e-08
      124.700   8.22782e-08
      124.800   8.18794e-08
      124.900   8.14796e-08
      125.000   8.10787e-08
      125.100   8.06751e-08
      125.200   8.02719e-08
      125.300   7.98696e-08
      125.400   7.94688e-08
      125.500   7.90697e-08
      125.600   7.86717e-08
      125.700   7.82757e-08
      125.800   7.78809e-08
      125.900   7.74883e-08
      126.000   7.70975e-08
      126.100   7.67084e-08
      126.200   7.63209e-08
      126.300   7.59348e-08
      126.400   7.55500e-08
      126.500   7.51660e-08
      126.600   7.47833e-08
      126.700   7.44013e-08
      126.800   7.40200e-08
      126.900   7.36390e-08
      127.000   7.32569e-08
      127.100   7.28715e-08
      127.200   7.24858e-08
      127.300   7.20994e-08
      127.400   7.17135e-08
      127.500   7.13282e-08
      127.600   7.09437e-08
      127.700   7.05603e-08
      127.800   7.01777e-08
      127.900   6.97963e-08
      128.000   6.94164e-08
      128.100   6.90378e-08
      128.200   6.86608e-08
      128.300   6.82852e-08
      128.400   6.79113e-08
      128.500   6.75387e-08
      128.600   6.71671e-08
      128.700   6.67974e-08
      128.800   6.64289e-08
      128.900   6.60614e-08
      129.000   6.56954e-08
      129.100   6.53292e-08
      129.200   6.49599e-08
      129.300   6.45918e-08
      129.400   6.42249e-08
      129.500   6.38593e-08
      129.600   6.34949e-08
      129.700   6.31316e-08
      129.800   6.27695e-08
      129.900   6.24087e-08
      130.000   6.20494e-08
      130.100   6.16915e-08
      130.200   6.13348e-08
      130.300   6.09798e-08
      130.400   6.06263e-08
      130.500   6.02741e-08
      130.600   5.99233e-08
      130.700   5.95742e-08
      130.800   5.92269e-08
      130.900   5.88812e-08
      131.000   5.85368e-08
      131.100   5.81941e-08
      131.200   5.78525e-08
      131.300   5.75112e-08
      131.400   5.71714e-08
      131.500   5.68330e-08
      131.600   5.64959e-08
      131.700   5.61600e-08
      131.800   5.58253e-08
      131.900   5.54917e-08
      132.000   5.51592e-08
      132.100   5.48276e-08
      132.200   5.44973e-08
      132.300   5.41679e-08
      132.400   5.38397e-08
      132.500   5.35127e-08
      132.600   5.31868e-08
      132.700   5.28622e-08
      132.800   5.25389e-08
      132.900   5.22171e-08
      133.000   5.18966e-08
      133.100   5.15775e-08
      133.200   5.12600e-08
      133.300   5.09435e-08
      133.400   5.06282e-08
      133.500   5.03142e-08
      133.600   5.00015e-08
      133.700   4.96904e-08
      133.800   4.93808e-08
      133.900   4.90726e-08
      134.000   4.87658e-08
      134.100   4.84604e-08
      134.200   4.81564e-08
      134.300   4.78539e-08
      134.400   4.75528e-08
      134.500   4.72532e-08
      134.600   4.69550e-08
      134.700   4.66582e-08
      134.800   4.63630e-08
      134.900   4.60691e-08
      135.000   4.57767e-08
      135.100   4.54857e-08
      135.200   4.51963e-08
      135.300   4.49084e-08
      135.400   4.46218e-08
      135.500   4.43363e-08
      135.600   4.40517e-08
      135.700   4.37684e-08
      135.800   4.34865e-08
      135.900   4.32060e-08
      136.000   4.29269e-08
      136.100   4.26491e-08
      136.200   4.23729e-08
      136.300   4.20977e-08
      136.400   4.18239e-08
      136.500   4.15514e-08
      136.600   4.12800e-08
      136.700   4.10098e-08
      136.800   4.07408e-08
      136.900   4.04730e-08
      137.000   4.02062e-08
      137.100   3.99404e-08
      137.200   3.96757e-08
      137.300   3.94121e-08
      137.400   3.91498e-08
      137.500   3.88886e-08
      137.600   3.86356e-08
      137.700   3.84013e-08
      137.800   3.81813e-08
      137.900   3.79621e-08
      138.000   3.77438e-08
      138.100   3.75265e-08
      138.200   3.73105e-08
      138.300   3.70953e-08
      138.400   3.68813e-08
      138.500   3.66684e-08
      138.600   3.64565e-08
      138.700   3.62458e-08
      138.800   3.60361e-08
      138.900   3.58276e-08
      139.000   3.56200e-08
      139.100   3.54135e-08
      139.200   3.52079e-08
      139.300   3.50033e-08
      139.400   3.47995e-08
      139.500   3.45966e-08
      139.600   3.43944e-08
      139.700   3.41930e-08
      139.800   3.39924e-08
      139.900   3.37923e-08
      140.000   3.35928e-08
      140.100   3.33938e-08
      140.200   3.31956e-08
      140.300   3.29981e-08
      140.400   3.28013e-08
      140.500   3.26052e-08
      140.600   3.24098e-08
      140.700   3.22152e-08
      140.800   3.20214e-08
      140.900   3.18283e-08
      141.000   3.16358e-08
      141.100   3.14442e-08
      141.200   3.12536e-08
      141.300   3.10637e-08
      141.400   3.08747e-08
      141.500   3.06866e-08
      141.600   3.04993e-08
      141.700   3.03129e-08
      141.800   3.01274e-08
      141.900   2.99429e-08
      142.000   2.97593e-08
      142.100   2.95996e-08
      142.200   2.95067e-08
      142.300   2.94709e-08
      142.400   2.94345e-08
      142.500   2.93974e-08
      142.600   2.93598e-08
      142.700   2.93216e-08
      142.800   2.92828e-08
      142.900   2.92434e-08
      143.000   2.92034e-08
      143.100   2.91626e-08
      143.200   2.91213e-08
      143.300   2.90791e-08
      143.400   2.90365e-08
      143.500   2.89935e-08
      143.600   2.89498e-08
      143.700   2.89056e-08
      143.800   2.88609e-08
      143.900   2.88158e-08
      144.000   2.87703e-08
      144.100   2.87243e-08
      144.200   2.86779e-08
      144.300   2.86313e-08
      144.400   2.85905e-08
      144.500   2.86325e-08
      144.600   2.87005e-08
      144.700   2.87708e-08
      144.800   2.88404e-08
      144.900   2.89093e-08
      145.000   2.89775e-08
      145.100   2.90451e-08
      145.200   2.91119e-08
      145.300   2.91778e-08
      145.400   2.92430e-08
      145.500   2.93072e-08
      145.600   2.93705e-08
      145.700   2.94327e-08
      145.800   2.94941e-08
      145.900   2.95546e-08
      146.000   2.96139e-08
      146.100   2.96722e-08
      146.200   2.97295e-08
      146.300   2.97858e-08
      146.400   2.98408e-08
      146.500   2.98947e-08
      146.600   2.99475e-08
      146.700   2.99994e-08
      146.800   3.00483e-08
      146.900   3.00936e-08
      147.000   3.01378e-08
      147.100   3.01808e-08
      147.200   3.02230e-08
      147.300   3.02643e-08
      147.400   3.03048e-08
      147.500   3.03445e-08
      147.600   3.03833e-08
      147.700   3.04213e-08
      147.800   3.04586e-08
      147.900   3.04951e-08
      148.000   3.05308e-08
      148.100   3.05658e-08
      148.200   3.06004e-08
      148.300   3.06342e-08
      148.400   3.06673e-08
      148.500   3.06998e-08
      148.600   3.07315e-08
      148.700   3.07624e-08
      148.800   3.07925e-08
      148.900   3.08219e-08
      149.000   3.08505e-08
      149.100   3.08782e-08
      149.200   3.09049e-08
      149.300   3.09306e-08
      149.400   3.09554e-08
      149.500   3.09792e-08
      149.600   3.10019e-08
      149.700   3.10236e-08
      149.800   3.10443e-08
      149.900   3.10641e-08
      150.000   3.10830e-08
      150.100   3.11008e-08
      150.200   3.11173e-08
      150.300   3.11329e-08
      150.400   3.11476e-08
      150.500   3.11612e-08
      150.600   3.11738e-08
      150.700   3.11855e-08
      150.800   3.11960e-08
      150.900   3.12055e-08
      151.000   3.12139e-08
      151.100   3.12215e-08
      151.200   3.12281e-08
      151.300   3.12337e-08
      151.400   3.12384e-08
      151.500   3.12420e-08
      151.600   3.12455e-08
      151.700   3.12490e-08
      151.800   3.12516e-08
      151.900   3.12532e-08
      152.000   3.12538e-08
      152.100   3.12536e-08
      152.200   3.12526e-08
      152.300   3.12504e-08
      152.400   3.12474e-08
      152.500   3.12437e-08
      152.600   3.12390e-08
      152.700   3.12334e-08
      152.800   3.12269e-08
      152.900   3.12196e-08
      153.000   3.12115e-08
      153.100   3.12026e-08
      153.200   3.11928e-08
      153.300   3.11823e-08
      153.400   3.11709e-08
      153.500   3.11587e-08
      153.600   3.11457e-08
      153.700   3.11321e-08
      153.800   3.11175e-08
      153.900   3.11022e-08
      154.000   3.10780e-08
      154.100   3.10473e-08
      154.200   3.10166e-08
      154.300   3.09852e-08
      154.400   3.09530e-08
      154.500   3.09198e-08
      154.600   3.08858e-08
      154.700   3.08510e-08
      154.800   3.08153e-08
      154.900   3.07787e-08
      155.000   3.07412e-08
      155.100   3.07030e-08
      155.200   3.06635e-08
      155.300   3.06232e-08
      155.400   3.05820e-08
      155.500   3.05400e-08
      155.600   3.04968e-08
      155.700   3.04526e-08
      155.800   3.04076e-08
      155.900   3.03616e-08
      156.000   3.03146e-08
      156.100   3.02665e-08
      156.200   3.02176e-08
      156.300   3.01678e-08
      156.400   3.01170e-08
      156.500   3.00614e-08
      156.600   2.99948e-08
      156.700   2.99268e-08
      156.800   2.98579e-08
      156.900   2.97884e-08
      157.000   2.97183e-08
      157.100   2.96474e-08
      157.200   2.95758e-08
      157.300   2.95037e-08
      157.400   2.94311e-08
      157.500   2.93578e-08
      157.600   2.92839e-08
      157.700   2.92096e-08
      157.800   2.91347e-08
      157.900   2.90591e-08
      158.000   2.89830e-08
      158.100   2.89065e-08
      158.200   2.88292e-08
      158.300   2.87515e-08
      158.400   2.86734e-08
      158.500   2.85947e-08
      158.600   2.85153e-08
      158.700   2.84353e-08
      158.800   2.83550e-08
      158.900   2.82739e-08
      159.000   2.81922e-08
      159.100   2.81098e-08
      159.200   2.80269e-08
      159.300   2.79432e-08
      159.400   2.78589e-08
      159.500   2.77741e-08
      159.600   2.76887e-08
      159.700   2.76027e-08
      159.800   2.75160e-08
      159.900   2.74289e-08
      160.000   2.73410e-08
      160.100   2.72525e-08
      160.200   2.71634e-08
      160.300   2.70738e-08
      160.400   2.69839e-08
      160.500   2.68932e-08
      160.600   2.68022e-08
      160.700   2.67107e-08
      160.800   2.66188e-08
      160.900   2.65264e-08
      161.000   2.64336e-08
      161.100   2.63406e-08
      161.200   2.62472e-08
      161.300   2.61534e-08
      161.400   2.60594e-08
      161.500   2.59653e-08
      161.600   2.58707e-08
      161.700   2.57756e-08
      161.800   2.56803e-08
      161.900   2.55849e-08
      162.000   2.54891e-08
      162.100   2.53932e-08
      162.200   2.52971e-08
      162.300   2.52008e-08
      162.400   2.51042e-08
      162.500   2.50073e-08
      162.600   2.49103e-08
      162.700   2.48130e-08
      162.800   2.47154e-08
      162.900   2.46176e-08
      163.000   2.45194e-08
      163.100   2.44211e-08
      163.200   2.43223e-08
      163.300   2.42232e-08
      163.400   2.41239e-08
      163.500   2.40242e-08
      163.600   2.39241e-08
      163.700   2.38237e-08
      163.800   2.37232e-08
      163.900   2.36223e-08
      164.000   2.35209e-08
      164.100   2.34194e-08
      164.200   2.33176e-08
      164.300   2.32168e-08
      164.400   2.31158e-08
      164.500   2.30147e-08
      164.600   2.29133e-08
      164.700   2.28117e-08
      164.800   2.27099e-08
      164.900   2.26080e-08
      165.000   2.25060e-08
      165.100   2.24040e-08
      165.200   2.23018e-08
      165.300   2.21996e-08
      165.400   2.20975e-08
      165.500   2.19953e-08
      165.600   2.18931e-08
      165.700   2.17911e-08
      165.800   2.16891e-08
      165.900   2.15872e-08
      166.000   2.14854e-08
      166.100   2.13837e-08
      166.200   2.12822e-08
      166.300   2.11808e-08
      166.400   2.10795e-08
      166.500   2.09783e-08
      166.600   2.08774e-08
      166.700   2.07765e-08
      166.800   2.06741e-08
      166.900   2.05634e-08
      167.000   2.04455e-08
      167.100   2.03275e-08
      167.200   2.02097e-08
      167.300   2.00923e-08
      167.400   1.99750e-08
      167.500   1.98580e-08
      167.600   1.97412e-08
      167.700   1.96247e-08
      167.800   1.95084e-08
      167.900   1.93922e-08
      168.000   1.92762e-08
      168.100   1.91604e-08
      168.200   1.90448e-08
      168.300   1.89293e-08
      168.400   1.88140e-08
      168.500   1.86990e-08
      168.600   1.85840e-08
      168.700   1.84692e-08
      168.800   1.83545e-08
      168.900   1.82402e-08
      169.000   1.81260e-08
      169.100   1.80120e-08
      169.200   1.78982e-08
      169.300   1.77847e-08
      169.400   1.76713e-08
      169.500   1.75533e-08
      169.600   1.74142e-08
      169.700   1.72540e-08
      169.800   1.70933e-08
      169.900   1.69333e-08
      170.000   1.67741e-08
      170.100   1.66157e-08
      170.200   1.64582e-08
      170.300   2.97508e-08
      170.400   1.47566e-07
      170.500   4.79704e-07
      170.600   1.00227e-06
      170.700   1.57235e-06
      170.800   1.89780e-06
      170.900   1.94441e-06
      171.000   1.91511e-06
      171.100   1.88603e-06
      171.200   1.85717e-06
      171.300   1.82851e-06
      171.400   1.80008e-06
      171.500   1.77188e-06
      171.600   1.74392e-06
      171.700   1.71623e-06
      171.800   1.68883e-06
      171.900   1.66174e-06
      172.000   1.63500e-06
      172.100   1.60862e-06
      172.200   1.58264e-06
      172.300   1.55704e-06
      172.400   1.53165e-06
      172.500   1.50664e-06
      172.600   1.48205e-06
      172.700   1.45787e-06
      172.800   1.43410e-06
      172.900   1.41073e-06
      173.000   1.38778e-06
      173.100   1.36523e-06
      173.200   1.34306e-06
      173.300   1.32129e-06
      173.400   1.29989e-06
      173.500   1.27887e-06
      173.600   1.25821e-06
      173.700   1.23792e-06
      173.800   1.21796e-06
      173.900   1.19836e-06
      174.000   1.17909e-06
      174.100   1.16013e-06
      174.200   1.14150e-06
      174.300   1.12318e-06
      174.400   1.10516e-06
      174.500   1.08743e-06
      174.600   1.06997e-06
      174.700   1.05280e-06
      174.800   1.03591e-06
      174.900   1.01928e-06
      175.000   1.00289e-06
      175.100   9.86760e-07
      175.200   9.70904e-07
      175.300   9.55280e-07
      175.400   9.39892e-07
      175.500   9.24746e-07
      175.600   9.09828e-07
      175.700   8.95142e-07
      175.800   8.80676e-07
      175.900   8.66434e-07
      176.000   8.52411e-07
      176.100   8.38608e-07
      176.200   8.25014e-07
      176.300   8.11625e-07
      176.400   7.98450e-07
      176.500   7.85472e-07
      176.600   7.72693e-07
      176.700   7.60109e-07
      176.800   7.47718e-07
      176.900   7.35518e-07
      177.000   7.23502e-07
      177.100   7.11665e-07
      177.200   7.00012e-07
      177.300   6.88534e-07
      177.400   6.77224e-07
      177.500   6.66081e-07
      177.600   6.55107e-07
      177.700   6.44297e-07
      177.800   6.33649e-07
      177.900   6.23148e-07
      178.000   6.12840e-07
      178.100   6.02687e-07
      178.200   5.92680e-07
      178.300   5.82823e-07
      178.400   5.73118e-07
      178.500   5.63557e-07
      178.600   5.54138e-07
      178.700   5.44857e-07
      178.800   5.35721e-07
      178.900   5.26726e-07
      179.000   5.17866e-07
      179.100   5.09140e-07
      179.200   5.00552e-07
      179.300   4.92098e-07
      179.400   4.83776e-07
      179.500   4.75590e-07
      179.600   4.67531e-07
      179.700   4.59606e-07
      179.800   4.51806e-07
      179.900   4.44133e-07
      180.000   4.36584e-07
      180.100   4.29160e-07
      180.200   4.21859e-07
      180.300   4.14680e-07
      180.400   4.07617e-07
      180.500   4.00675e-07
      180.600   3.93848e-07
      180.700   3.87136e-07
      180.800   3.80438e-07
      180.900   3.73741e-07
      181.000   3.67130e-07
      181.100   3.60636e-07
      181.200   3.54254e-07
      181.300   3.47982e-07
      181.400   3.41823e-07
      181.500   3.35770e-07
      181.600   3.29823e-07
      181.700   3.23978e-07
      181.800   3.18237e-07
      181.900   3.12597e-07
      182.000   3.07057e-07
      182.100   3.01613e-07
      182.200   2.96268e-07
      182.300   2.91016e-07
      182.400   2.85859e-07
      182.500   2.80791e-07
      182.600   2.75812e-07
      182.700   2.70921e-07
      182.800   2.66118e-07
      182.900   2.61398e-07
      183.000   2.56763e-07
      183.100   2.52212e-07
      183.200   2.47740e-07
      183.300   2.43347e-07
      183.400   2.39032e-07
      183.500   2.34794e-07
      183.600   2.30632e-07
      183.700   2.26387e-07
      183.800   2.21608e-07
      183.900   2.16815e-07
      184.000   2.12125e-07
      184.100   2.07534e-07
      184.200   2.03041e-07
      184.300   1.98641e-07
      184.400   1.94334e-07
      184.500   1.90117e-07
      184.600   1.85988e-07
      184.700   1.81944e-07
      184.800   1.77985e-07
      184.900   1.74107e-07
      185.000   1.70310e-07
      185.100   1.66591e-07
      185.200   1.62947e-07
      185.300   1.59382e-07
      185.400   1.55888e-07
      185.500   1.52466e-07
      185.600   1.49115e-07
      185.700   1.45830e-07
      185.800   1.42617e-07
      185.900   1.39472e-07
      186.000   1.36388e-07
      186.100   1.33369e-07
      186.200   1.30412e-07
      186.300   1.27514e-07
      186.400   1.24677e-07
      186.500   1.21897e-07
      186.600   1.19174e-07
      186.700   1.16507e-07
      186.800   1.13894e-07
      186.900   1.11334e-07
      187.000   1.08827e-07
      187.100   1.06372e-07
      187.200   1.03968e-07
      187.300   1.01616e-07
      187.400   9.93127e-08
      187.500   9.70580e-08
      187.600   9.48501e-08
      187.700   9.26886e-08
      187.800   9.05719e-08
      187.900   8.84995e-08
      188.000   8.64718e-08
      188.100   8.44868e-08
      188.200   8.25431e-08
      188.300   8.06404e-08
      188.400   7.87781e-08
      188.500   7.69564e-08
      188.600   7.51746e-08
      188.700   7.34321e-08
      188.800   7.17277e-08
      188.900   7.00607e-08
      189.000   6.84294e-08
      189.100   6.68330e-08
      189.200   6.52716e-08
      189.300   6.37449e-08
      189.400   6.22518e-08
      189.500   6.07913e-08
      189.600   5.93620e-08
      189.700   5.79585e-08
      189.800   5.65462e-08
      189.900   5.51688e-08
      190.000   5.38225e-08
      190.100   5.25080e-08
      190.200   5.12238e-08
      190.300   4.99695e-08
      190.400   4.87437e-08
      190.500   4.75467e-08
      190.600   4.63781e-08
      190.700   4.52364e-08
      190.800   4.41216e-08
      190.900   4.30332e-08
      191.000   4.19709e-08
      191.100   4.09351e-08
      191.200   3.99233e-08
      191.300   3.89354e-08
      191.400   3.79711e-08
      191.500   3.70293e-08
      191.600   3.61100e-08
      191.700   3.52125e-08
      191.800   3.43358e-08
      191.900   3.34804e-08
      192.000   3.26457e-08
      192.100   3.18317e-08
      192.200   3.10379e-08
      192.300   3.02628e-08
      192.400   2.95060e-08
      192.500   2.87673e-08
      192.600   2.80464e-08
      192.700   2.73330e-08
      192.800   2.65847e-08
      192.900   2.57633e-08
      193.000   2.49659e-08
      193.100   2.41925e-08
      193.200   2.34425e-08
      193.300   2.27144e-08
      193.400   2.20078e-08
      193.500   2.13218e-08
      193.600   2.06555e-08
      193.700   2.00087e-08
      193.800   1.93812e-08
      193.900   1.87724e-08
      194.000   1.81812e-08
      194.100   1.76083e-08
      194.200   1.70535e-08
      194.300   1.65150e-08
      194.400   1.59925e-08
      194.500   1.54854e-08
      194.600   1.49933e-08
      194.700   1.45161e-08
      194.800   1.40533e-08
      194.900   1.36041e-08
      195.000   1.31686e-08
      195.100   1.27472e-08
      195.200   1.23385e-08
      195.300   1.19423e-08
      195.400   1.15578e-08
      195.500   1.11849e-08
      195.600   1.08232e-08
      195.700   1.04724e-08
      195.800   1.01323e-08
      195.900   9.80238e-09
      196.000   9.47974e-09
      196.100   9.16697e-09
      196.200   8.86384e-09
      196.300   8.57000e-09
      196.400   8.28517e-09
      196.500   8.00900e-09
      196.600   7.74149e-09
      196.700   7.48221e-09
      196.800   7.23132e-09
      196.900   6.98860e-09
      197.000   6.75351e-09
      197.100   6.52570e-09
      197.200   6.30500e-09
      197.300   6.09110e-09
      197.400   5.88377e-09
      197.500   5.68303e-09
      197.600   5.48862e-09
      197.700   5.30095e-09
      197.800   5.11929e-09
      197.900   4.94324e-09
      198.000   4.77280e-09
      198.100   4.60780e-09
      198.200   4.44798e-09
      198.300   4.29320e-09
      198.400   4.14349e-09
      198.500   3.99900e-09
      198.600   3.85930e-09
      198.700   3.72409e-09
      198.800   3.59322e-09
      198.900   3.46663e-09
      199.000   3.34632e-09
      199.100   3.23647e-09
      199.200   3.13911e-09
      199.300   3.04471e-09
      199.400   2.95305e-09
      199.500   2.86400e-09
      199.600   2.77742e-09
      199.700   2.69329e-09
      199.800   2.61153e-09
      199.900   2.53211e-09
      200.000   2.45493e-09
      200.100   2.38025e-09
      200.200   2.30765e-09
      200.300   2.23716e-09
      200.400   2.16871e-09
      200.500   2.10224e-09
      200.600   2.03769e-09
      200.700   1.97502e-09
      200.800   1.91414e-09
      200.900   1.85505e-09
      201.000   1.79777e-09
      201.100   1.74218e-09
      201.200   1.68822e-09
      201.300   1.63585e-09
      201.400   1.58504e-09
      201.500   1.53568e-09
      201.600   1.48780e-09
      201.700   1.44133e-09
      201.800   1.39621e-09
      201.900   1.35249e-09
      202.000   1.31013e-09
      202.100   1.26898e-09
      202.200   1.22909e-09
      202.300   1.19117e-09
      202.400   1.15562e-09
      202.500   1.12131e-09
      202.600   1.08795e-09
      202.700   1.05553e-09
      202.800   1.02406e-09
      202.900   9.93505e-10
      203.000   9.63837e-10
      203.100   9.35021e-10
      203.200   9.07020e-10
      203.300   8.79811e-10
      203.400   8.53387e-10
      203.500   8.27732e-10
      203.600   8.02812e-10
      203.700   7.78611e-10
      203.800   7.55150e-10
      203.900   7.32382e-10
      204.000   7.10272e-10
      204.100   6.88812e-10
      204.200   6.67985e-10
      204.300   6.47756e-10
      204.400   6.28128e-10
      204.500   6.09075e-10
      204.600   5.90576e-10
      204.700   5.72626e-10
      204.800   5.55230e-10
      204.900   5.38353e-10
      205.000   5.21976e-10
      205.100   5.06090e-10
      205.200   4.90663e-10
      205.300   4.75704e-10
      205.400   4.61185e-10
      205.500   4.47092e-10
      205.600   4.33504e-10
      205.700   4.20404e-10
      205.800   4.07689e-10
      205.900   3.95359e-10
      206.000   3.83409e-10
      206.100   3.71799e-10
      206.200   3.60527e-10
      206.300   3.49590e-10
      206.400   3.38976e-10
      206.500   3.28665e-10
      206.600   3.18662e-10
      206.700   3.08950e-10
      206.800   2.99518e-10
      206.900   2.90364e-10
      207.000   2.81484e-10
      207.100   2.72868e-10
      207.200   2.64512e-10
      207.300   2.56401e-10
      207.400   2.48524e-10
      207.500   2.40879e-10
      207.600   2.33460e-10
      207.700   2.26255e-10
      207.800   2.19264e-10
      207.900   2.12479e-10
      208.000   2.05893e-10
      208.100   1.99501e-10
      208.200   1.93301e-10
      208.300   1.87282e-10
      208.400   1.81449e-10
      208.500   1.75792e-10
      208.600   1.70299e-10
      208.700   1.64968e-10
      208.800   1.59790e-10
      208.900   1.54501e-10
      209.000   1.49024e-10
      209.100   1.43731e-10
      209.200   1.38616e-10
      209.300   1.33672e-10
      209.400   1.28898e-10
      209.500   1.24283e-10
      209.600   1.19824e-10
      209.700   1.15520e-10
      209.800   1.11371e-10
      209.900   1.07358e-10
      210.000   1.03485e-10
      210.100   9.97439e-11
      210.200   9.61306e-11
      210.300   9.26422e-11
      210.400   8.92739e-11
      210.500   8.60209e-11
      210.600   8.28808e-11
      210.700   7.98503e-11
      210.800   7.69242e-11
      210.900   7.40997e-11
      211.000   7.13734e-11
      211.100   6.87434e-11
      211.200   6.62047e-11
      211.300   6.37586e-11
      211.400   6.14001e-11
      211.500   5.91228e-11
      211.600   5.69261e-11
      211.700   5.48076e-11
      211.800   5.27625e-11
      211.900   5.07900e-11
      212.000   4.88886e-11
      212.100   4.70543e-11
      212.200   4.52412e-11
      212.300   4.28391e-11
      212.400   4.01662e-11
      212.500   3.76489e-11
      212.600   3.52804e-11
      212.700   3.30506e-11
      212.800   3.09529e-11
      212.900   2.89809e-11
      213.000   2.71275e-11
      213.100   2.53883e-11
      213.200   2.37533e-11
      213.300   2.22179e-11
      213.400   2.07750e-11
      213.500   1.94201e-11
      213.600   1.81483e-11
      213.700   1.69553e-11
      213.800   1.58352e-11
      213.900   1.47855e-11
      214.000   1.38011e-11
      214.100   1.28781e-11
      214.200   1.20138e-11
      214.300   1.12038e-11
      214.400   1.04451e-11
      214.500   9.73490e-12
      214.600   9.07057e-12
      214.700   8.44884e-12
      214.800   7.86727e-12
      214.900   7.32387e-12
      215.000   6.81551e-12
      215.100   6.34084e-12
      215.200   5.89814e-12
      215.300   5.48505e-12
      215.400   5.09902e-12
      215.500   4.73877e-12
      215.600   4.40291e-12
      215.700   4.08935e-12
      215.800   3.79696e-12
      215.900   3.52456e-12
      216.000   3.27055e-12
      216.100   3.03386e-12
      216.200   2.81352e-12
      216.300   2.60839e-12
      216.400   2.41744e-12
      216.500   2.23969e-12
      216.600   2.07443e-12
      216.700   1.92077e-12
      216.800   1.77787e-12
      216.900   1.64514e-12
      217.000   1.52183e-12
      217.100   1.40724e-12
      217.200   1.30094e-12
      217.300   1.20225e-12
      217.400   1.11066e-12
      217.500   1.02576e-12
      217.600   9.47001e-13
      217.700   8.73995e-13
      217.800   8.06345e-13
      217.900   7.43756e-13
      218.000   6.85832e-13
      218.100   6.32216e-13
      218.200   5.82606e-13
      218.300   5.36730e-13
      218.400   4.94287e-13
      218.500   4.55028e-13
      218.600   4.18774e-13
      218.700   3.85255e-13
      218.800   3.54299e-13
      218.900   3.25736e-13
      219.000   2.99354e-13
      219.100   2.75234e-13
      219.200   2.54799e-13
      219.300   2.38567e-13
      219.400   2.23321e-13
      219.500   2.09016e-13
      219.600   1.95592e-13
      219.700   1.82994e-13
      219.800   1.71181e-13
      219.900   1.60098e-13
      220.000   1.49702e-13
      220.100   1.39955e-13
      220.200   1.30820e-13
      220.300   1.22260e-13
      220.400   1.14236e-13
      220.500   1.06720e-13
      220.600   9.96815e-14
      220.700   9.30872e-14
      220.800   8.69101e-14
      220.900   8.11323e-14
      221.000   7.57218e-14
      221.100   7.06570e-14
      221.200   6.59212e-14
      221.300   6.14898e-14
      221.400   5.73443e-14
      221.500   5.34692e-14
      221.600   4.98456e-14
      221.700   4.64574e-14
      221.800   4.32907e-14
      221.900   4.03333e-14
      222.000   3.75704e-14
      222.100   3.49882e-14
      222.200   3.25788e-14
      222.300   3.03284e-14
      222.400   2.82273e-14
      222.500   2.62660e-14
      222.600   2.44374e-14
      222.700   2.27305e-14
      222.800   2.11384e-14
      222.900   1.96549e-14
      223.000   1.82710e-14
      223.100   1.69807e-14
      223.200   1.57783e-14
      223.300   1.46584e-14
      223.400   1.36150e-14
      223.500   1.26426e-14
      223.600   1.17379e-14
      223.700   1.08952e-14
      223.800   1.01105e-14
      223.900   9.38129e-15
      224.000   8.70203e-15
      224.100   8.07024e-15
      224.200   7.48272e-15
      224.300   6.93669e-15
      224.400   6.42879e-15
      224.500   5.95685e-15
      224.600   5.51817e-15
      224.700   5.11106e-15
      224.800   4.73277e-15
      224.900   4.38133e-15
      225.000   4.05523e-15
      225.100   3.75245e-15
      225.200   3.47147e-15
      225.300   3.21101e-15
      225.400   2.96924e-15
      225.500   2.74502e-15
      225.600   2.53716e-15
      225.700   2.34459e-15
      225.800   2.16605e-15
      225.900   2.00065e-15
      226.000   1.84753e-15
      226.100   1.70565e-15
      226.200   1.57428e-15
      226.300   1.45286e-15
      226.400   1.34058e-15
      226.500   1.23660e-15
      226.600   1.14040e-15
      226.700   1.05149e-15
      226.800   9.69226e-16
      226.900   8.93151e-16
      227.000   8.22902e-16
      227.100   7.57966e-16
      227.200   6.97983e-16
      227.300   6.42599e-16
      227.400   5.91468e-16
      227.500   5.44263e-16
      227.600   5.00706e-16
      227.700   4.60519e-16
      227.800   4.23462e-16
      227.900   3.89293e-16
      228.000   3.57789e-16
      228.100   3.28752e-16
      228.200   3.01993e-16
      228.300   2.77346e-16
      228.400   2.54653e-16
      228.500   2.33750e-16
      228.600   2.14515e-16
      228.700   1.96811e-16
      228.800   1.80520e-16
      228.900   1.65544e-16
      229.000   1.51765e-16
      229.100   1.39100e-16
      229.200   1.27460e-16
      229.300   1.16765e-16
      229.400   1.06941e-16
      229.500   9.79175e-17
      229.600   8.96326e-17
      229.700   8.20288e-17
      229.800   7.50491e-17
      229.900   6.86689e-17
      230.000   6.29965e-17
      230.100   5.81130e-17
      230.200   5.35975e-17
      230.300   4.94258e-17
      230.400   4.55682e-17
      230.500   4.20062e-17
      230.600   3.87193e-17
      230.700   3.56816e-17
      230.800   3.28763e-17
      230.900   3.02862e-17
      231.000   2.78936e-17
      231.100   2.56853e-17
      231.200   2.36468e-17
      231.300   2.17663e-17
      231.400   2.00319e-17
      231.500   1.84311e-17
      231.600   1.69545e-17
      231.700   1.55936e-17
      231.800   1.43391e-17
      231.900   1.31828e-17
      232.000   1.21172e-17
      232.100   1.11353e-17
      232.200   1.02310e-17
      232.300   9.39826e-18
      232.400   8.63136e-18
      232.500   7.92521e-18
      232.600   7.27555e-18
      232.700   6.67774e-18
      232.800   6.12770e-18
      232.900   5.62179e-18
      233.000   5.15650e-18
      233.100   4.72886e-18
      233.200   4.33556e-18
      233.300   3.97422e-18
      233.400   3.64226e-18
      233.500   3.33787e-18
      233.600   3.05862e-18
      233.700   2.80207e-18
      233.800   2.56304e-18
      233.900   2.34345e-18
      234.000   2.14210e-18
      234.100   1.95768e-18
      234.200   1.78875e-18
      234.300   1.63401e-18
      234.400   1.49232e-18
      234.500   1.36262e-18
      234.600   1.24389e-18
      234.700   1.13527e-18
      234.800   1.03591e-18
      234.900   9.45007e-19
      235.000   8.61868e-19
      235.100   7.85879e-19
      235.200   7.16419e-19
      235.300   6.52941e-19
      235.400   5.94950e-19
      235.500   5.41975e-19
      235.600   4.93613e-19
      235.700   4.49487e-19
      235.800   4.09348e-19
      235.900   3.72707e-19
      236.000   3.39266e-19
      236.100   3.08748e-19
      236.200   2.80909e-19
      236.300   2.55514e-19
      236.400   2.32364e-19
      236.500   2.11256e-19
      236.600   1.92021e-19
      236.700   1.74493e-19
      236.800   1.58523e-19
      236.900   1.43981e-19
      237.000   1.30740e-19
      237.100   1.18683e-19
      237.200   1.07715e-19
      237.300   9.77325e-20
      237.400   8.86911e-20
      237.500   8.08206e-20
      237.600   7.42479e-20
      237.700   6.82162e-20
      237.800   6.26627e-20
      237.900   5.75505e-20
      238.000   5.28475e-20
      238.100   4.85180e-20
      238.200   4.45354e-20
      238.300   4.08716e-20
      238.400   3.75023e-20
      238.500   3.44037e-20
      238.600   3.15553e-20
      238.700   2.89378e-20
      238.800   2.65316e-20
      238.900   2.43208e-20
      239.000   2.22897e-20
      239.100   2.04243e-20
      239.200   1.87117e-20
      239.300   1.71435e-20
      239.400   1.57074e-20
      239.500   1.43884e-20
      239.600   1.31774e-20
      239.700   1.20663e-20
      239.800   1.10464e-20
      239.900   1.01106e-20
      240.000   9.25223e-21
      240.100   8.46476e-21
      240.200   7.74267e-21
      240.300   7.08082e-21
      240.400   6.47392e-21
      240.500   5.91808e-21
      240.600   5.40872e-21
      240.700   4.94219e-21
      240.800   4.51615e-21
      240.900   4.12706e-21
      241.000   3.77071e-21
      241.100   3.44439e-21
      241.200   3.14563e-21
      241.300   2.88546e-21
      241.400   2.67060e-21
      241.500   2.48384e-21
      241.600   2.30984e-21
      241.700   2.14773e-21
      241.800   1.99674e-21
      241.900   1.85612e-21
      242.000   1.72518e-21
      242.100   1.60328e-21
      242.200   1.49014e-21
      242.300   1.38504e-21
      242.400   1.28716e-21
      242.500   1.19605e-21
      242.600   1.11124e-21
      242.700   1.03229e-21
      242.800   9.58841e-22
      242.900   8.90492e-22
      243.000   8.26903e-22
      243.100   7.67756e-22
      243.200   7.12721e-22
      243.300   6.61550e-22
      243.400   6.13987e-22
      243.500   5.69881e-22
      243.600   5.29004e-22
      243.700   4.90973e-22
      243.800   4.55610e-22
      243.900   4.22752e-22
      244.000   3.92195e-22
      244.100   3.63798e-22
      244.200   3.37414e-22
      244.300   3.12890e-22
      244.400   2.90115e-22
      244.500   2.68956e-22
      244.600   2.49303e-22
      244.700   2.31095e-22
      244.800   2.14255e-22
      244.900   1.98617e-22
      245.000   1.84087e-22
      245.100   1.70596e-22
      245.200   1.58077e-22
      245.300   1.46454e-22
      245.400   1.35661e-22
      245.500   1.25651e-22
      245.600   1.16360e-22
      245.700   1.07737e-22
      245.800   9.97371e-23
      245.900   9.23558e-23
      246.000   8.55225e-23
      246.100   7.91812e-23
      246.200   7.32997e-23
      246.300   6.78437e-23
      246.400   6.27857e-23
      246.500   5.80950e-23
      246.600   5.37463e-23
      246.700   4.97162e-23
      246.800   4.59793e-23
      246.900   4.25171e-23
      247.000   3.93251e-23
      247.100   3.63742e-23
      247.200   3.36397e-23
      247.300   3.11061e-23
      247.400   2.87582e-23
      247.500   2.65833e-23
      247.600   2.45690e-23
      247.700   2.27035e-23
      247.800   2.09762e-23
      247.900   1.93770e-23
      248.000   1.78971e-23
      248.100   1.65386e-23
      248.200   1.52803e-23
      248.300   1.41154e-23
      248.400   1.30372e-23
      248.500   1.20390e-23
      248.600   1.11154e-23
      248.700   1.02611e-23
      248.800   9.47078e-24
      248.900   8.73994e-24
      249.000   8.06408e-24
      249.100   7.44335e-24
      249.200   6.93215e-24
      249.300   6.51942e-24
      249.400   6.14587e-24
      249.500   5.79331e-24
      249.600   5.46045e-24
      249.700   5.14633e-24
      249.800   4.84993e-24
      249.900   4.57014e-24
      250.000   4.30629e-24
      250.100   4.05820e-24
      250.200   3.82448e-24
      250.300   3.60413e-24
      250.400   3.39623e-24
      250.500   3.20016e-24
      250.600   3.01523e-24
      250.700   2.84077e-24
      250.800   2.67625e-24
      250.900   2.52109e-24
      251.000   2.37478e-24
      251.100   2.23681e-24
      251.200   2.10695e-24
      251.300   1.98483e-24
      251.400   1.86965e-24
      251.500   1.76101e-24
      251.600   1.65861e-24
      251.700   1.56210e-24
      251.800   1.47110e-24
      251.900   1.38531e-24
      252.000   1.30442e-24
      252.100   1.22824e-24
      252.200   1.15639e-24
      252.300   1.08880e-24
      252.400   1.02521e-24
      252.500   9.65322e-25
      252.600   9.08858e-25
      252.700   8.55656e-25
      252.800   8.05523e-25
      252.900   7.58276e-25
      253.000   7.13762e-25
      253.100   6.71830e-25
      253.200   6.35310e-25
      253.300   6.13450e-25
      253.400   5.95237e-25
      253.500   5.77584e-25
      253.600   5.60464e-25
      253.700   5.43847e-25
      253.800   5.27725e-25
      253.900   5.12076e-25
      254.000   4.96888e-25
      254.100   4.82146e-25
      254.200   4.67838e-25
      254.300   4.53953e-25
      254.400   4.40477e-25
      254.500   4.27401e-25
      254.600   4.14704e-25
      254.700   4.02389e-25
      254.800   3.90453e-25
      254.900   3.78865e-25
      255.000   3.67621e-25
      255.100   3.56703e-25
      255.200   3.46110e-25
      255.300   3.35828e-25
      255.400   3.25849e-25
      255.500   3.16167e-25
      255.600   3.06767e-25
      255.700   2.97645e-25
      255.800   2.88791e-25
      255.900   2.80198e-25
      256.000   2.71856e-25
      256.100   2.63770e-25
      256.200   2.55922e-25
      256.300   2.48307e-25
      256.400   2.40921e-25
      256.500   2.33748e-25
      256.600   2.26788e-25
      256.700   2.20033e-25
      256.800   2.13477e-25
      256.900   2.07114e-25
      257.000   2.00938e-25
      257.100   1.94945e-25
      257.200   1.89131e-25
      257.300   1.83486e-25
      257.400   1.78073e-25
      257.500   1.72841e-25
      257.600   1.67768e-25
      257.700   1.62843e-25
      257.800   1.58061e-25
      257.900   1.53419e-25
      258.000   1.48912e-25
      258.100   1.44534e-25
      258.200   1.40286e-25
      258.300   1.36161e-25
      258.400   1.32155e-25
      258.500   1.28265e-25
      258.600   1.24490e-25
      258.700   1.20824e-25
      258.800   1.17264e-25
      258.900   1.13810e-25
      259.000   1.10455e-25
      259.100   1.07198e-25
      259.200   1.04038e-25
      259.300   1.00973e-25
      259.400   9.79960e-26
      259.500   9.51053e-26
      259.600   9.23007e-26
      259.700   8.95773e-26
      259.800   8.69331e-26
      259.900   8.43651e-26
      260.000   8.18732e-26
      260.100   7.94544e-26
      260.200   7.71061e-26
      260.300   7.48264e-26
      260.400   7.26135e-26
      260.500   7.04660e-26
      260.600   6.83801e-26
      260.700   6.63557e-26
      260.800   6.43919e-26
      260.900   6.24840e-26
      261.000   6.06334e-26
      261.100   5.88386e-26
      261.200   5.70951e-26
      261.300   5.54032e-26
      261.400   5.37614e-26
      261.500   5.21699e-26
      261.600   5.06332e-26
      261.700   4.91424e-26
      261.800   4.76955e-26
      261.900   4.62899e-26
      262.000   4.49256e-26
      262.100   4.36009e-26
      262.200   4.23154e-26
      262.300   4.10671e-26
      262.400   3.98554e-26
      262.500   3.86789e-26
      262.600   3.75365e-26
      262.700   3.64278e-26
      262.800   3.53515e-26
      262.900   3.43059e-26
      263.000   3.32923e-26
      263.100   3.23078e-26
      263.200   3.13528e-26
      263.300   3.04255e-26
      263.400   2.95253e-26
      263.500   2.86517e-26
      263.600   2.78038e-26
      263.700   2.69805e-26
      263.800   2.61812e-26
      263.900   2.54061e-26
      264.000   2.46532e-26
      264.100   2.39223e-26
      264.200   2.32126e-26
      264.300   2.25243e-26
      264.400   2.18561e-26
      264.500   2.12073e-26
      264.600   2.05776e-26
      264.700   1.99667e-26
      264.800   1.93733e-26
      264.900   1.87977e-26
      265.000   1.82391e-26
      265.100   1.76966e-26
      265.200   1.71702e-26
      265.300   1.66593e-26
      265.400   1.61638e-26
      265.500   1.56826e-26
      265.600   1.52158e-26
      265.700   1.48044e-26
      265.800   1.45808e-26
      265.900   1.43662e-26
      266.000   1.41546e-26
      266.100   1.39462e-26
      266.200   1.37407e-26
      266.300   1.35381e-26
      266.400   1.33385e-26
      266.500   1.31417e-26
      266.600   1.29477e-26
      266.700   1.27564e-26
      266.800   1.25680e-26
      266.900   1.23824e-26
      267.000   1.21993e-26
      267.100   1.20189e-26
      267.200   1.18413e-26
      267.300   1.16660e-26
      267.400   1.14933e-26
      267.500   1.13231e-26
      267.600   1.11554e-26
      267.700   1.09902e-26
      267.800   1.08272e-26
      267.900   1.06666e-26
      268.000   1.05085e-26
      268.100   1.03527e-26
      268.200   1.01991e-26
      268.300   1.00478e-26
      268.400   9.89864e-27
      268.500   9.75159e-27
      268.600   9.60667e-27
      268.700   9.46407e-27
      268.800   9.32345e-27
      268.900   9.18488e-27
      269.000   9.04842e-27
      269.100   8.91379e-27
      269.200   8.78130e-27
      269.300   8.65074e-27
      269.400   8.52203e-27
      269.500   8.39519e-27
      269.600   8.27035e-27
      269.700   8.14717e-27
      269.800   8.02592e-27
      269.900   7.90642e-27
      270.000   7.78875e-27
      270.100   7.67316e-27
      270.200   7.55940e-27
      270.300   7.44736e-27
      270.400   7.33686e-27
      270.500   7.22803e-27
      270.600   7.12070e-27
      270.700   7.01512e-27
      270.800   6.91100e-27
      270.900   6.80840e-27
      271.000   6.70739e-27
      271.100   6.60779e-27
      271.200   6.50965e-27
      271.300   6.41299e-27
      271.400   6.31774e-27
      271.500   6.22394e-27
      271.600   6.13146e-27
      271.700   6.04032e-27
      271.800   5.95060e-27
      271.900   5.86215e-27
      272.000   5.77504e-27
      272.100   5.68918e-27
      272.200   5.60459e-27
      272.300   5.52121e-27
      272.400   5.43908e-27
      272.500   5.35818e-27
      272.600   5.27848e-27
      272.700   5.19993e-27
      272.800   5.12250e-27
      272.900   5.04629e-27
      273.000   4.97117e-27
      273.100   4.89713e-27
      273.200   4.82423e-27
      273.300   4.75241e-27
      273.400   4.68160e-27
      273.500   4.61183e-27
      273.600   4.54312e-27
      273.700   4.47539e-27
      273.800   4.40865e-27
      273.900   4.34294e-27
      274.000   4.27820e-27
      274.100   4.21440e-27
      274.200   4.15151e-27
      274.300   4.08957e-27
      274.400   4.02682e-27
      274.500   3.96064e-27
      274.600   3.89473e-27
      274.700   3.82995e-27
      274.800   3.76622e-27
      274.900   3.70353e-27
      275.000   3.64184e-27
      275.100   3.58118e-27
      275.200   3.52150e-27
      275.300   3.46277e-27
      275.400   3.40505e-27
      275.500   3.34826e-27
      275.600   3.29238e-27
      275.700   3.23742e-27
      275.800   3.18338e-27
      275.900   3.13023e-27
      276.000   3.07795e-27
      276.100   3.02651e-27
      276.200   2.97589e-27
      276.300   2.92611e-27
      276.400   2.87717e-27
      276.500   2.82901e-27
      276.600   2.78167e-27
      276.700   2.73508e-27
      276.800   2.68926e-27
      276.900   2.64417e-27
      277.000   2.59985e-27
      277.100   2.55623e-27
      277.200   2.51335e-27
      277.300   2.47117e-27
      277.400   2.42969e-27
      277.500   2.38885e-27
      277.600   2.34872e-27
      277.700   2.30921e-27
      277.800   2.27035e-27
      277.900   2.23217e-27
      278.000   2.19462e-27
      278.100   2.15767e-27
      278.200   2.12133e-27
      278.300   2.08560e-27
      278.400   2.05045e-27
      278.500   2.01586e-27
      278.600   1.98184e-27
      278.700   1.94840e-27
      278.800   1.91629e-27
      278.900   1.88817e-27
      279.000   1.86050e-27
      279.100   1.83322e-27
      279.200   1.80629e-27
      279.300   1.77978e-27
      279.400   1.75362e-27
      279.500   1.72783e-27
      279.600   1.70241e-27
      279.700   1.67735e-27
      279.800   1.65265e-27
      279.900   1.62830e-27
      280.000   1.60429e-27
      280.100   1.58060e-27
      280.200   1.55727e-27
      280.300   1.53426e-27
      280.400   1.51159e-27
      280.500   1.48923e-27
      280.600   1.46720e-27
      280.700   1.44548e-27
      280.800   1.42406e-27
      280.900   1.40294e-27
      281.000   1.38213e-27
      281.100   1.36161e-27
      281.200   1.34138e-27
      281.300   1.32145e-27
      281.400   1.30180e-27
      281.500   1.28243e-27
      281.600   1.26332e-27
      281.700   1.24449e-27
      281.800   1.22595e-27
      281.900   1.20766e-27
      282.000   1.18963e-27
      282.100   1.17186e-27
      282.200   1.15436e-27
      282.300   1.13708e-27
      282.400   1.12006e-27
      282.500   1.10328e-27
      282.600   1.08675e-27
      282.700   1.07046e-27
      282.800   1.05438e-27
      282.900   1.03856e-27
      283.000   1.02296e-27
      283.100   1.00757e-27
      283.200   9.92423e-28
      283.300   9.79480e-28
      283.400   9.77463e-28
      283.500   9.76736e-28
      283.600   9.75978e-28
      283.700   9.75208e-28
      283.800   9.74411e-28
      283.900   9.73589e-28
      284.000   9.72745e-28
      284.100   9.71874e-28
      284.200   9.70994e-28
      284.300   9.70101e-28
      284.400   9.69173e-28
      284.500   9.68224e-28
      284.600   9.67266e-28
      284.700   9.66280e-28
      284.800   9.65272e-28
      284.900   9.64252e-28
      285.000   9.63202e-28
      285.100   9.62132e-28
      285.200   9.61038e-28
      285.300   9.59932e-28
      285.400   9.58814e-28
      285.500   9.57657e-28
      285.600   9.56500e-28
      285.700   9.55308e-28
      285.800   9.54108e-28
      285.900   9.52880e-28
      286.000   9.51623e-28
      286.100   9.50368e-28
      286.200   9.49088e-28
      286.300   9.47797e-28
      286.400   9.46472e-28
      286.500   9.45132e-28
      286.600   9.43776e-28
      286.700   9.42398e-28
      286.800   9.41007e-28
      286.900   9.39603e-28
      287.000   9.38173e-28
      287.100   9.36725e-28
      287.200   9.35264e-28
      287.300   9.33774e-28
      287.400   9.32271e-28
      287.500   9.30758e-28
      287.600   9.29227e-28
      287.700   9.27681e-28
      287.800   9.26118e-28
      287.900   9.24543e-28
      288.000   9.22961e-28
      288.100   9.21365e-28
      288.200   9.19744e-28
      288.300   9.18116e-28
      288.400   9.16487e-28
      288.500   9.14826e-28
      288.600   9.13150e-28
      288.700   9.11469e-28
      288.800   9.09763e-28
      288.900   9.08042e-28
      289.000   9.06315e-28
      289.100   9.04562e-28
      289.200   9.02791e-28
      289.300   9.01013e-28
      289.400   8.99229e-28
      289.500   8.97426e-28
      289.600   8.95599e-28
      289.700   8.93772e-28
      289.800   8.91926e-28
      289.900   8.90055e-28
      290.000   8.88196e-28
      290.100   8.86289e-28
      290.200   8.84396e-28
      290.300   8.82484e-28
      290.400   8.80552e-28
      290.500   8.78618e-28
      290.600   8.76659e-28
      290.700   8.74692e-28
      290.800   8.72720e-28
      290.900   8.70735e-28
      291.000   8.68735e-28
      291.100   8.66718e-28
      291.200   8.64691e-28
      291.300   8.62659e-28
      291.400   8.60607e-28
      291.500   8.58544e-28
      291.600   8.56476e-28
      291.700   8.54391e-28
      291.800   8.52297e-28
      291.900   8.50190e-28
      292.000   8.48082e-28
      292.100   8.45963e-28
      292.200   8.43826e-28
      292.300   8.41677e-28
      292.400   8.39518e-28
      292.500   8.37351e-28
      292.600   8.35157e-28
      292.700   8.32942e-28
      292.800   8.30716e-28
      292.900   8.28477e-28
      293.000   8.26232e-28
      293.100   8.23982e-28
      293.200   8.21715e-28
      293.300   8.19436e-28
      293.400   8.17159e-28
      293.500   8.14863e-28
      293.600   8.12562e-28
      293.700   8.10256e-28
      293.800   8.07943e-28
      293.900   8.05615e-28
      294.000   8.03276e-28
      294.100   8.00935e-28
      294.200   7.98587e-28
      294.300   7.96233e-28
      294.400   7.93868e-28
      294.500   7.91491e-28
      294.600   7.89105e-28
      294.700   7.86722e-28
      294.800   7.84327e-28
      294.900   7.81915e-28
      295.000   7.79505e-28
      295.100   7.77095e-28
      295.200   7.74671e-28
      295.300   7.72234e-28
      295.400   7.69797e-28
      295.500   7.67354e-28
      295.600   7.64900e-28
      295.700   7.62441e-28
      295.800   7.59976e-28
      295.900   7.57502e-28
      296.000   7.55033e-28
      296.100   7.52544e-28
      296.200   7.50062e-28
      296.300   7.47564e-28
      296.400   7.45067e-28
      296.500   7.42556e-28
      296.600   7.40048e-28
      296.700   7.37529e-28
      296.800   7.35007e-28
      296.900   7.32482e-28
      297.000   7.29954e-28
      297.100   7.27420e-28
      297.200   7.25314e-28
      297.300   7.26429e-28
      297.400   7.35432e-28
      297.500   7.44516e-28
      297.600   7.53685e-28
      297.700   7.62952e-28
      297.800   7.72287e-28
      297.900   7.81706e-28
      298.000   7.91194e-28
      298.100   8.00763e-28
      298.200   8.10408e-28
      298.300   8.20133e-28
      298.400   8.29943e-28
      298.500   8.39827e-28
      298.600   8.49799e-28
      298.700   8.59839e-28
      298.800   8.69959e-28
      298.900   8.80170e-28
      299.000   8.90471e-28
      299.100   9.00850e-28
      299.200   9.11310e-28
      299.300   9.21839e-28
      299.400   9.32458e-28
      299.500   9.43156e-28
      299.600   9.53924e-28
      299.700   9.64769e-28
      299.800   9.75707e-28
      299.900   9.86729e-28
      300.000   9.97814e-28
      300.100   1.00900e-27
      300.192   1.01936e-27
      300.285   1.02990e-27
      300.377   1.04039e-27
      300.470   1.05108e-27
      300.562   1.06170e-27
      300.654   1.07240e-27
      300.747   1.08330e-27
      300.839   1.09414e-27
      300.932   1.10515e-27
      301.025   1.11627e-27
      301.117   1.12731e-27
      301.210   1.13853e-27
      301.303   1.14985e-27
      301.395   1.16109e-27
      301.488   1.17254e-27
      301.581   1.18403e-27
      301.674   1.19562e-27
      301.766   1.20713e-27
      301.859   1.21886e-27
      301.952   1.23064e-27
      302.045   1.24250e-27
      302.138   1.29241e-27
      302.231   1.35983e-27
      302.324   1.43115e-27
      302.417   1.50604e-27
      302.510   1.58454e-27
      302.603   1.66679e-27
      302.696   1.75305e-27
      302.789   1.84354e-27
      302.882   1.93834e-27
      302.976   2.03877e-27
      303.069   2.14288e-27
      303.162   2.25194e-27
      303.255   2.36617e-27
      303.349   2.48714e-27
      303.442   2.61249e-27
      303.535   2.74359e-27
      303.629   2.88233e-27
      303.722   3.02607e-27
      303.816   3.17811e-27
      303.909   3.33555e-27
      304.003   3.50195e-27
      304.096   3.67427e-27
      304.190   3.85644e-27
      304.283   4.04486e-27
      304.377   4.24379e-27
      304.471   4.45196e-27
      304.564   4.66720e-27
      304.658   4.89455e-27
      304.752   5.13235e-27
      304.846   5.38053e-27
      304.939   5.63711e-27
      305.033   5.90797e-27
      305.127   6.19078e-27
      305.221   6.48603e-27
      305.315   6.79457e-27
      305.409   7.11635e-27
      305.503   7.45225e-27
      305.597   7.80301e-27
      305.691   8.16871e-27
      305.785   8.55057e-27
      305.879   8.94870e-27
      305.973   9.36355e-27
      306.067   9.79656e-27
      306.161   1.02478e-26
      306.255   1.07182e-26
      306.350   1.12139e-26
      306.444   1.17251e-26
      306.538   1.22579e-26
      306.633   1.28186e-26
      306.727   1.33970e-26
      306.821   1.39993e-26
      306.916   1.46330e-26
      307.010   1.52901e-26
      307.105   1.59850e-26
      307.199   1.67016e-26
      307.294   1.74559e-26
      307.388   1.82328e-26
      307.483   1.90503e-26
      307.577   1.98925e-26
      307.672   2.07782e-26
      307.767   2.16998e-26
      307.861   2.26479e-26
      307.956   2.36458e-26
      308.051   2.46837e-26
      308.146   2.57629e-26
      308.240   2.68728e-26
      308.335   2.80388e-26
      308.430   2.92516e-26
      308.525   3.05130e-26
      308.620   3.18228e-26
      308.715   3.31845e-26
      308.810   3.45993e-26
      308.905   3.60688e-26
      309.000   3.75943e-26
      309.095   3.91794e-26
      309.190   4.08250e-26
      309.285   4.25342e-26
      309.380   4.43081e-26
      309.476   4.61685e-26
      309.571   4.80797e-26
      309.666   5.00644e-26
      309.761   5.21222e-26
      309.857   5.42788e-26
      309.952   5.64929e-26
      310.047   5.87878e-26
      310.143   6.11942e-26
      310.238   6.36633e-26
      310.334   6.62492e-26
      310.429   6.89043e-26
      310.525   7.16816e-26
      310.620   7.45318e-26
      310.716   7.75154e-26
      310.811   8.05752e-26
      310.907   8.37750e-26
      311.003   8.70897e-26
      311.098   9.04881e-26
      311.194   9.40441e-26
      311.290   9.77266e-26
      311.386   1.01537e-25
      311.481   1.05440e-25
      311.577   1.09519e-25
      311.673   1.13743e-25
      311.769   1.18114e-25
      311.865   1.22630e-25
      311.961   1.27336e-25
      312.057   1.32282e-25
      312.153   1.37426e-25
      312.249   1.42750e-25
      312.345   1.48260e-25
      312.441   1.53962e-25
      312.537   1.59857e-25
      312.633   1.65956e-25
      312.730   1.72335e-25
      312.826   1.78862e-25
      312.922   1.85608e-25
      313.018   1.92586e-25
      313.115   1.99876e-25
      313.211   2.07336e-25
      313.307   2.15045e-25
      313.404   2.23093e-25
      313.500   2.31326e-25
      313.597   2.39918e-25
      313.693   2.48697e-25
      313.790   2.57865e-25
      313.886   2.67237e-25
      313.983   2.77018e-25
      314.079   2.87013e-25
      314.176   2.97432e-25
      314.273   3.08192e-25
      314.369   3.19184e-25
      314.466   3.30646e-25
      314.563   3.42474e-25
      314.660   3.54665e-25
      314.756   3.67124e-25
      314.853   3.80101e-25
      314.950   3.93488e-25
      315.047   4.07291e-25
      315.144   4.21531e-25
      315.241   4.36205e-25
      315.338   4.51337e-25
      315.435   4.66927e-25
      315.532   4.82994e-25
      315.629   4.99544e-25
      315.726   5.16599e-25
      315.823   5.34181e-25
      315.921   5.52458e-25
      316.018   5.71107e-25
      316.115   5.90309e-25
      316.212   6.10079e-25
      316.310   6.30640e-25
      316.407   6.51584e-25
      316.504   6.73154e-25
      316.602   6.95575e-25
      316.699   7.18416e-25
      316.796   7.41897e-25
      316.894   7.66312e-25
      316.991   7.91234e-25
      317.089   8.17531e-25
      317.187   8.44847e-25
      317.284   8.72651e-25
      317.382   9.01552e-25
      317.479   9.30996e-25
      317.577   9.61581e-25
      317.675   9.93033e-25
      317.773   1.02541e-24
      317.870   1.05837e-24
      317.968   1.09263e-24
      318.066   1.12784e-24
      318.164   1.16404e-24
      318.262   1.20126e-24
      318.360   1.23953e-24
      318.458   1.27886e-24
      318.556   1.31926e-24
      318.654   1.36078e-24
      318.752   1.40341e-24
      318.850   1.44722e-24
      318.948   1.49223e-24
      319.046   1.53847e-24
      319.144   1.58594e-24
      319.242   1.63466e-24
      319.341   1.68522e-24
      319.439   1.73658e-24
      319.537   1.78931e-24
      319.635   1.84342e-24
      319.734   1.89950e-24
      319.832   1.95646e-24
      319.930   2.01491e-24
      320.029   2.07547e-24
      320.127   2.13696e-24
      320.226   2.20069e-24
      320.324   2.26539e-24
      320.423   2.33238e-24
      320.522   2.40108e-24
      320.620   2.47077e-24
      320.719   2.54293e-24
      320.818   2.61691e-24
      320.916   2.69195e-24
      321.015   2.76965e-24
      321.114   2.84922e-24
      321.213   2.93076e-24
      321.311   3.01341e-24
      321.410   3.09888e-24
      321.509   3.18646e-24
      321.608   3.27607e-24
      321.707   3.36787e-24
      321.806   3.46187e-24
      321.905   3.55802e-24
      322.004   3.65653e-24
      322.103   3.77587e-24
      322.202   3.93061e-24
      322.301   4.10488e-24
      322.401   4.28789e-24
      322.500   4.47624e-24
      322.599   4.67187e-24
      322.698   4.87506e-24
      322.798   5.08842e-24
      322.897   5.30781e-24
      322.996   5.53545e-24
      323.096   5.77434e-24
      323.195   6.01973e-24
      323.294   6.27430e-24
      323.394   6.54106e-24
      323.493   6.81513e-24
      323.593   7.10226e-24
      323.692   7.39696e-24
      323.792   7.70557e-24
      323.892   8.02545e-24
      323.991   8.35380e-24
      324.091   8.69737e-24
      324.191   9.05354e-24
      324.291   9.42224e-24
      324.390   9.80010e-24
      324.490   1.01958e-23
      324.590   1.06050e-23
      324.690   1.10285e-23
      324.790   1.14669e-23
      324.890   1.19205e-23
      324.990   1.23900e-23
      325.090   1.28758e-23
      325.190   1.33775e-23
      325.290   1.38963e-23
      325.390   1.44331e-23
      325.490   1.49875e-23
      325.590   1.55602e-23
      325.690   1.61522e-23
      325.790   1.67635e-23
      325.891   1.74014e-23
      325.991   1.80535e-23
      326.091   1.87269e-23
      326.192   1.94290e-23
      326.292   2.01464e-23
      326.392   2.08864e-23
      326.493   2.16578e-23
      326.593   2.24456e-23
      326.694   2.32656e-23
      326.794   2.41033e-23
      326.895   2.49756e-23
      326.995   2.58661e-23
      327.096   2.67922e-23
      327.197   2.77470e-23
      327.297   2.87231e-23
      327.398   2.97424e-23
      327.499   3.07948e-23
      327.599   3.18687e-23
      327.700   3.29853e-23
      327.801   3.41345e-23
      327.902   3.53175e-23
      328.003   3.65360e-23
      328.104   3.77900e-23
      328.205   3.90802e-23
      328.306   4.04073e-23
      328.407   4.17721e-23
      328.508   4.31758e-23
      328.609   4.46190e-23
      328.710   4.61021e-23
      328.811   4.76271e-23
      328.912   4.91947e-23
      329.013   5.08044e-23
      329.115   5.24752e-23
      329.216   5.41751e-23
      329.317   5.59197e-23
      329.419   5.77289e-23
      329.520   5.95692e-23
      329.621   6.14574e-23
      329.723   6.34161e-23
      329.824   6.54028e-23
      329.926   6.74627e-23
      330.027   6.95559e-23
      330.129   7.17239e-23
      330.230   7.39239e-23
      330.332   7.62034e-23
      330.434   7.85391e-23
      330.535   8.09108e-23
      330.637   8.33644e-23
      330.739   8.58761e-23
      330.840   8.84256e-23
      330.942   9.10636e-23
      331.044   9.37649e-23
      331.146   9.65300e-23
      331.248   9.93612e-23
      331.350   1.02259e-22
      331.452   1.05230e-22
      331.554   1.08359e-22
      331.656   1.11714e-22
      331.758   1.15154e-22
      331.860   1.18682e-22
      331.962   1.22299e-22
      332.064   1.26007e-22
      332.166   1.29806e-22
      332.268   1.33700e-22
      332.371   1.37728e-22
      332.473   1.41814e-22
      332.575   1.45777e-22
      332.677   1.49092e-22
      332.780   1.51904e-22
      332.882   1.54728e-22
      332.985   1.57616e-22
      333.087   1.60515e-22
      333.190   1.63480e-22
      333.292   1.66375e-22
      333.395   1.69125e-22
      333.497   1.71793e-22
      333.600   1.74513e-22
      333.702   1.77232e-22
      333.805   1.80001e-22
      333.908   1.82801e-22
      334.011   1.85624e-22
      334.113   1.88444e-22
      334.216   1.91318e-22
      334.319   1.94217e-22
      334.422   1.97141e-22
      334.525   2.00091e-22
      334.628   2.03067e-22
      334.731   2.06065e-22
      334.834   2.09090e-22
      334.937   2.12141e-22
      335.040   2.15217e-22
      335.143   2.18314e-22
      335.246   2.21437e-22
      335.349   2.24582e-22
      335.452   2.27751e-22
      335.555   2.30944e-22
      335.659   2.34193e-22
      335.762   2.37437e-22
      335.865   2.40701e-22
      335.969   2.44020e-22
      336.072   2.47330e-22
      336.175   2.50660e-22
      336.279   2.54045e-22
      336.382   2.57422e-22
      336.486   2.60855e-22
      336.589   2.64271e-22
      336.693   2.67747e-22
      336.796   2.71205e-22
      336.900   2.74724e-22
      337.004   2.78264e-22
      337.107   2.81783e-22
      337.211   2.85363e-22
      337.315   2.88961e-22
      337.419   2.92579e-22
      337.523   2.96211e-22
      337.626   2.99831e-22
      337.730   3.03506e-22
      337.834   3.07196e-22
      337.938   3.10893e-22
      338.042   3.14575e-22
      338.146   3.18318e-22
      338.250   3.22080e-22
      338.354   3.25863e-22
      338.458   3.29662e-22
      338.562   3.33478e-22
      338.667   3.37346e-22
      338.771   3.41194e-22
      338.875   3.45056e-22
      338.979   3.48934e-22
      339.084   3.52864e-22
      339.188   3.56767e-22
      339.292   3.60692e-22
      339.397   3.64665e-22
      339.501   3.68615e-22
      339.606   3.72618e-22
      339.710   3.76591e-22
      339.815   3.80618e-22
      339.919   3.84616e-22
      340.024   3.88667e-22
      340.128   3.92685e-22
      340.233   3.96758e-22
      340.338   4.00838e-22
      340.442   4.04889e-22
      340.547   4.08990e-22
      340.652   4.13099e-22
      340.757   4.17215e-22
      340.862   4.21342e-22
      340.966   4.25436e-22
      341.071   4.29569e-22
      341.176   4.33715e-22
      341.281   4.37866e-22
      341.386   4.42024e-22
      341.491   4.46187e-22
      341.596   4.50357e-22
      341.702   4.54571e-22
      341.807   4.58741e-22
      341.912   4.62920e-22
      342.017   4.67104e-22
      342.122   4.71288e-22
      342.228   4.75509e-22
      342.333   4.79695e-22
      342.438   4.83885e-22
      342.544   4.88110e-22
      342.649   4.92293e-22
      342.754   4.96481e-22
      342.860   5.00700e-22
      342.965   5.04886e-22
      343.071   5.09099e-22
      343.176   5.13278e-22
      343.282   5.17493e-22
      343.388   5.21703e-22
      343.493   5.25956e-22
      343.599   5.31021e-22
      343.705   5.36182e-22
      343.810   5.41293e-22
      343.916   5.46464e-22
      344.022   5.51649e-22
      344.128   5.56838e-22
      344.234   5.62039e-22
      344.340   5.67245e-22
      344.446   5.72456e-22
      344.552   5.77676e-22
      344.658   5.82913e-22
      344.764   5.88138e-22
      344.870   5.93380e-22
      344.976   5.98616e-22
      345.082   6.03863e-22
      345.188   6.09112e-22
      345.294   6.14361e-22
      345.401   6.19666e-22
      345.507   6.24919e-22
      345.613   6.30170e-22
      345.719   6.35426e-22
      345.826   6.40732e-22
      345.932   6.45984e-22
      346.039   6.51284e-22
      346.145   6.56532e-22
      346.252   6.61827e-22
      346.358   6.67067e-22
      346.465   6.72347e-22
      346.571   6.77582e-22
      346.678   6.82854e-22
      346.785   6.88125e-22
      346.891   6.93332e-22
      346.998   6.98578e-22
      347.105   7.03824e-22
      347.212   7.09062e-22
      347.319   7.14288e-22
      347.425   7.19449e-22
      347.532   7.24656e-22
      347.639   7.29846e-22
      347.746   7.35023e-22
      347.853   7.40198e-22
      347.960   7.45345e-22
      348.067   7.50488e-22
      348.174   7.55610e-22
      348.281   7.60708e-22
      348.389   7.65850e-22
      348.496   7.70908e-22
      348.603   7.75973e-22
      348.710   7.80999e-22
      348.818   7.86067e-22
      348.925   7.90977e-22
      349.032   7.91972e-22
      349.140   7.83507e-22
      349.247   7.75185e-22
      349.355   7.66875e-22
      349.462   7.58714e-22
      349.570   7.50548e-22
      349.677   7.42543e-22
      349.785   7.34532e-22
      349.892   7.26678e-22
      350.000   7.18830e-22
      350.100   7.11627e-22
      350.193   7.04989e-22
      350.287   6.98326e-22
      350.380   6.91796e-22
      350.473   6.85321e-22
      350.567   6.78823e-22
      350.660   6.72452e-22
      350.754   6.66071e-22
      350.847   6.59811e-22
      350.941   6.53532e-22
      351.034   6.47373e-22
      351.128   6.41205e-22
      351.221   6.35150e-22
      351.315   6.29083e-22
      351.409   6.23064e-22
      351.502   6.17162e-22
      351.596   6.11245e-22
      351.690   6.05376e-22
      351.783   5.99627e-22
      351.877   5.93864e-22
      351.971   5.88146e-22
      352.065   5.82479e-22
      352.159   5.76860e-22
      352.252   5.71348e-22
      352.346   5.65820e-22
      352.440   5.60343e-22
      352.534   5.54918e-22
      352.628   5.49536e-22
      352.722   5.44196e-22
      352.816   5.38907e-22
      352.910   5.33663e-22
      353.004   5.28467e-22
      353.098   5.23310e-22
      353.192   5.18199e-22
      353.287   5.13079e-22
      353.381   5.08055e-22
      353.475   5.03083e-22
      353.569   4.98145e-22
      353.663   4.93252e-22
      353.758   4.88356e-22
      353.852   4.83552e-22
      353.946   4.78788e-22
      354.041   4.74014e-22
      354.135   4.69335e-22
      354.229   4.64692e-22
      354.324   4.60047e-22
      354.418   4.55485e-22
      354.513   4.50918e-22
      354.607   4.46445e-22
      354.702   4.41260e-22
      354.796   4.35689e-22
      354.891   4.30076e-22
      354.985   4.24595e-22
      355.080   4.19121e-22
      355.175   4.13712e-22
      355.269   4.08426e-22
      355.364   4.03148e-22
      355.459   3.97937e-22
      355.553   3.92841e-22
      355.648   3.87756e-22
      355.743   3.82734e-22
      355.838   3.77766e-22
      355.933   3.72869e-22
      356.027   3.68077e-22
      356.122   3.63293e-22
      356.217   3.58568e-22
      356.312   3.53905e-22
      356.407   3.49295e-22
      356.502   3.44744e-22
      356.597   3.40246e-22
      356.692   3.35807e-22
      356.787   3.31422e-22
      356.882   3.27087e-22
      356.977   3.22812e-22
      357.073   3.18543e-22
      357.168   3.14367e-22
      357.263   3.10246e-22
      357.358   3.06176e-22
      357.453   3.02157e-22
      357.549   2.98147e-22
      357.644   2.94227e-22
      357.739   2.90357e-22
      357.835   2.86493e-22
      357.930   2.82717e-22
      358.025   2.78989e-22
      358.121   2.75268e-22
      358.216   2.71632e-22
      358.312   2.68004e-22
      358.407   2.64459e-22
      358.503   2.60922e-22
      358.598   2.57467e-22
      358.694   2.54018e-22
      358.790   2.50612e-22
      358.885   2.47283e-22
      358.981   2.43963e-22
      359.076   2.40719e-22
      359.172   2.37484e-22
      359.268   2.34285e-22
      359.364   2.31129e-22
      359.459   2.28048e-22
      359.555   2.24973e-22
      359.651   2.21934e-22
      359.747   2.18935e-22
      359.843   2.15975e-22
      359.939   2.13052e-22
      360.035   2.10168e-22
      360.131   2.07321e-22
      360.227   2.04507e-22
      360.323   2.01732e-22
      360.419   2.00143e-22
      360.515   1.99580e-22
      360.611   1.99204e-22
      360.707   1.98823e-22
      360.803   1.98435e-22
      360.899   1.98040e-22
      360.995   1.97641e-22
      361.092   1.97230e-22
      361.188   1.96816e-22
      361.284   1.96397e-22
      361.380   1.95971e-22
      361.477   1.95535e-22
      361.573   1.95098e-22
      361.669   1.94653e-22
      361.766   1.94198e-22
      361.862   1.93741e-22
      361.959   1.93275e-22
      362.055   1.92805e-22
      362.152   1.92327e-22
      362.248   1.91847e-22
      362.345   1.91356e-22
      362.441   1.90866e-22
      362.538   1.90364e-22
      362.635   1.89857e-22
      362.731   1.89349e-22
      362.828   1.88829e-22
      362.925   1.88305e-22
      363.021   1.87782e-22
      363.118   1.87248e-22
      363.215   1.86708e-22
      363.312   1.86162e-22
      363.409   1.85613e-22
      363.505   1.85062e-22
      363.602   1.84503e-22
      363.699   1.83939e-22
      363.796   1.83369e-22
      363.893   1.82793e-22
      363.990   1.82213e-22
      364.087   1.81630e-22
      364.184   1.81041e-22
      364.281   1.80448e-22
      364.378   1.79851e-22
      364.475   1.79249e-22
      364.573   1.78636e-22
      364.670   1.78025e-22
      364.767   1.77410e-22
      364.864   1.76792e-22
      364.961   1.76168e-22
      365.059   1.75535e-22
      365.156   1.74904e-22
      365.253   1.74270e-22
      365.351   1.73625e-22
      365.448   1.72982e-22
      365.545   1.72337e-22
      365.643   1.71681e-22
      365.740   1.71028e-22
      365.838   1.70365e-22
      365.935   1.69705e-22
      366.033   1.69036e-22
      366.130   1.68370e-22
      366.228   1.68003e-22
      366.326   1.68063e-22
      366.423   1.68249e-22
      366.521   1.68430e-22
      366.618   1.68599e-22
      366.716   1.68761e-22
      366.814   1.68914e-22
      366.912   1.69058e-22
      367.010   1.69194e-22
      367.107   1.69319e-22
      367.205   1.69436e-22
      367.303   1.69544e-22
      367.401   1.69644e-22
      367.499   1.69734e-22
      367.597   1.69815e-22
      367.695   1.69887e-22
      367.793   1.69950e-22
      367.891   1.70005e-22
      367.989   1.70051e-22
      368.087   1.70088e-22
      368.185   1.70115e-22
      368.283   1.70134e-22
      368.381   1.70145e-22
      368.480   1.70145e-22
      368.578   1.70138e-22
      368.676   1.70121e-22
      368.774   1.70097e-22
      368.873   1.70063e-22
      368.971   1.70020e-22
      369.069   1.69970e-22
      369.168   1.69909e-22
      369.266   1.69839e-22
      369.364   1.69762e-22
      369.463   1.69678e-22
      369.561   1.69584e-22
      369.660   1.69480e-22
      369.758   1.69368e-22
      369.857   1.69248e-22
      369.955   1.69121e-22
      370.054   1.68983e-22
      370.153   1.68837e-22
      370.251   1.68684e-22
      370.350   1.68523e-22
      370.449   1.68353e-22
      370.547   1.68176e-22
      370.646   1.67989e-22
      370.745   1.67795e-22
      370.844   1.67592e-22
      370.943   1.67382e-22
      371.041   1.67166e-22
      371.140   1.66939e-22
      371.239   1.66705e-22
      371.338   1.66464e-22
      371.437   1.66215e-22
      371.536   1.65957e-22
      371.635   1.65692e-22
      371.734   1.65421e-22
      371.833   1.65141e-22
      371.932   1.64855e-22
      372.032   1.64558e-22
      372.131   1.65393e-22
      372.230   1.68616e-22
      372.329   1.73099e-22
      372.428   1.77655e-22
      372.528   1.82329e-22
      372.627   1.87030e-22
      372.726   1.91804e-22
      372.826   1.96701e-22
      372.925   2.01624e-22
      373.024   2.06617e-22
      373.124   2.11733e-22
      373.223   2.16865e-22
      373.323   2.22124e-22
      373.422   2.27403e-22
      373.522   2.32803e-22
      373.621   2.38214e-22
      373.721   2.43755e-22
      373.820   2.49303e-22
      373.920   2.54975e-22
      374.020   2.60720e-22
      374.119   2.66463e-22
      374.219   2.72337e-22
      374.319   2.78273e-22
      374.419   2.84267e-22
      374.518   2.90266e-22
      374.618   2.96387e-22
      374.718   3.02570e-22
      374.818   3.08804e-22
      374.918   3.15094e-22
      375.018   3.21448e-22
      375.118   3.27852e-22
      375.218   3.34311e-22
      375.318   3.40825e-22
      375.418   3.47389e-22
      375.518   3.53998e-22
      375.618   3.60654e-22
      375.718   3.67356e-22
      375.818   3.74102e-22
      375.918   3.80892e-22
      376.019   3.87793e-22
      376.119   3.94669e-22
      376.219   4.01573e-22
      376.319   4.08521e-22
      376.420   4.15568e-22
      376.520   4.22577e-22
      376.620   4.29617e-22
      376.721   4.36758e-22
      376.821   4.43852e-22
      376.922   4.51132e-22
      377.022   4.59499e-22
      377.122   4.69174e-22
      377.223   4.79033e-22
      377.323   4.88869e-22
      377.424   4.98888e-22
      377.525   5.08972e-22
      377.625   5.19023e-22
      377.726   5.29243e-22
      377.827   5.39534e-22
      377.927   5.49783e-22
      378.028   5.60186e-22
      378.129   5.70651e-22
      378.230   5.81174e-22
      378.330   5.91644e-22
      378.431   6.02263e-22
      378.532   6.12923e-22
      378.633   6.23629e-22
      378.734   6.34373e-22
      378.835   6.45140e-22
      378.936   6.55939e-22
      379.037   6.66762e-22
      379.138   6.77599e-22
      379.239   6.88465e-22
      379.340   6.99340e-22
      379.441   7.10230e-22
      379.542   7.21122e-22
      379.643   7.32015e-22
      379.745   7.43021e-22
      379.846   7.53914e-22
      379.947   7.64787e-22
      380.048   7.75651e-22
      380.150   7.86615e-22
      380.251   7.97446e-22
      380.352   8.08249e-22
      380.454   8.19129e-22
      380.555   8.29875e-22
      380.656   8.40579e-22
      380.758   8.51354e-22
      380.859   8.61973e-22
      380.961   8.72647e-22
      381.062   8.83165e-22
      381.164   8.93740e-22
      381.266   9.04249e-22
      381.367   9.14593e-22
      381.469   9.24973e-22
      381.570   9.35173e-22
      381.672   9.45398e-22
      381.774   9.55557e-22
      381.876   9.65617e-22
      381.977   9.75754e-22
      382.079   9.86740e-22
      382.181   9.98353e-22
      382.283   1.00988e-21
      382.385   1.02133e-21
      382.487   1.03269e-21
      382.589   1.04394e-21
      382.691   1.05509e-21
      382.793   1.06614e-21
      382.895   1.07709e-21
      382.997   1.08793e-21
      383.099   1.09864e-21
      383.201   1.10923e-21
      383.303   1.11971e-21
      383.405   1.13005e-21
      383.507   1.14024e-21
      383.610   1.15041e-21
      383.712   1.16035e-21
      383.814   1.17014e-21
      383.916   1.17978e-21
      384.019   1.18936e-21
      384.121   1.19870e-21
      384.223   1.20787e-21
      384.326   1.21699e-21
      384.428   1.22582e-21
      384.531   1.23455e-21
      384.633   1.24304e-21
      384.736   1.25145e-21
      384.838   1.25958e-21
      384.941   1.26763e-21
      385.043   1.27541e-21
      385.146   1.28310e-21
      385.249   1.29060e-21
      385.351   1.29784e-21
      385.454   1.30497e-21
      385.557   1.31190e-21
      385.660   1.31865e-21
      385.762   1.32513e-21
      385.865   1.33149e-21
      385.968   1.33765e-21
      386.071   1.34361e-21
      386.174   1.34938e-21
      386.277   1.35494e-21
      386.380   1.36030e-21
      386.483   1.36545e-21
      386.586   1.37042e-21
      386.689   1.37517e-21
      386.792   1.37973e-21
      386.895   1.38407e-21
      386.998   1.38821e-21
      387.101   1.38585e-21
      387.204   1.36180e-21
      387.308   1.33073e-21
      387.411   1.30065e-21
      387.514   1.27125e-21
      387.617   1.24252e-21
      387.721   1.21417e-21
      387.824   1.18671e-21
      387.927   1.15986e-21
      388.031   1.13337e-21
      388.134   1.10773e-21
      388.238   1.08244e-21
      388.341   1.05794e-21
      388.445   1.03376e-21
      388.548   1.01034e-21
      388.652   9.87247e-22
      388.755   9.64890e-22
      388.859   9.42817e-22
      388.962   9.21453e-22
      389.066   9.00355e-22
      389.170   8.79757e-22
      389.274   8.59611e-22
      389.377   8.40106e-22
      389.481   8.20846e-22
      389.585   8.02038e-22
      389.689   7.83649e-22
      389.793   7.65668e-22
      389.897   7.48111e-22
      390.000   7.31099e-22
      390.104   7.14321e-22
      390.208   6.97910e-22
      390.312   6.81878e-22
      390.416   6.66205e-22
      390.520   6.50874e-22
      390.625   6.35745e-22
      390.729   6.21117e-22
      390.833   6.06809e-22
      390.937   5.92828e-22
      391.041   5.79169e-22
      391.145   5.65818e-22
      391.250   5.52639e-22
      391.354   5.39885e-22
      391.458   5.27416e-22
      391.563   5.15112e-22
      391.667   5.03208e-22
      391.771   4.91577e-22
      391.876   4.80097e-22
      391.980   4.68988e-22
      392.085   4.58031e-22
      392.189   4.47429e-22
      392.294   4.36967e-22
      392.398   4.26847e-22
      392.503   4.16862e-22
      392.607   4.07200e-22
      392.712   3.97671e-22
      392.817   3.88355e-22
      392.921   3.79349e-22
      393.026   3.70459e-22
      393.131   3.61780e-22
      393.236   3.53293e-22
      393.340   3.45086e-22
      393.445   3.36994e-22
      393.550   3.29086e-22
      393.655   3.21360e-22
      393.760   3.13815e-22
      393.865   3.06442e-22
      393.970   2.99247e-22
      394.075   2.92211e-22
      394.180   2.85344e-22
      394.285   2.78633e-22
      394.390   2.72080e-22
      394.495   2.65675e-22
      394.600   2.59422e-22
      394.706   2.53257e-22
      394.811   2.47294e-22
      394.916   2.41464e-22
      395.021   2.35772e-22
      395.126   2.30218e-22
      395.232   2.24735e-22
      395.337   2.19433e-22
      395.443   2.14208e-22
      395.548   2.09151e-22
      395.653   2.04215e-22
      395.759   1.99344e-22
      395.864   1.94636e-22
      395.970   1.89994e-22
      396.075   1.85503e-22
      396.181   1.81074e-22
      396.286   1.76789e-22
      396.392   1.72569e-22
      396.498   1.68447e-22
      396.603   1.64456e-22
      396.709   1.60526e-22
      396.815   1.56687e-22
      396.921   1.52937e-22
      397.026   1.49313e-22
      397.132   1.45738e-22
      397.238   1.42251e-22
      397.344   1.38841e-22
      397.450   1.35519e-22
      397.556   1.32269e-22
      397.662   1.29097e-22
      397.768   1.26001e-22
      397.874   1.22977e-22
      397.980   1.20025e-22
      398.086   1.17141e-22
      398.192   1.14327e-22
      398.298   1.11579e-22
      398.404   1.08897e-22
      398.510   1.06277e-22
      398.617   1.03698e-22
      398.723   1.01201e-22
      398.829   9.87634e-23
      398.935   9.63838e-23
      399.042   9.40404e-23
      399.148   9.17721e-23
      399.255   8.95392e-23
      399.361   8.73794e-23
      399.467   8.52685e-23
      399.574   8.31916e-23
      399.680   8.11815e-23
      399.787   7.92009e-23
      399.893       0.00000
      400.000       0.00000
