Filter Al-thick
observation_date 22-Sept-2008 22:40:45
wavelength effective area
      1.00000   2.52797e-10
      1.10000   6.99236e-10
      1.20000   1.75057e-09
      1.30000   4.00504e-09
      1.40000   8.63397e-09
      1.50000   1.73698e-08
      1.60000   3.28996e-08
      1.70000   5.92546e-08
      1.80000   1.01466e-07
      1.90000   1.66203e-07
      2.00000   2.60873e-07
      2.10000   3.93907e-07
      2.20000   5.74599e-07
      2.30000   8.08541e-07
      2.40000   1.09918e-06
      2.50000   1.43846e-06
      2.60000   1.85785e-06
      2.70000   2.31662e-06
      2.80000   2.80090e-06
      2.90000   3.30691e-06
      3.00000   3.79711e-06
      3.10000   4.24913e-06
      3.20000   4.64128e-06
      3.30000   4.95108e-06
      3.40000   5.15725e-06
      3.50000   5.24962e-06
      3.60000   5.23958e-06
      3.70000   5.10802e-06
      3.80000   4.88449e-06
      3.90000   4.57920e-06
      4.00000   4.20641e-06
      4.10000   3.79019e-06
      4.20000   3.35331e-06
      4.30000   2.91424e-06
      4.40000   2.48872e-06
      4.50000   2.08830e-06
      4.60000   1.72068e-06
      4.70000   1.39688e-06
      4.80000   1.11549e-06
      4.90000   8.66368e-07
      5.00000   6.80090e-07
      5.10000   5.18656e-07
      5.20000   3.90914e-07
      5.30000   2.87649e-07
      5.40000   2.08271e-07
      5.50000   1.48997e-07
      5.60000   1.01680e-07
      5.70000   7.19236e-08
      5.80000   4.51699e-08
      5.90000   3.65785e-08
      6.00000   2.57327e-08
      6.10000   1.69737e-08
      6.20000   1.07956e-08
      6.30000   6.47123e-09
      6.40000   3.65230e-09
      6.50000   1.94755e-09
      6.60000   9.74870e-10
      6.70000   4.70153e-10
      6.80000   2.19664e-10
      6.90000   1.32297e-10
      7.00000   6.60378e-11
      7.10000   3.14533e-11
      7.20000   1.45079e-11
      7.30000   6.59735e-12
      7.40000   3.05463e-12
      7.50000   1.35488e-12
      7.60000   5.73753e-13
      7.70000   2.50490e-13
      7.80000   1.03288e-13
      7.90000   4.16250e-14
      8.00000     0.0718683
      8.10000     0.0719221
      8.20000     0.0666417
      8.30000     0.0613294
      8.40000     0.0563893
      8.50000     0.0516957
      8.60000     0.0472810
      8.70000     0.0430984
      8.80000     0.0391886
      8.90000     0.0355065
      9.00000     0.0320804
      9.10000     0.0289029
      9.20000     0.0259458
      9.30000     0.0232504
      9.40000     0.0207662
      9.50000     0.0184816
      9.60000     0.0164261
      9.70000     0.0145513
      9.80000     0.0128396
      9.90000     0.0112996
      10.0000    0.00991493
      10.1000    0.00866651
      10.2000    0.00754573
      10.3000    0.00655548
      10.4000    0.00568367
      10.5000    0.00491138
      10.6000    0.00422991
      10.7000    0.00363078
      10.8000    0.00310869
      10.9000    0.00265804
      11.0000    0.00226547
      11.1000    0.00192475
      11.2000    0.00163005
      11.3000    0.00137613
      11.4000    0.00115810
      11.5000   0.000971531
      11.6000   0.000812456
      11.7000   0.000678650
      11.8000   0.000565293
      11.9000   0.000470423
      12.0000   0.000390467
      12.1000   0.000324679
      12.2000   0.000274349
      12.3000   0.000228146
      12.4000   0.000187466
      12.5000   0.000153439
      12.6000   0.000125151
      12.7000   0.000101731
      12.8000   8.24288e-05
      12.9000   6.65863e-05
      13.0000   5.36231e-05
      13.1000   4.30462e-05
      13.2000   3.44438e-05
      13.3000   2.74690e-05
      13.4000   2.18331e-05
      13.5000   1.73031e-05
      13.6000   1.37316e-05
      13.7000   1.08637e-05
      13.8000   8.56681e-06
      13.9000   6.73260e-06
      14.0000   5.27207e-06
      14.1000   4.11251e-06
      14.2000   3.19491e-06
      14.3000   2.47146e-06
      14.4000   1.90341e-06
      14.5000   1.46539e-06
      14.6000   1.13133e-06
      14.7000   8.69317e-07
      14.8000   6.64576e-07
      14.9000   5.05271e-07
      15.0000   3.81922e-07
      15.1000   2.86917e-07
      15.2000   2.17553e-07
      15.3000   1.64373e-07
      15.4000   1.23314e-07
      15.5000   9.18252e-08
      15.6000   6.78516e-08
      15.7000   5.03317e-08
      15.8000   3.75668e-08
      15.9000   2.77890e-08
      16.0000   2.03717e-08
      16.1000   1.48007e-08
      16.2000   1.09232e-08
      16.3000   8.04035e-09
      16.4000   5.84800e-09
      16.5000   4.20347e-09
      16.6000   3.04192e-09
      16.7000   2.22023e-09
      16.8000   1.59563e-09
      16.9000   1.12984e-09
      17.0000   8.08229e-10
      17.1000   5.82618e-10
      17.2000   4.12039e-10
      17.3000   2.86313e-10
      17.4000   2.05494e-10
      17.5000   1.46588e-10
      17.6000   1.02803e-10
      17.7000   7.23155e-11
      17.8000   5.25267e-11
      17.9000   3.72848e-11
      18.0000   2.58685e-11
      18.1000   1.86470e-11
      18.2000   1.31033e-11
      18.3000   8.91512e-12
      18.4000   6.20014e-12
      18.5000   4.25108e-12
      18.6000   2.79377e-12
      18.7000   1.86730e-12
      18.8000   1.24549e-12
      18.9000   7.94000e-13
      19.0000   5.24911e-13
      19.1000   3.46040e-13
      19.2000   2.17299e-13
      19.3000   1.44328e-13
      19.4000   9.41634e-14
      19.5000   5.84332e-14
      19.6000   3.94480e-14
      19.7000   2.54199e-14
      19.8000   1.57772e-14
      19.9000   1.07123e-14
      20.0000   6.76010e-15
      20.1000   4.32964e-15
      20.2000   2.84035e-15
      20.3000   1.73376e-15
      20.4000   1.14657e-15
      20.5000   7.21157e-16
      20.6000   4.39653e-16
      20.7000   2.89920e-16
      20.8000   1.73847e-16
      20.9000   1.11967e-16
      21.0000   6.93650e-17
      21.1000   4.11713e-17
      21.2000   2.68277e-17
      21.3000   1.56017e-17
      21.4000   1.00153e-17
      21.5000   6.00339e-18
      21.6000   3.58699e-18
      21.7000   2.24784e-18
      21.8000   1.24805e-18
      21.9000   8.19427e-19
      22.0000   4.66338e-19
      22.1000   2.89974e-19
      22.2000   1.69920e-19
      22.3000   9.87152e-20
      22.4000   5.96965e-20
      22.5000   3.09621e-20
      22.6000   1.87851e-20
      22.7000   8.75246e-21
      22.8000   6.56264e-21
      22.9000   4.81756e-21
      23.0000   3.73451e-21
      23.1000   2.70296e-21
      23.2000   1.72011e-21
      23.3000   1.08154e-21
      23.4000   6.14554e-22
      23.5000   3.81108e-22
      23.6000   2.04707e-22
      23.7000   1.31217e-22
      23.8000   6.74802e-23
      23.9000   4.40815e-23
      24.0000   2.27102e-23
      24.1000   1.45303e-23
      24.2000   7.48251e-24
      24.3000   4.70251e-24
      24.4000   2.42557e-24
      24.5000   1.50251e-24
      24.6000   7.76400e-25
      24.7000   4.75198e-25
      24.8000   2.45256e-25
      24.9000   1.49350e-25
      25.0000   7.71431e-26
      25.1000   4.67400e-26
      25.2000   2.39119e-26
      25.3000   1.45046e-26
      25.4000   7.34264e-27
      25.5000   4.46592e-27
      25.6000   2.21666e-27
      25.7000   1.35789e-27
      25.8000   6.58297e-28
      25.9000   4.07468e-28
      26.0000   1.91875e-28
      26.1000   1.20405e-28
      26.2000   5.48533e-29
      26.3000   3.49877e-29
      26.4000   1.53609e-29
      26.5000   9.97937e-30
      26.6000   4.62323e-30
      26.7000   2.78878e-30
      26.8000   1.37636e-30
      26.9000   7.62708e-31
      27.0000   4.00037e-31
      27.1000   2.03793e-31
      27.2000   1.13135e-31
      27.3000   5.31133e-32
      27.4000   3.11769e-32
      27.5000   1.36218e-32
      27.6000   8.37275e-33
      27.7000   3.37469e-33
      27.8000   2.16535e-33
      27.9000   9.61627e-34
      28.0000   5.40702e-34
      28.1000   2.73022e-34
      28.2000   1.31417e-34
      28.3000   7.38308e-35
      28.4000   3.18550e-35
      28.5000   1.93310e-35
      28.6000   7.55044e-36
      28.7000   4.93012e-36
      28.8000   2.32217e-36
      28.9000   1.28438e-36
      29.0000   6.95392e-37
      29.1000   3.22178e-37
      29.2000   1.92747e-37
      29.3000   7.79161e-38
      29.4000   5.02439e-38
      29.5000   2.27046e-38
      29.6000   1.24245e-38
      29.7000   6.70167e-39
      29.8000   2.93041e-39
      29.9000   1.77492e-39
      30.0000   6.61475e-40
      30.1000   4.34904e-40
      30.2000   2.09407e-40
      30.3000   1.00494e-40
      30.4000   5.82352e-41
      30.5000   2.32630e-41
      30.6000   1.48215e-41
      30.7000   6.42495e-42
      30.8000   3.31968e-42
      30.9000   1.82169e-42
      31.0000   7.03452e-43
      31.1000   4.41409e-43
      31.2000   1.79366e-43
      31.3000   9.94922e-44
      31.4000   4.76441e-44
      31.5000   2.24208e-44
      31.6000   1.26117e-44
      31.7000   2.80260e-45
      31.8000   2.80260e-45
      31.9000   2.80260e-45
      32.0000       0.00000
      32.1000       0.00000
      32.2000       0.00000
      32.3000       0.00000
      32.4000       0.00000
      32.5000       0.00000
      32.6000       0.00000
      32.7000       0.00000
      32.8000       0.00000
      32.9000       0.00000
      33.0000       0.00000
      33.1000       0.00000
      33.2000       0.00000
      33.3000       0.00000
      33.4000       0.00000
      33.5000       0.00000
      33.6000       0.00000
      33.7000       0.00000
      33.8000       0.00000
      33.9000       0.00000
      34.0000       0.00000
      34.1000       0.00000
      34.2000       0.00000
      34.3000       0.00000
      34.4000       0.00000
      34.5000       0.00000
      34.6000       0.00000
      34.7000       0.00000
      34.8000       0.00000
      34.9000       0.00000
      35.0000       0.00000
      35.1000       0.00000
      35.2000       0.00000
      35.3000       0.00000
      35.4000       0.00000
      35.5000       0.00000
      35.6000       0.00000
      35.7000       0.00000
      35.8000       0.00000
      35.9000       0.00000
      36.0000       0.00000
      36.1000       0.00000
      36.2000       0.00000
      36.3000       0.00000
      36.4000       0.00000
      36.5000       0.00000
      36.6000       0.00000
      36.7000       0.00000
      36.8000       0.00000
      36.9000       0.00000
      37.0000       0.00000
      37.1000       0.00000
      37.2000       0.00000
      37.3000       0.00000
      37.4000       0.00000
      37.5000       0.00000
      37.6000       0.00000
      37.7000       0.00000
      37.8000       0.00000
      37.9000       0.00000
      38.0000       0.00000
      38.1000       0.00000
      38.2000       0.00000
      38.3000       0.00000
      38.4000       0.00000
      38.5000       0.00000
      38.6000       0.00000
      38.7000       0.00000
      38.8000       0.00000
      38.9000       0.00000
      39.0000       0.00000
      39.1000       0.00000
      39.2000       0.00000
      39.3000       0.00000
      39.4000       0.00000
      39.5000       0.00000
      39.6000       0.00000
      39.7000       0.00000
      39.8000       0.00000
      39.9000       0.00000
      40.0000       0.00000
      40.1000       0.00000
      40.2000       0.00000
      40.3000       0.00000
      40.4000       0.00000
      40.5000       0.00000
      40.6000       0.00000
      40.7000       0.00000
      40.8000       0.00000
      40.9000       0.00000
      41.0000       0.00000
      41.1000       0.00000
      41.2000       0.00000
      41.3000       0.00000
      41.4000       0.00000
      41.5000       0.00000
      41.6000       0.00000
      41.7000       0.00000
      41.8000       0.00000
      41.9000       0.00000
      42.0000       0.00000
      42.1000       0.00000
      42.2000       0.00000
      42.3000       0.00000
      42.4000       0.00000
      42.5000       0.00000
      42.6000       0.00000
      42.7000       0.00000
      42.8000       0.00000
      42.9000       0.00000
      43.0000       0.00000
      43.1000       0.00000
      43.2000       0.00000
      43.3000       0.00000
      43.4000       0.00000
      43.5000       0.00000
      43.6000       0.00000
      43.7000       0.00000
      43.8000       0.00000
      43.9000       0.00000
      44.0000       0.00000
      44.1000       0.00000
      44.2000       0.00000
      44.3000       0.00000
      44.4000       0.00000
      44.5000       0.00000
      44.6000       0.00000
      44.7000       0.00000
      44.8000       0.00000
      44.9000       0.00000
      45.0000       0.00000
      45.1000       0.00000
      45.2000       0.00000
      45.3000       0.00000
      45.4000       0.00000
      45.5000       0.00000
      45.6000       0.00000
      45.7000       0.00000
      45.8000       0.00000
      45.9000       0.00000
      46.0000       0.00000
      46.1000       0.00000
      46.2000       0.00000
      46.3000       0.00000
      46.4000       0.00000
      46.5000       0.00000
      46.6000       0.00000
      46.7000       0.00000
      46.8000       0.00000
      46.9000       0.00000
      47.0000       0.00000
      47.1000       0.00000
      47.2000       0.00000
      47.3000       0.00000
      47.4000       0.00000
      47.5000       0.00000
      47.6000       0.00000
      47.7000       0.00000
      47.8000       0.00000
      47.9000       0.00000
      48.0000       0.00000
      48.1000       0.00000
      48.2000       0.00000
      48.3000       0.00000
      48.4000       0.00000
      48.5000       0.00000
      48.6000       0.00000
      48.7000       0.00000
      48.8000       0.00000
      48.9000       0.00000
      49.0000       0.00000
      49.1000       0.00000
      49.2000       0.00000
      49.3000       0.00000
      49.4000       0.00000
      49.5000       0.00000
      49.6000       0.00000
      49.7000       0.00000
      49.8000       0.00000
      49.9000       0.00000
      50.0000       0.00000
      50.1000       0.00000
      50.2000       0.00000
      50.3000       0.00000
      50.4000       0.00000
      50.5000       0.00000
      50.6000       0.00000
      50.7000       0.00000
      50.8000       0.00000
      50.9000       0.00000
      51.0000       0.00000
      51.1000       0.00000
      51.2000       0.00000
      51.3000       0.00000
      51.4000       0.00000
      51.5000       0.00000
      51.6000       0.00000
      51.7000       0.00000
      51.8000       0.00000
      51.9000       0.00000
      52.0000       0.00000
      52.1000       0.00000
      52.2000       0.00000
      52.3000       0.00000
      52.4000       0.00000
      52.5000       0.00000
      52.6000       0.00000
      52.7000       0.00000
      52.8000       0.00000
      52.9000       0.00000
      53.0000       0.00000
      53.1000       0.00000
      53.2000       0.00000
      53.3000       0.00000
      53.4000       0.00000
      53.5000       0.00000
      53.6000       0.00000
      53.7000       0.00000
      53.8000       0.00000
      53.9000       0.00000
      54.0000       0.00000
      54.1000       0.00000
      54.2000       0.00000
      54.3000       0.00000
      54.4000       0.00000
      54.5000       0.00000
      54.6000       0.00000
      54.7000       0.00000
      54.8000       0.00000
      54.9000       0.00000
      55.0000       0.00000
      55.1000       0.00000
      55.2000       0.00000
      55.3000       0.00000
      55.4000       0.00000
      55.5000       0.00000
      55.6000       0.00000
      55.7000       0.00000
      55.8000       0.00000
      55.9000       0.00000
      56.0000       0.00000
      56.1000       0.00000
      56.2000       0.00000
      56.3000       0.00000
      56.4000       0.00000
      56.5000       0.00000
      56.6000       0.00000
      56.7000       0.00000
      56.8000       0.00000
      56.9000       0.00000
      57.0000       0.00000
      57.1000       0.00000
      57.2000       0.00000
      57.3000       0.00000
      57.4000       0.00000
      57.5000       0.00000
      57.6000       0.00000
      57.7000       0.00000
      57.8000       0.00000
      57.9000       0.00000
      58.0000       0.00000
      58.1000       0.00000
      58.2000       0.00000
      58.3000       0.00000
      58.4000       0.00000
      58.5000       0.00000
      58.6000       0.00000
      58.7000       0.00000
      58.8000       0.00000
      58.9000       0.00000
      59.0000       0.00000
      59.1000       0.00000
      59.2000       0.00000
      59.3000       0.00000
      59.4000       0.00000
      59.5000       0.00000
      59.6000       0.00000
      59.7000       0.00000
      59.8000       0.00000
      59.9000       0.00000
      60.0000       0.00000
      60.1000       0.00000
      60.2000       0.00000
      60.3000       0.00000
      60.4000       0.00000
      60.5000       0.00000
      60.6000       0.00000
      60.7000       0.00000
      60.8000       0.00000
      60.9000       0.00000
      61.0000       0.00000
      61.1000       0.00000
      61.2000       0.00000
      61.3000       0.00000
      61.4000       0.00000
      61.5000       0.00000
      61.6000       0.00000
      61.7000       0.00000
      61.8000       0.00000
      61.9000       0.00000
      62.0000       0.00000
      62.1000       0.00000
      62.2000       0.00000
      62.3000       0.00000
      62.4000       0.00000
      62.5000       0.00000
      62.6000       0.00000
      62.7000       0.00000
      62.8000       0.00000
      62.9000       0.00000
      63.0000       0.00000
      63.1000       0.00000
      63.2000       0.00000
      63.3000       0.00000
      63.4000       0.00000
      63.5000       0.00000
      63.6000       0.00000
      63.7000       0.00000
      63.8000       0.00000
      63.9000       0.00000
      64.0000       0.00000
      64.1000       0.00000
      64.2000       0.00000
      64.3000       0.00000
      64.4000       0.00000
      64.5000       0.00000
      64.6000       0.00000
      64.7000       0.00000
      64.8000       0.00000
      64.9000       0.00000
      65.0000       0.00000
      65.1000       0.00000
      65.2000       0.00000
      65.3000       0.00000
      65.4000       0.00000
      65.5000       0.00000
      65.6000       0.00000
      65.7000       0.00000
      65.8000       0.00000
      65.9000       0.00000
      66.0000       0.00000
      66.1000       0.00000
      66.2000       0.00000
      66.3000       0.00000
      66.4000       0.00000
      66.5000       0.00000
      66.6000       0.00000
      66.7000       0.00000
      66.8000       0.00000
      66.9000       0.00000
      67.0000       0.00000
      67.1000       0.00000
      67.2000       0.00000
      67.3000       0.00000
      67.4000       0.00000
      67.5000       0.00000
      67.6000       0.00000
      67.7000       0.00000
      67.8000       0.00000
      67.9000       0.00000
      68.0000       0.00000
      68.1000       0.00000
      68.2000       0.00000
      68.3000       0.00000
      68.4000       0.00000
      68.5000       0.00000
      68.6000       0.00000
      68.7000       0.00000
      68.8000       0.00000
      68.9000       0.00000
      69.0000       0.00000
      69.1000       0.00000
      69.2000       0.00000
      69.3000       0.00000
      69.4000       0.00000
      69.5000       0.00000
      69.6000       0.00000
      69.7000       0.00000
      69.8000       0.00000
      69.9000       0.00000
      70.0000       0.00000
      70.1000       0.00000
      70.2000       0.00000
      70.3000       0.00000
      70.4000       0.00000
      70.5000       0.00000
      70.6000       0.00000
      70.7000       0.00000
      70.8000       0.00000
      70.9000       0.00000
      71.0000       0.00000
      71.1000       0.00000
      71.2000       0.00000
      71.3000       0.00000
      71.4000       0.00000
      71.5000       0.00000
      71.6000       0.00000
      71.7000       0.00000
      71.8000       0.00000
      71.9000       0.00000
      72.0000       0.00000
      72.1000       0.00000
      72.2000       0.00000
      72.3000       0.00000
      72.4000       0.00000
      72.5000       0.00000
      72.6000       0.00000
      72.7000       0.00000
      72.8000       0.00000
      72.9000       0.00000
      73.0000       0.00000
      73.1000       0.00000
      73.2000       0.00000
      73.3000       0.00000
      73.4000       0.00000
      73.5000       0.00000
      73.6000       0.00000
      73.7000       0.00000
      73.8000       0.00000
      73.9000       0.00000
      74.0000       0.00000
      74.1000       0.00000
      74.2000       0.00000
      74.3000       0.00000
      74.4000       0.00000
      74.5000       0.00000
      74.6000       0.00000
      74.7000       0.00000
      74.8000       0.00000
      74.9000       0.00000
      75.0000       0.00000
      75.1000       0.00000
      75.2000       0.00000
      75.3000       0.00000
      75.4000       0.00000
      75.5000       0.00000
      75.6000       0.00000
      75.7000       0.00000
      75.8000       0.00000
      75.9000       0.00000
      76.0000       0.00000
      76.1000       0.00000
      76.2000       0.00000
      76.3000       0.00000
      76.4000       0.00000
      76.5000       0.00000
      76.6000       0.00000
      76.7000       0.00000
      76.8000       0.00000
      76.9000       0.00000
      77.0000       0.00000
      77.1000       0.00000
      77.2000       0.00000
      77.3000       0.00000
      77.4000       0.00000
      77.5000       0.00000
      77.6000       0.00000
      77.7000       0.00000
      77.8000       0.00000
      77.9000       0.00000
      78.0000       0.00000
      78.1000       0.00000
      78.2000       0.00000
      78.3000       0.00000
      78.4000       0.00000
      78.5000       0.00000
      78.6000       0.00000
      78.7000       0.00000
      78.8000       0.00000
      78.9000       0.00000
      79.0000       0.00000
      79.1000       0.00000
      79.2000       0.00000
      79.3000       0.00000
      79.4000       0.00000
      79.5000       0.00000
      79.6000       0.00000
      79.7000       0.00000
      79.8000       0.00000
      79.9000       0.00000
      80.0000       0.00000
      80.1000       0.00000
      80.2000       0.00000
      80.3000       0.00000
      80.4000       0.00000
      80.5000       0.00000
      80.6000       0.00000
      80.7000       0.00000
      80.8000       0.00000
      80.9000       0.00000
      81.0000       0.00000
      81.1000       0.00000
      81.2000       0.00000
      81.3000       0.00000
      81.4000       0.00000
      81.5000       0.00000
      81.6000       0.00000
      81.7000       0.00000
      81.8000       0.00000
      81.9000       0.00000
      82.0000       0.00000
      82.1000       0.00000
      82.2000       0.00000
      82.3000       0.00000
      82.4000       0.00000
      82.5000       0.00000
      82.6000       0.00000
      82.7000       0.00000
      82.8000       0.00000
      82.9000       0.00000
      83.0000       0.00000
      83.1000       0.00000
      83.2000       0.00000
      83.3000       0.00000
      83.4000       0.00000
      83.5000       0.00000
      83.6000       0.00000
      83.7000       0.00000
      83.8000       0.00000
      83.9000       0.00000
      84.0000       0.00000
      84.1000       0.00000
      84.2000       0.00000
      84.3000       0.00000
      84.4000       0.00000
      84.5000       0.00000
      84.6000       0.00000
      84.7000       0.00000
      84.8000       0.00000
      84.9000       0.00000
      85.0000       0.00000
      85.1000       0.00000
      85.2000       0.00000
      85.3000       0.00000
      85.4000       0.00000
      85.5000       0.00000
      85.6000       0.00000
      85.7000       0.00000
      85.8000       0.00000
      85.9000       0.00000
      86.0000       0.00000
      86.1000       0.00000
      86.2000       0.00000
      86.3000       0.00000
      86.4000       0.00000
      86.5000       0.00000
      86.6000       0.00000
      86.7000       0.00000
      86.8000       0.00000
      86.9000       0.00000
      87.0000       0.00000
      87.1000       0.00000
      87.2000       0.00000
      87.3000       0.00000
      87.4000       0.00000
      87.5000       0.00000
      87.6000       0.00000
      87.7000       0.00000
      87.8000       0.00000
      87.9000       0.00000
      88.0000       0.00000
      88.1000       0.00000
      88.2000       0.00000
      88.3000       0.00000
      88.4000       0.00000
      88.5000       0.00000
      88.6000       0.00000
      88.7000       0.00000
      88.8000       0.00000
      88.9000       0.00000
      89.0000       0.00000
      89.1000       0.00000
      89.2000       0.00000
      89.3000       0.00000
      89.4000       0.00000
      89.5000       0.00000
      89.6000       0.00000
      89.7000       0.00000
      89.8000       0.00000
      89.9000       0.00000
      90.0000       0.00000
      90.1000       0.00000
      90.2000       0.00000
      90.3000       0.00000
      90.4000       0.00000
      90.5000       0.00000
      90.6000       0.00000
      90.7000       0.00000
      90.8000       0.00000
      90.9000       0.00000
      91.0000       0.00000
      91.1000       0.00000
      91.2000       0.00000
      91.3000       0.00000
      91.4000       0.00000
      91.5000       0.00000
      91.6000       0.00000
      91.7000       0.00000
      91.8000       0.00000
      91.9000       0.00000
      92.0000       0.00000
      92.1000       0.00000
      92.2000       0.00000
      92.3000       0.00000
      92.4000       0.00000
      92.5000       0.00000
      92.6000       0.00000
      92.7000       0.00000
      92.8000       0.00000
      92.9000       0.00000
      93.0000       0.00000
      93.1000       0.00000
      93.2000       0.00000
      93.3000       0.00000
      93.4000       0.00000
      93.5000       0.00000
      93.6000       0.00000
      93.7000       0.00000
      93.8000       0.00000
      93.9000       0.00000
      94.0000       0.00000
      94.1000       0.00000
      94.2000       0.00000
      94.3000       0.00000
      94.4000       0.00000
      94.5000       0.00000
      94.6000       0.00000
      94.7000       0.00000
      94.8000       0.00000
      94.9000       0.00000
      95.0000       0.00000
      95.1000       0.00000
      95.2000       0.00000
      95.3000       0.00000
      95.4000       0.00000
      95.5000       0.00000
      95.6000       0.00000
      95.7000       0.00000
      95.8000       0.00000
      95.9000       0.00000
      96.0000       0.00000
      96.1000       0.00000
      96.2000       0.00000
      96.3000       0.00000
      96.4000       0.00000
      96.5000       0.00000
      96.6000       0.00000
      96.7000       0.00000
      96.8000       0.00000
      96.9000       0.00000
      97.0000       0.00000
      97.1000       0.00000
      97.2000       0.00000
      97.3000       0.00000
      97.4000       0.00000
      97.5000       0.00000
      97.6000       0.00000
      97.7000       0.00000
      97.8000       0.00000
      97.9000       0.00000
      98.0000       0.00000
      98.1000       0.00000
      98.2000       0.00000
      98.3000       0.00000
      98.4000       0.00000
      98.5000       0.00000
      98.6000       0.00000
      98.7000       0.00000
      98.8000       0.00000
      98.9000       0.00000
      99.0000       0.00000
      99.1000       0.00000
      99.2000       0.00000
      99.3000       0.00000
      99.4000       0.00000
      99.5000       0.00000
      99.6000       0.00000
      99.7000       0.00000
      99.8000       0.00000
      99.9000       0.00000
      100.000       0.00000
      100.100       0.00000
      100.200       0.00000
      100.300       0.00000
      100.400       0.00000
      100.500       0.00000
      100.600       0.00000
      100.700       0.00000
      100.800       0.00000
      100.900       0.00000
      101.000       0.00000
      101.100       0.00000
      101.200       0.00000
      101.300       0.00000
      101.400       0.00000
      101.500       0.00000
      101.600       0.00000
      101.700       0.00000
      101.800       0.00000
      101.900       0.00000
      102.000       0.00000
      102.100       0.00000
      102.200       0.00000
      102.300       0.00000
      102.400       0.00000
      102.500       0.00000
      102.600       0.00000
      102.700       0.00000
      102.800       0.00000
      102.900       0.00000
      103.000       0.00000
      103.100       0.00000
      103.200       0.00000
      103.300       0.00000
      103.400       0.00000
      103.500       0.00000
      103.600       0.00000
      103.700       0.00000
      103.800       0.00000
      103.900       0.00000
      104.000       0.00000
      104.100       0.00000
      104.200       0.00000
      104.300       0.00000
      104.400       0.00000
      104.500       0.00000
      104.600       0.00000
      104.700       0.00000
      104.800       0.00000
      104.900       0.00000
      105.000       0.00000
      105.100       0.00000
      105.200       0.00000
      105.300       0.00000
      105.400       0.00000
      105.500       0.00000
      105.600       0.00000
      105.700       0.00000
      105.800       0.00000
      105.900       0.00000
      106.000       0.00000
      106.100       0.00000
      106.200       0.00000
      106.300       0.00000
      106.400       0.00000
      106.500       0.00000
      106.600       0.00000
      106.700       0.00000
      106.800       0.00000
      106.900       0.00000
      107.000       0.00000
      107.100       0.00000
      107.200       0.00000
      107.300       0.00000
      107.400       0.00000
      107.500       0.00000
      107.600       0.00000
      107.700       0.00000
      107.800       0.00000
      107.900       0.00000
      108.000       0.00000
      108.100       0.00000
      108.200       0.00000
      108.300       0.00000
      108.400       0.00000
      108.500       0.00000
      108.600       0.00000
      108.700       0.00000
      108.800       0.00000
      108.900       0.00000
      109.000       0.00000
      109.100       0.00000
      109.200       0.00000
      109.300       0.00000
      109.400       0.00000
      109.500       0.00000
      109.600       0.00000
      109.700       0.00000
      109.800       0.00000
      109.900       0.00000
      110.000       0.00000
      110.100       0.00000
      110.200       0.00000
      110.300       0.00000
      110.400       0.00000
      110.500       0.00000
      110.600       0.00000
      110.700       0.00000
      110.800       0.00000
      110.900       0.00000
      111.000       0.00000
      111.100       0.00000
      111.200       0.00000
      111.300       0.00000
      111.400       0.00000
      111.500       0.00000
      111.600       0.00000
      111.700       0.00000
      111.800       0.00000
      111.900       0.00000
      112.000       0.00000
      112.100       0.00000
      112.200       0.00000
      112.300       0.00000
      112.400       0.00000
      112.500       0.00000
      112.600       0.00000
      112.700       0.00000
      112.800       0.00000
      112.900       0.00000
      113.000       0.00000
      113.100       0.00000
      113.200       0.00000
      113.300       0.00000
      113.400       0.00000
      113.500       0.00000
      113.600       0.00000
      113.700       0.00000
      113.800       0.00000
      113.900       0.00000
      114.000       0.00000
      114.100       0.00000
      114.200       0.00000
      114.300       0.00000
      114.400       0.00000
      114.500       0.00000
      114.600       0.00000
      114.700       0.00000
      114.800       0.00000
      114.900       0.00000
      115.000       0.00000
      115.100       0.00000
      115.200       0.00000
      115.300       0.00000
      115.400       0.00000
      115.500       0.00000
      115.600       0.00000
      115.700       0.00000
      115.800       0.00000
      115.900       0.00000
      116.000       0.00000
      116.100       0.00000
      116.200       0.00000
      116.300       0.00000
      116.400       0.00000
      116.500       0.00000
      116.600       0.00000
      116.700       0.00000
      116.800       0.00000
      116.900       0.00000
      117.000       0.00000
      117.100       0.00000
      117.200       0.00000
      117.300       0.00000
      117.400       0.00000
      117.500       0.00000
      117.600       0.00000
      117.700       0.00000
      117.800       0.00000
      117.900       0.00000
      118.000       0.00000
      118.100       0.00000
      118.200       0.00000
      118.300       0.00000
      118.400       0.00000
      118.500       0.00000
      118.600       0.00000
      118.700       0.00000
      118.800       0.00000
      118.900       0.00000
      119.000       0.00000
      119.100       0.00000
      119.200       0.00000
      119.300       0.00000
      119.400       0.00000
      119.500       0.00000
      119.600       0.00000
      119.700       0.00000
      119.800       0.00000
      119.900       0.00000
      120.000       0.00000
      120.100       0.00000
      120.200       0.00000
      120.300       0.00000
      120.400       0.00000
      120.500       0.00000
      120.600       0.00000
      120.700       0.00000
      120.800       0.00000
      120.900       0.00000
      121.000       0.00000
      121.100       0.00000
      121.200       0.00000
      121.300       0.00000
      121.400       0.00000
      121.500       0.00000
      121.600       0.00000
      121.700       0.00000
      121.800       0.00000
      121.900       0.00000
      122.000       0.00000
      122.100       0.00000
      122.200       0.00000
      122.300       0.00000
      122.400       0.00000
      122.500       0.00000
      122.600       0.00000
      122.700       0.00000
      122.800       0.00000
      122.900       0.00000
      123.000       0.00000
      123.100       0.00000
      123.200       0.00000
      123.300       0.00000
      123.400       0.00000
      123.500       0.00000
      123.600       0.00000
      123.700       0.00000
      123.800       0.00000
      123.900       0.00000
      124.000       0.00000
      124.100       0.00000
      124.200       0.00000
      124.300       0.00000
      124.400       0.00000
      124.500       0.00000
      124.600       0.00000
      124.700       0.00000
      124.800       0.00000
      124.900       0.00000
      125.000       0.00000
      125.100       0.00000
      125.200       0.00000
      125.300       0.00000
      125.400       0.00000
      125.500       0.00000
      125.600       0.00000
      125.700       0.00000
      125.800       0.00000
      125.900       0.00000
      126.000       0.00000
      126.100       0.00000
      126.200       0.00000
      126.300       0.00000
      126.400       0.00000
      126.500       0.00000
      126.600       0.00000
      126.700       0.00000
      126.800       0.00000
      126.900       0.00000
      127.000       0.00000
      127.100       0.00000
      127.200       0.00000
      127.300       0.00000
      127.400       0.00000
      127.500       0.00000
      127.600       0.00000
      127.700       0.00000
      127.800       0.00000
      127.900       0.00000
      128.000       0.00000
      128.100       0.00000
      128.200       0.00000
      128.300       0.00000
      128.400       0.00000
      128.500       0.00000
      128.600       0.00000
      128.700       0.00000
      128.800       0.00000
      128.900       0.00000
      129.000       0.00000
      129.100       0.00000
      129.200       0.00000
      129.300       0.00000
      129.400       0.00000
      129.500       0.00000
      129.600       0.00000
      129.700       0.00000
      129.800       0.00000
      129.900       0.00000
      130.000       0.00000
      130.100       0.00000
      130.200       0.00000
      130.300       0.00000
      130.400       0.00000
      130.500       0.00000
      130.600       0.00000
      130.700       0.00000
      130.800       0.00000
      130.900       0.00000
      131.000       0.00000
      131.100       0.00000
      131.200       0.00000
      131.300       0.00000
      131.400       0.00000
      131.500       0.00000
      131.600       0.00000
      131.700       0.00000
      131.800       0.00000
      131.900       0.00000
      132.000       0.00000
      132.100       0.00000
      132.200       0.00000
      132.300       0.00000
      132.400       0.00000
      132.500       0.00000
      132.600       0.00000
      132.700       0.00000
      132.800       0.00000
      132.900       0.00000
      133.000       0.00000
      133.100       0.00000
      133.200       0.00000
      133.300       0.00000
      133.400       0.00000
      133.500       0.00000
      133.600       0.00000
      133.700       0.00000
      133.800       0.00000
      133.900       0.00000
      134.000       0.00000
      134.100       0.00000
      134.200       0.00000
      134.300       0.00000
      134.400       0.00000
      134.500       0.00000
      134.600       0.00000
      134.700       0.00000
      134.800       0.00000
      134.900       0.00000
      135.000       0.00000
      135.100       0.00000
      135.200       0.00000
      135.300       0.00000
      135.400       0.00000
      135.500       0.00000
      135.600       0.00000
      135.700       0.00000
      135.800       0.00000
      135.900       0.00000
      136.000       0.00000
      136.100       0.00000
      136.200       0.00000
      136.300       0.00000
      136.400       0.00000
      136.500       0.00000
      136.600       0.00000
      136.700       0.00000
      136.800       0.00000
      136.900       0.00000
      137.000       0.00000
      137.100       0.00000
      137.200       0.00000
      137.300       0.00000
      137.400       0.00000
      137.500       0.00000
      137.600       0.00000
      137.700       0.00000
      137.800       0.00000
      137.900       0.00000
      138.000       0.00000
      138.100       0.00000
      138.200       0.00000
      138.300       0.00000
      138.400       0.00000
      138.500       0.00000
      138.600       0.00000
      138.700       0.00000
      138.800       0.00000
      138.900       0.00000
      139.000       0.00000
      139.100       0.00000
      139.200       0.00000
      139.300       0.00000
      139.400       0.00000
      139.500       0.00000
      139.600       0.00000
      139.700       0.00000
      139.800       0.00000
      139.900       0.00000
      140.000       0.00000
      140.100       0.00000
      140.200       0.00000
      140.300       0.00000
      140.400       0.00000
      140.500       0.00000
      140.600       0.00000
      140.700       0.00000
      140.800       0.00000
      140.900       0.00000
      141.000       0.00000
      141.100       0.00000
      141.200       0.00000
      141.300       0.00000
      141.400       0.00000
      141.500       0.00000
      141.600       0.00000
      141.700       0.00000
      141.800       0.00000
      141.900       0.00000
      142.000       0.00000
      142.100       0.00000
      142.200       0.00000
      142.300       0.00000
      142.400       0.00000
      142.500       0.00000
      142.600       0.00000
      142.700       0.00000
      142.800       0.00000
      142.900       0.00000
      143.000       0.00000
      143.100       0.00000
      143.200       0.00000
      143.300       0.00000
      143.400       0.00000
      143.500       0.00000
      143.600       0.00000
      143.700       0.00000
      143.800       0.00000
      143.900       0.00000
      144.000       0.00000
      144.100       0.00000
      144.200       0.00000
      144.300       0.00000
      144.400       0.00000
      144.500       0.00000
      144.600       0.00000
      144.700       0.00000
      144.800       0.00000
      144.900       0.00000
      145.000       0.00000
      145.100       0.00000
      145.200       0.00000
      145.300       0.00000
      145.400       0.00000
      145.500       0.00000
      145.600       0.00000
      145.700       0.00000
      145.800       0.00000
      145.900       0.00000
      146.000       0.00000
      146.100       0.00000
      146.200       0.00000
      146.300       0.00000
      146.400       0.00000
      146.500       0.00000
      146.600       0.00000
      146.700       0.00000
      146.800       0.00000
      146.900       0.00000
      147.000       0.00000
      147.100       0.00000
      147.200       0.00000
      147.300       0.00000
      147.400       0.00000
      147.500       0.00000
      147.600       0.00000
      147.700       0.00000
      147.800       0.00000
      147.900       0.00000
      148.000       0.00000
      148.100       0.00000
      148.200       0.00000
      148.300       0.00000
      148.400       0.00000
      148.500       0.00000
      148.600       0.00000
      148.700       0.00000
      148.800       0.00000
      148.900       0.00000
      149.000       0.00000
      149.100       0.00000
      149.200       0.00000
      149.300       0.00000
      149.400       0.00000
      149.500       0.00000
      149.600       0.00000
      149.700       0.00000
      149.800       0.00000
      149.900       0.00000
      150.000       0.00000
      150.100       0.00000
      150.200       0.00000
      150.300       0.00000
      150.400       0.00000
      150.500       0.00000
      150.600       0.00000
      150.700       0.00000
      150.800       0.00000
      150.900       0.00000
      151.000       0.00000
      151.100       0.00000
      151.200       0.00000
      151.300       0.00000
      151.400       0.00000
      151.500       0.00000
      151.600       0.00000
      151.700       0.00000
      151.800       0.00000
      151.900       0.00000
      152.000       0.00000
      152.100       0.00000
      152.200       0.00000
      152.300       0.00000
      152.400       0.00000
      152.500       0.00000
      152.600       0.00000
      152.700       0.00000
      152.800       0.00000
      152.900       0.00000
      153.000       0.00000
      153.100       0.00000
      153.200       0.00000
      153.300       0.00000
      153.400       0.00000
      153.500       0.00000
      153.600       0.00000
      153.700       0.00000
      153.800       0.00000
      153.900       0.00000
      154.000       0.00000
      154.100       0.00000
      154.200       0.00000
      154.300       0.00000
      154.400       0.00000
      154.500       0.00000
      154.600       0.00000
      154.700       0.00000
      154.800       0.00000
      154.900       0.00000
      155.000       0.00000
      155.100       0.00000
      155.200       0.00000
      155.300       0.00000
      155.400       0.00000
      155.500       0.00000
      155.600       0.00000
      155.700       0.00000
      155.800       0.00000
      155.900       0.00000
      156.000       0.00000
      156.100       0.00000
      156.200       0.00000
      156.300       0.00000
      156.400       0.00000
      156.500       0.00000
      156.600       0.00000
      156.700       0.00000
      156.800       0.00000
      156.900       0.00000
      157.000       0.00000
      157.100       0.00000
      157.200       0.00000
      157.300       0.00000
      157.400       0.00000
      157.500       0.00000
      157.600       0.00000
      157.700       0.00000
      157.800       0.00000
      157.900       0.00000
      158.000       0.00000
      158.100       0.00000
      158.200       0.00000
      158.300       0.00000
      158.400       0.00000
      158.500       0.00000
      158.600       0.00000
      158.700       0.00000
      158.800       0.00000
      158.900       0.00000
      159.000       0.00000
      159.100       0.00000
      159.200       0.00000
      159.300       0.00000
      159.400       0.00000
      159.500       0.00000
      159.600       0.00000
      159.700       0.00000
      159.800       0.00000
      159.900       0.00000
      160.000       0.00000
      160.100       0.00000
      160.200       0.00000
      160.300       0.00000
      160.400       0.00000
      160.500       0.00000
      160.600       0.00000
      160.700       0.00000
      160.800       0.00000
      160.900       0.00000
      161.000       0.00000
      161.100       0.00000
      161.200       0.00000
      161.300       0.00000
      161.400       0.00000
      161.500       0.00000
      161.600       0.00000
      161.700       0.00000
      161.800       0.00000
      161.900       0.00000
      162.000       0.00000
      162.100       0.00000
      162.200       0.00000
      162.300       0.00000
      162.400       0.00000
      162.500       0.00000
      162.600       0.00000
      162.700       0.00000
      162.800       0.00000
      162.900       0.00000
      163.000       0.00000
      163.100       0.00000
      163.200       0.00000
      163.300       0.00000
      163.400       0.00000
      163.500       0.00000
      163.600       0.00000
      163.700       0.00000
      163.800       0.00000
      163.900       0.00000
      164.000       0.00000
      164.100       0.00000
      164.200       0.00000
      164.300       0.00000
      164.400       0.00000
      164.500       0.00000
      164.600       0.00000
      164.700       0.00000
      164.800       0.00000
      164.900       0.00000
      165.000       0.00000
      165.100       0.00000
      165.200       0.00000
      165.300       0.00000
      165.400       0.00000
      165.500       0.00000
      165.600       0.00000
      165.700       0.00000
      165.800       0.00000
      165.900       0.00000
      166.000       0.00000
      166.100       0.00000
      166.200       0.00000
      166.300       0.00000
      166.400       0.00000
      166.500       0.00000
      166.600       0.00000
      166.700       0.00000
      166.800       0.00000
      166.900       0.00000
      167.000       0.00000
      167.100       0.00000
      167.200       0.00000
      167.300       0.00000
      167.400       0.00000
      167.500       0.00000
      167.600       0.00000
      167.700       0.00000
      167.800       0.00000
      167.900       0.00000
      168.000       0.00000
      168.100       0.00000
      168.200       0.00000
      168.300       0.00000
      168.400       0.00000
      168.500       0.00000
      168.600       0.00000
      168.700       0.00000
      168.800       0.00000
      168.900       0.00000
      169.000       0.00000
      169.100       0.00000
      169.200       0.00000
      169.300       0.00000
      169.400       0.00000
      169.500       0.00000
      169.600       0.00000
      169.700       0.00000
      169.800       0.00000
      169.900       0.00000
      170.000       0.00000
      170.100       0.00000
      170.200       0.00000
      170.300       0.00000
      170.400       0.00000
      170.500       0.00000
      170.600   7.41398e-40
      170.700   9.22438e-25
      170.800   1.23573e-20
      170.900   2.05341e-20
      171.000   2.09960e-20
      171.100   2.14663e-20
      171.200   2.19451e-20
      171.300   2.24329e-20
      171.400   2.29292e-20
      171.500   2.34341e-20
      171.600   2.39481e-20
      171.700   2.44718e-20
      171.800   2.50052e-20
      171.900   2.55480e-20
      172.000   2.61014e-20
      172.100   2.66663e-20
      172.200   2.72419e-20
      172.300   2.78280e-20
      172.400   2.84210e-20
      172.500   2.90246e-20
      172.600   2.96411e-20
      172.700   3.02700e-20
      172.800   3.09113e-20
      172.900   3.15668e-20
      173.000   3.22349e-20
      173.100   3.29165e-20
      173.200   3.36122e-20
      173.300   3.43224e-20
      173.400   3.50478e-20
      173.500   3.57876e-20
      173.600   3.65426e-20
      173.700   3.73130e-20
      173.800   3.81002e-20
      173.900   3.89019e-20
      174.000   3.97203e-20
      174.100   4.05568e-20
      174.200   4.14088e-20
      174.300   4.22771e-20
      174.400   4.31637e-20
      174.500   4.40673e-20
      174.600   4.49896e-20
      174.700   4.59298e-20
      174.800   4.68876e-20
      174.900   4.78643e-20
      175.000   4.88608e-20
      175.100   4.98746e-20
      175.200   5.09112e-20
      175.300   5.19661e-20
      175.400   5.30426e-20
      175.500   5.41390e-20
      175.600   5.52553e-20
      175.700   5.63933e-20
      175.800   5.75542e-20
      175.900   5.87359e-20
      176.000   5.99390e-20
      176.100   6.11653e-20
      176.200   6.24147e-20
      176.300   6.36886e-20
      176.400   6.49853e-20
      176.500   6.63059e-20
      176.600   6.76529e-20
      176.700   6.90240e-20
      176.800   7.04197e-20
      176.900   7.18412e-20
      177.000   7.32905e-20
      177.100   7.47667e-20
      177.200   7.62684e-20
      177.300   7.77974e-20
      177.400   7.93559e-20
      177.500   8.09424e-20
      177.600   8.25568e-20
      177.700   8.42000e-20
      177.800   8.58722e-20
      177.900   8.75760e-20
      178.000   8.93161e-20
      178.100   9.10856e-20
      178.200   9.28877e-20
      178.300   9.47234e-20
      178.400   9.65897e-20
      178.500   9.84890e-20
      178.600   1.00423e-19
      178.700   1.02393e-19
      178.800   1.04396e-19
      178.900   1.06432e-19
      179.000   1.08505e-19
      179.100   1.10615e-19
      179.200   1.12764e-19
      179.300   1.14948e-19
      179.400   1.17171e-19
      179.500   1.19434e-19
      179.600   1.21743e-19
      179.700   1.24088e-19
      179.800   1.26474e-19
      179.900   1.28903e-19
      180.000   1.31380e-19
      180.100   1.33897e-19
      180.200   1.36460e-19
      180.300   1.39068e-19
      180.400   1.41726e-19
      180.500   1.44432e-19
      180.600   1.47184e-19
      180.700   1.49985e-19
      180.800   1.52866e-19
      180.900   1.55848e-19
      181.000   1.58908e-19
      181.100   1.62020e-19
      181.200   1.65195e-19
      181.300   1.68431e-19
      181.400   1.71724e-19
      181.500   1.75076e-19
      181.600   1.78494e-19
      181.700   1.81976e-19
      181.800   1.85520e-19
      181.900   1.89129e-19
      182.000   1.92807e-19
      182.100   1.96550e-19
      182.200   2.00371e-19
      182.300   2.04256e-19
      182.400   2.08211e-19
      182.500   2.12239e-19
      182.600   2.16346e-19
      182.700   2.20522e-19
      182.800   2.24769e-19
      182.900   2.29098e-19
      183.000   2.33503e-19
      183.100   2.37985e-19
      183.200   2.42546e-19
      183.300   2.47189e-19
      183.400   2.51917e-19
      183.500   2.56725e-19
      183.600   2.61617e-19
      183.700   2.66759e-19
      183.800   2.72693e-19
      183.900   2.79185e-19
      184.000   2.85811e-19
      184.100   2.92598e-19
      184.200   2.99535e-19
      184.300   3.06633e-19
      184.400   3.13886e-19
      184.500   3.21294e-19
      184.600   3.28866e-19
      184.700   3.36611e-19
      184.800   3.44524e-19
      184.900   3.52607e-19
      185.000   3.60866e-19
      185.100   3.69310e-19
      185.200   3.77942e-19
      185.300   3.86752e-19
      185.400   3.95754e-19
      185.500   4.04946e-19
      185.600   4.14341e-19
      185.700   4.23950e-19
      185.800   4.33768e-19
      185.900   4.43791e-19
      186.000   4.54049e-19
      186.100   4.64512e-19
      186.200   4.75191e-19
      186.300   4.86096e-19
      186.400   4.97238e-19
      186.500   5.08617e-19
      186.600   5.20225e-19
      186.700   5.32064e-19
      186.800   5.44149e-19
      186.900   5.56492e-19
      187.000   5.69091e-19
      187.100   5.81930e-19
      187.200   5.95045e-19
      187.300   6.08453e-19
      187.400   6.22130e-19
      187.500   6.36081e-19
      187.600   6.50312e-19
      187.700   6.64831e-19
      187.800   6.79657e-19
      187.900   6.94783e-19
      188.000   7.10197e-19
      188.100   7.25919e-19
      188.200   7.41965e-19
      188.300   7.58342e-19
      188.400   7.75051e-19
      188.500   7.92087e-19
      188.600   8.09479e-19
      188.700   8.27257e-19
      188.800   8.45378e-19
      188.900   8.63854e-19
      189.000   8.82706e-19
      189.100   9.01958e-19
      189.200   9.21592e-19
      189.300   9.41607e-19
      189.400   9.62022e-19
      189.500   9.82855e-19
      189.600   1.00413e-18
      189.700   1.02581e-18
      189.800   1.04802e-18
      189.900   1.07073e-18
      190.000   1.09393e-18
      190.100   1.11757e-18
      190.200   1.14170e-18
      190.300   1.16630e-18
      190.400   1.19142e-18
      190.500   1.21705e-18
      190.600   1.24317e-18
      190.700   1.26982e-18
      190.800   1.29700e-18
      190.900   1.32472e-18
      191.000   1.35307e-18
      191.100   1.38198e-18
      191.200   1.41147e-18
      191.300   1.44154e-18
      191.400   1.47222e-18
      191.500   1.50352e-18
      191.600   1.53541e-18
      191.700   1.56793e-18
      191.800   1.60113e-18
      191.900   1.63495e-18
      192.000   1.66941e-18
      192.100   1.70460e-18
      192.200   1.74053e-18
      192.300   1.77714e-18
      192.400   1.81452e-18
      192.500   1.85261e-18
      192.600   1.89141e-18
      192.700   1.93096e-18
      192.800   1.96965e-18
      192.900   2.00487e-18
      193.000   2.04024e-18
      193.100   2.07622e-18
      193.200   2.11289e-18
      193.300   2.15012e-18
      193.400   2.18793e-18
      193.500   2.22637e-18
      193.600   2.26547e-18
      193.700   2.30520e-18
      193.800   2.34555e-18
      193.900   2.38652e-18
      194.000   2.42820e-18
      194.100   2.47066e-18
      194.200   2.51377e-18
      194.300   2.55758e-18
      194.400   2.60210e-18
      194.500   2.64738e-18
      194.600   2.69338e-18
      194.700   2.74007e-18
      194.800   2.78749e-18
      194.900   2.83570e-18
      195.000   2.88469e-18
      195.100   2.93463e-18
      195.200   2.98526e-18
      195.300   3.03667e-18
      195.400   3.08891e-18
      195.500   3.14199e-18
      195.600   3.19590e-18
      195.700   3.25058e-18
      195.800   3.30565e-18
      195.900   3.35815e-18
      196.000   3.29315e-18
      196.100   3.22789e-18
      196.200   3.16390e-18
      196.300   3.10113e-18
      196.400   3.03958e-18
      196.500   2.97919e-18
      196.600   2.91997e-18
      196.700   2.86188e-18
      196.800   2.80495e-18
      196.900   2.74920e-18
      197.000   2.69452e-18
      197.100   2.64087e-18
      197.200   2.58825e-18
      197.300   2.53663e-18
      197.400   2.48599e-18
      197.500   2.43630e-18
      197.600   2.38758e-18
      197.700   2.33990e-18
      197.800   2.29317e-18
      197.900   2.24731e-18
      198.000   2.20233e-18
      198.100   2.15822e-18
      198.200   2.11494e-18
      198.300   2.07251e-18
      198.400   2.03090e-18
      198.500   1.99017e-18
      198.600   1.95027e-18
      198.700   1.91113e-18
      198.800   1.87276e-18
      198.900   1.83514e-18
      199.000   1.79823e-18
      199.100   1.76205e-18
      199.200   1.72659e-18
      199.300   1.69191e-18
      199.400   1.65793e-18
      199.500   1.62462e-18
      199.600   1.59194e-18
      199.700   1.55992e-18
      199.800   1.52853e-18
      199.900   1.49775e-18
      200.000   1.46757e-18
      200.100   1.43813e-18
      200.200   1.40921e-18
      200.300   1.38089e-18
      200.400   1.35312e-18
      200.500   1.32589e-18
      200.600   1.29923e-18
      200.700   1.27309e-18
      200.800   1.24746e-18
      200.900   1.22236e-18
      201.000   1.19778e-18
      201.100   1.17370e-18
      201.200   1.15011e-18
      201.300   1.12698e-18
      201.400   1.10433e-18
      201.500   1.08212e-18
      201.600   1.06035e-18
      201.700   1.03903e-18
      201.800   1.01813e-18
      201.900   9.97650e-19
      202.000   9.77613e-19
      202.100   9.57973e-19
      202.200   9.38730e-19
      202.300   9.19938e-19
      202.400   9.01666e-19
      202.500   8.83794e-19
      202.600   8.66264e-19
      202.700   8.49100e-19
      202.800   8.32280e-19
      202.900   8.15805e-19
      203.000   7.99660e-19
      203.100   7.83847e-19
      203.200   7.68338e-19
      203.300   7.53139e-19
      203.400   7.38242e-19
      203.500   7.23640e-19
      203.600   7.09331e-19
      203.700   6.95312e-19
      203.800   6.81580e-19
      203.900   6.68138e-19
      204.000   6.54960e-19
      204.100   6.42045e-19
      204.200   6.29393e-19
      204.300   6.16992e-19
      204.400   6.04839e-19
      204.500   5.92930e-19
      204.600   5.81255e-19
      204.700   5.69815e-19
      204.800   5.58616e-19
      204.900   5.47646e-19
      205.000   5.36895e-19
      205.100   5.26359e-19
      205.200   5.16031e-19
      205.300   5.05911e-19
      205.400   4.95991e-19
      205.500   4.86269e-19
      205.600   4.75914e-19
      205.700   4.65033e-19
      205.800   4.54292e-19
      205.900   4.43809e-19
      206.000   4.33578e-19
      206.100   4.23580e-19
      206.200   4.13810e-19
      206.300   4.04269e-19
      206.400   3.94947e-19
      206.500   3.85835e-19
      206.600   3.76934e-19
      206.700   3.68239e-19
      206.800   3.59738e-19
      206.900   3.51432e-19
      207.000   3.43318e-19
      207.100   3.35397e-19
      207.200   3.27661e-19
      207.300   3.20098e-19
      207.400   3.12708e-19
      207.500   3.05484e-19
      207.600   2.98426e-19
      207.700   2.91527e-19
      207.800   2.84783e-19
      207.900   2.78192e-19
      208.000   2.71752e-19
      208.100   2.65458e-19
      208.200   2.59306e-19
      208.300   2.53295e-19
      208.400   2.47426e-19
      208.500   2.41692e-19
      208.600   2.36085e-19
      208.700   2.30605e-19
      208.800   2.25251e-19
      208.900   2.19385e-19
      209.000   2.12548e-19
      209.100   2.05652e-19
      209.200   1.98976e-19
      209.300   1.92510e-19
      209.400   1.86252e-19
      209.500   1.80194e-19
      209.600   1.74328e-19
      209.700   1.68654e-19
      209.800   1.63170e-19
      209.900   1.57857e-19
      210.000   1.52716e-19
      210.100   1.47740e-19
      210.200   1.42923e-19
      210.300   1.38260e-19
      210.400   1.33747e-19
      210.500   1.29379e-19
      210.600   1.25151e-19
      210.700   1.21059e-19
      210.800   1.17099e-19
      210.900   1.13266e-19
      211.000   1.09557e-19
      211.100   1.05968e-19
      211.200   1.02494e-19
      211.300   9.91378e-20
      211.400   9.58916e-20
      211.500   9.27488e-20
      211.600   8.97083e-20
      211.700   8.67664e-20
      211.800   8.39179e-20
      211.900   8.11617e-20
      212.000   7.84966e-20
      212.100   7.59169e-20
      212.200   7.34204e-20
      212.300   7.10053e-20
      212.400   6.86678e-20
      212.500   6.64070e-20
      212.600   6.42196e-20
      212.700   6.21032e-20
      212.800   6.00556e-20
      212.900   5.80751e-20
      213.000   5.61593e-20
      213.100   5.43082e-20
      213.200   5.25175e-20
      213.300   5.07848e-20
      213.400   4.91087e-20
      213.500   4.74873e-20
      213.600   4.59186e-20
      213.700   4.44017e-20
      213.800   4.29338e-20
      213.900   4.15147e-20
      214.000   4.01415e-20
      214.100   3.88134e-20
      214.200   3.75294e-20
      214.300   3.62869e-20
      214.400   3.50852e-20
      214.500   3.39231e-20
      214.600   3.27996e-20
      214.700   3.17127e-20
      214.800   3.06618e-20
      214.900   2.96457e-20
      215.000   2.86626e-20
      215.100   2.77125e-20
      215.200   2.67943e-20
      215.300   2.59069e-20
      215.400   2.50484e-20
      215.500   2.42184e-20
      215.600   2.34164e-20
      215.700   2.26402e-20
      215.800   2.18898e-20
      215.900   2.11646e-20
      216.000   2.04631e-20
      216.100   1.97848e-20
      216.200   1.91291e-20
      216.300   1.84951e-20
      216.400   1.78822e-20
      216.500   1.72894e-20
      216.600   1.67163e-20
      216.700   1.61624e-20
      216.800   1.56267e-20
      216.900   1.51088e-20
      217.000   1.46080e-20
      217.100   1.41238e-20
      217.200   1.36558e-20
      217.300   1.32032e-20
      217.400   1.27654e-20
      217.500   1.23425e-20
      217.600   1.19334e-20
      217.700   1.15376e-20
      217.800   1.11552e-20
      217.900   1.07855e-20
      218.000   1.04282e-20
      218.100   1.00827e-20
      218.200   9.74867e-21
      218.300   9.42571e-21
      218.400   9.11346e-21
      218.500   8.81134e-21
      218.600   8.51931e-21
      218.700   8.23685e-21
      218.800   7.96371e-21
      218.900   7.69969e-21
      219.000   7.44428e-21
      219.100   7.19723e-21
      219.200   6.95839e-21
      219.300   6.72739e-21
      219.400   6.50394e-21
      219.500   6.28788e-21
      219.600   6.07894e-21
      219.700   5.87691e-21
      219.800   5.68157e-21
      219.900   5.49262e-21
      220.000   5.30986e-21
      220.100   5.13315e-21
      220.200   4.96225e-21
      220.300   4.79700e-21
      220.400   4.63719e-21
      220.500   4.48269e-21
      220.600   4.33329e-21
      220.700   4.18877e-21
      220.800   4.04898e-21
      220.900   3.91390e-21
      221.000   3.78322e-21
      221.100   3.65683e-21
      221.200   3.53467e-21
      221.300   3.41654e-21
      221.400   3.30231e-21
      221.500   3.19187e-21
      221.600   3.08508e-21
      221.700   2.98180e-21
      221.800   2.88192e-21
      221.900   2.78537e-21
      222.000   2.69205e-21
      222.100   2.60177e-21
      222.200   2.51453e-21
      222.300   2.43014e-21
      222.400   2.34859e-21
      222.500   2.26970e-21
      222.600   2.19347e-21
      222.700   2.11975e-21
      222.800   2.04848e-21
      222.900   1.97958e-21
      223.000   1.91297e-21
      223.100   1.84857e-21
      223.200   1.78633e-21
      223.300   1.72614e-21
      223.400   1.66798e-21
      223.500   1.61172e-21
      223.600   1.55737e-21
      223.700   1.50481e-21
      223.800   1.45399e-21
      223.900   1.40492e-21
      224.000   1.35744e-21
      224.100   1.31156e-21
      224.200   1.26720e-21
      224.300   1.22433e-21
      224.400   1.18289e-21
      224.500   1.14284e-21
      224.600   1.10412e-21
      224.700   1.06671e-21
      224.800   1.03055e-21
      224.900   9.95587e-22
      225.000   9.61805e-22
      225.100   9.29147e-22
      225.200   8.97581e-22
      225.300   8.67098e-22
      225.400   8.37619e-22
      225.500   8.09125e-22
      225.600   7.81590e-22
      225.700   7.54992e-22
      225.800   7.29276e-22
      225.900   7.04429e-22
      226.000   6.80424e-22
      226.100   6.57222e-22
      226.200   6.34800e-22
      226.300   6.13186e-22
      226.400   5.92318e-22
      226.500   5.72136e-22
      226.600   5.52622e-22
      226.700   5.33767e-22
      226.800   5.15535e-22
      226.900   4.97918e-22
      227.000   4.80899e-22
      227.100   4.64450e-22
      227.200   4.48563e-22
      227.300   4.33214e-22
      227.400   4.18384e-22
      227.500   4.04058e-22
      227.600   3.90217e-22
      227.700   3.76847e-22
      227.800   3.63932e-22
      227.900   3.51458e-22
      228.000   3.39408e-22
      228.100   3.27768e-22
      228.200   3.16523e-22
      228.300   3.05662e-22
      228.400   2.95175e-22
      228.500   2.85042e-22
      228.600   2.75257e-22
      228.700   2.65805e-22
      228.800   2.56675e-22
      228.900   2.47862e-22
      229.000   2.39348e-22
      229.100   2.31126e-22
      229.200   2.23184e-22
      229.300   2.15516e-22
      229.400   2.08110e-22
      229.500   2.00958e-22
      229.600   1.94050e-22
      229.700   1.87381e-22
      229.800   1.80939e-22
      229.900   1.74719e-22
      230.000   1.68646e-22
      230.100   1.62320e-22
      230.200   1.56214e-22
      230.300   1.50341e-22
      230.400   1.44686e-22
      230.500   1.39244e-22
      230.600   1.34010e-22
      230.700   1.28971e-22
      230.800   1.24122e-22
      230.900   1.19454e-22
      231.000   1.14961e-22
      231.100   1.10636e-22
      231.200   1.06473e-22
      231.300   1.02467e-22
      231.400   9.86133e-23
      231.500   9.49008e-23
      231.600   9.13271e-23
      231.700   8.78889e-23
      231.800   8.45795e-23
      231.900   8.13939e-23
      232.000   7.83275e-23
      232.100   7.53757e-23
      232.200   7.25351e-23
      232.300   6.98013e-23
      232.400   6.71695e-23
      232.500   6.46357e-23
      232.600   6.21976e-23
      232.700   5.98510e-23
      232.800   5.75923e-23
      232.900   5.54181e-23
      233.000   5.33254e-23
      233.100   5.13117e-23
      233.200   4.93730e-23
      233.300   4.75076e-23
      233.400   4.57121e-23
      233.500   4.39853e-23
      233.600   4.23243e-23
      233.700   4.07248e-23
      233.800   3.89943e-23
      233.900   3.73118e-23
      234.000   3.57005e-23
      234.100   3.41584e-23
      234.200   3.26826e-23
      234.300   3.12698e-23
      234.400   2.99173e-23
      234.500   2.86229e-23
      234.600   2.73837e-23
      234.700   2.61978e-23
      234.800   2.50630e-23
      234.900   2.39766e-23
      235.000   2.29365e-23
      235.100   2.19413e-23
      235.200   2.09889e-23
      235.300   2.00773e-23
      235.400   1.92048e-23
      235.500   1.83699e-23
      235.600   1.75711e-23
      235.700   1.68067e-23
      235.800   1.60765e-23
      235.900   1.53778e-23
      236.000   1.47091e-23
      236.100   1.40691e-23
      236.200   1.34566e-23
      236.300   1.28704e-23
      236.400   1.23096e-23
      236.500   1.17729e-23
      236.600   1.12593e-23
      236.700   1.07679e-23
      236.800   1.02975e-23
      236.900   9.84751e-24
      237.000   9.41691e-24
      237.100   9.00484e-24
      237.200   8.61067e-24
      237.300   8.23349e-24
      237.400   7.87261e-24
      237.500   7.52727e-24
      237.600   7.19705e-24
      237.700   6.88172e-24
      237.800   6.58003e-24
      237.900   6.29137e-24
      238.000   6.01526e-24
      238.100   5.75100e-24
      238.200   5.49820e-24
      238.300   5.25636e-24
      238.400   5.02499e-24
      238.500   4.80361e-24
      238.600   4.59187e-24
      238.700   4.38937e-24
      238.800   4.19561e-24
      238.900   4.01028e-24
      239.000   3.83297e-24
      239.100   3.66340e-24
      239.200   3.50125e-24
      239.300   3.34638e-24
      239.400   3.19846e-24
      239.500   3.05697e-24
      239.600   2.92160e-24
      239.700   2.79221e-24
      239.800   2.66840e-24
      239.900   2.55000e-24
      240.000   2.43677e-24
      240.100   2.32845e-24
      240.200   2.22487e-24
      240.300   2.12583e-24
      240.400   2.03109e-24
      240.500   1.94055e-24
      240.600   1.85398e-24
      240.700   1.77119e-24
      240.800   1.69215e-24
      240.900   1.61670e-24
      241.000   1.54458e-24
      241.100   1.47560e-24
      241.200   1.40967e-24
      241.300   1.34662e-24
      241.400   1.28635e-24
      241.500   1.22873e-24
      241.600   1.17366e-24
      241.700   1.12100e-24
      241.800   1.07066e-24
      241.900   1.02254e-24
      242.000   9.76558e-25
      242.100   9.32614e-25
      242.200   8.90700e-25
      242.300   8.50704e-25
      242.400   8.12465e-25
      242.500   7.75916e-25
      242.600   7.40988e-25
      242.700   7.07602e-25
      242.800   6.75704e-25
      242.900   6.45219e-25
      243.000   6.16088e-25
      243.100   5.88251e-25
      243.200   5.61643e-25
      243.300   5.36224e-25
      243.400   5.11948e-25
      243.500   4.88793e-25
      243.600   4.66719e-25
      243.700   4.45616e-25
      243.800   4.25454e-25
      243.900   4.06198e-25
      244.000   3.87794e-25
      244.100   3.70214e-25
      244.200   3.53419e-25
      244.300   3.37371e-25
      244.400   3.22043e-25
      244.500   3.07401e-25
      244.600   2.93414e-25
      244.700   2.80075e-25
      244.800   2.67369e-25
      244.900   2.55232e-25
      245.000   2.43632e-25
      245.100   2.32554e-25
      245.200   2.21976e-25
      245.300   2.11872e-25
      245.400   2.02218e-25
      245.500   1.93001e-25
      245.600   1.84197e-25
      245.700   1.75787e-25
      245.800   1.67754e-25
      245.900   1.60110e-25
      246.000   1.52820e-25
      246.100   1.45855e-25
      246.200   1.39203e-25
      246.300   1.32849e-25
      246.400   1.26783e-25
      246.500   1.20989e-25
      246.600   1.15456e-25
      246.700   1.10172e-25
      246.800   1.05125e-25
      246.900   1.00306e-25
      247.000   9.57204e-26
      247.100   9.13470e-26
      247.200   8.71711e-26
      247.300   8.31837e-26
      247.400   7.93755e-26
      247.500   7.57387e-26
      247.600   7.22659e-26
      247.700   6.89500e-26
      247.800   6.57837e-26
      247.900   6.27603e-26
      248.000   5.98742e-26
      248.100   5.71338e-26
      248.200   5.45161e-26
      248.300   5.20160e-26
      248.400   4.96289e-26
      248.500   4.73490e-26
      248.600   4.51724e-26
      248.700   4.30946e-26
      248.800   4.11105e-26
      248.900   3.92163e-26
      249.000   3.74082e-26
      249.100   3.56894e-26
      249.200   3.40503e-26
      249.300   3.24844e-26
      249.400   3.09894e-26
      249.500   2.95624e-26
      249.600   2.81996e-26
      249.700   2.68985e-26
      249.800   2.56566e-26
      249.900   2.44708e-26
      250.000   2.33391e-26
      250.100   2.22623e-26
      250.200   2.12359e-26
      250.300   2.02570e-26
      250.400   1.93222e-26
      250.500   1.84302e-26
      250.600   1.75790e-26
      250.700   1.67664e-26
      250.800   1.59909e-26
      250.900   1.52509e-26
      251.000   1.45446e-26
      251.100   1.38706e-26
      251.200   1.32285e-26
      251.300   1.26170e-26
      251.400   1.20335e-26
      251.500   1.14764e-26
      251.600   1.09448e-26
      251.700   1.04378e-26
      251.800   9.95390e-27
      251.900   9.49209e-27
      252.000   9.05136e-27
      252.100   8.63103e-27
      252.200   8.22984e-27
      252.300   7.84766e-27
      252.400   7.48354e-27
      252.500   7.13634e-27
      252.600   6.80492e-27
      252.700   6.48875e-27
      252.800   6.18712e-27
      252.900   5.89933e-27
      253.000   5.62472e-27
      253.100   5.36278e-27
      253.200   5.11289e-27
      253.300   4.87552e-27
      253.400   4.64950e-27
      253.500   4.43413e-27
      253.600   4.22900e-27
      253.700   4.03319e-27
      253.800   3.84638e-27
      253.900   3.66814e-27
      254.000   3.49802e-27
      254.100   3.33566e-27
      254.200   3.18075e-27
      254.300   3.03296e-27
      254.400   2.89192e-27
      254.500   2.75735e-27
      254.600   2.62897e-27
      254.700   2.50651e-27
      254.800   2.38999e-27
      254.900   2.27882e-27
      255.000   2.17278e-27
      255.100   2.07155e-27
      255.200   1.97499e-27
      255.300   1.88289e-27
      255.400   1.79502e-27
      255.500   1.71119e-27
      255.600   1.63124e-27
      255.700   1.55496e-27
      255.800   1.48220e-27
      255.900   1.41278e-27
      256.000   1.34657e-27
      256.100   1.28350e-27
      256.200   1.22343e-27
      256.300   1.16614e-27
      256.400   1.11152e-27
      256.500   1.05938e-27
      256.600   1.00967e-27
      256.700   9.62273e-28
      256.800   9.17057e-28
      256.900   8.73932e-28
      257.000   8.32814e-28
      257.100   7.93600e-28
      257.200   7.56220e-28
      257.300   7.20564e-28
      257.400   6.91338e-28
      257.500   6.64996e-28
      257.600   6.39768e-28
      257.700   6.15498e-28
      257.800   5.92132e-28
      257.900   5.69647e-28
      258.000   5.48002e-28
      258.100   5.27167e-28
      258.200   5.07119e-28
      258.300   4.87828e-28
      258.400   4.69250e-28
      258.500   4.51369e-28
      258.600   4.34168e-28
      258.700   4.17612e-28
      258.800   4.01677e-28
      258.900   3.86351e-28
      259.000   3.71592e-28
      259.100   3.57394e-28
      259.200   3.43741e-28
      259.300   3.30622e-28
      259.400   3.17997e-28
      259.500   3.05842e-28
      259.600   2.94150e-28
      259.700   2.82902e-28
      259.800   2.72075e-28
      259.900   2.61654e-28
      260.000   2.51634e-28
      260.100   2.41992e-28
      260.200   2.32714e-28
      260.300   2.23788e-28
      260.400   2.15202e-28
      260.500   2.06943e-28
      260.600   1.98996e-28
      260.700   1.91349e-28
      260.800   1.83999e-28
      260.900   1.76923e-28
      261.000   1.70122e-28
      261.100   1.63587e-28
      261.200   1.57300e-28
      261.300   1.51251e-28
      261.400   1.45435e-28
      261.500   1.40448e-28
      261.600   1.37605e-28
      261.700   1.35161e-28
      261.800   1.32762e-28
      261.900   1.30403e-28
      262.000   1.28087e-28
      262.100   1.25811e-28
      262.200   1.23577e-28
      262.300   1.21381e-28
      262.400   1.19224e-28
      262.500   1.17106e-28
      262.600   1.15024e-28
      262.700   1.12981e-28
      262.800   1.10973e-28
      262.900   1.08998e-28
      263.000   1.07063e-28
      263.100   1.05160e-28
      263.200   1.03292e-28
      263.300   1.01457e-28
      263.400   9.96547e-29
      263.500   9.78843e-29
      263.600   9.61468e-29
      263.700   9.44389e-29
      263.800   9.27609e-29
      263.900   9.11146e-29
      264.000   8.94970e-29
      264.100   8.79077e-29
      264.200   8.63466e-29
      264.300   8.48144e-29
      264.400   8.33092e-29
      264.500   8.18307e-29
      264.600   8.03779e-29
      264.700   7.89517e-29
      264.800   7.75510e-29
      264.900   7.61760e-29
      265.000   7.48251e-29
      265.100   7.34978e-29
      265.200   7.21947e-29
      265.300   7.09147e-29
      265.400   6.96583e-29
      265.500   6.84241e-29
      265.600   6.72118e-29
      265.700   6.60210e-29
      265.800   6.48532e-29
      265.900   6.37060e-29
      266.000   6.25801e-29
      266.100   6.14748e-29
      266.200   6.03885e-29
      266.300   5.93219e-29
      266.400   5.82742e-29
      266.500   5.72454e-29
      266.600   5.62354e-29
      266.700   5.52427e-29
      266.800   5.42690e-29
      266.900   5.33121e-29
      267.000   5.23724e-29
      267.100   5.14498e-29
      267.200   5.05443e-29
      267.300   4.96546e-29
      267.400   4.87802e-29
      267.500   4.79220e-29
      267.600   4.70791e-29
      267.700   4.62513e-29
      267.800   4.54381e-29
      267.900   4.46398e-29
      268.000   4.38561e-29
      268.100   4.30863e-29
      268.200   4.23304e-29
      268.300   4.15881e-29
      268.400   4.08587e-29
      268.500   4.01426e-29
      268.600   3.94392e-29
      268.700   3.87489e-29
      268.800   3.80704e-29
      268.900   3.74044e-29
      269.000   3.67504e-29
      269.100   3.61077e-29
      269.200   3.54770e-29
      269.300   3.48574e-29
      269.400   3.42488e-29
      269.500   3.36508e-29
      269.600   3.30642e-29
      269.700   3.24873e-29
      269.800   3.19214e-29
      269.900   3.13650e-29
      270.000   3.08193e-29
      270.100   3.02829e-29
      270.200   2.97569e-29
      270.300   2.92397e-29
      270.400   2.87317e-29
      270.500   2.82329e-29
      270.600   2.77429e-29
      270.700   2.72617e-29
      270.800   2.67891e-29
      270.900   2.63247e-29
      271.000   2.58685e-29
      271.100   2.54202e-29
      271.200   2.49799e-29
      271.300   2.45477e-29
      271.400   2.41228e-29
      271.500   2.37058e-29
      271.600   2.32957e-29
      271.700   2.28930e-29
      271.800   2.24973e-29
      271.900   2.21087e-29
      272.000   2.17269e-29
      272.100   2.13518e-29
      272.200   2.09831e-29
      272.300   2.06209e-29
      272.400   2.02650e-29
      272.500   1.99155e-29
      272.600   1.95719e-29
      272.700   1.92345e-29
      272.800   1.89028e-29
      272.900   1.85769e-29
      273.000   1.82568e-29
      273.100   1.79423e-29
      273.200   1.76332e-29
      273.300   1.73295e-29
      273.400   1.70309e-29
      273.500   1.67376e-29
      273.600   1.64494e-29
      273.700   1.61660e-29
      273.800   1.58876e-29
      273.900   1.56142e-29
      274.000   1.53454e-29
      274.100   1.50813e-29
      274.200   1.48217e-29
      274.300   1.45666e-29
      274.400   1.43143e-29
      274.500   1.40627e-29
      274.600   1.38149e-29
      274.700   1.35715e-29
      274.800   1.33324e-29
      274.900   1.30974e-29
      275.000   1.28665e-29
      275.100   1.26398e-29
      275.200   1.24169e-29
      275.300   1.21979e-29
      275.400   1.19829e-29
      275.500   1.17716e-29
      275.600   1.15639e-29
      275.700   1.13599e-29
      275.800   1.11595e-29
      275.900   1.09626e-29
      276.000   1.07692e-29
      276.100   1.05791e-29
      276.200   1.03923e-29
      276.300   1.02088e-29
      276.400   1.00285e-29
      276.500   9.85133e-30
      276.600   9.67731e-30
      276.700   9.50624e-30
      276.800   9.33825e-30
      276.900   9.17309e-30
      277.000   9.01090e-30
      277.100   8.85145e-30
      277.200   8.69487e-30
      277.300   8.54101e-30
      277.400   8.38984e-30
      277.500   8.24118e-30
      277.600   8.09528e-30
      277.700   7.95184e-30
      277.800   7.81079e-30
      277.900   7.67234e-30
      278.000   7.53638e-30
      278.100   7.40274e-30
      278.200   7.27138e-30
      278.300   7.14233e-30
      278.400   7.01558e-30
      278.500   6.89093e-30
      278.600   6.76850e-30
      278.700   6.64827e-30
      278.800   6.53016e-30
      278.900   6.41384e-30
      279.000   6.29954e-30
      279.100   6.18725e-30
      279.200   6.07685e-30
      279.300   5.96850e-30
      279.400   5.86194e-30
      279.500   5.75728e-30
      279.600   5.65448e-30
      279.700   5.55351e-30
      279.800   5.45430e-30
      279.900   5.35679e-30
      280.000   5.26102e-30
      280.100   5.16690e-30
      280.200   5.07447e-30
      280.300   4.98363e-30
      280.400   4.89441e-30
      280.500   4.80683e-30
      280.600   4.72074e-30
      280.700   4.63613e-30
      280.800   4.55305e-30
      280.900   4.47141e-30
      281.000   4.39120e-30
      281.100   4.31240e-30
      281.200   4.23501e-30
      281.300   4.15900e-30
      281.400   4.08436e-30
      281.500   4.01098e-30
      281.600   3.93886e-30
      281.700   3.86807e-30
      281.800   3.79855e-30
      281.900   3.73024e-30
      282.000   3.66315e-30
      282.100   3.59722e-30
      282.200   3.53252e-30
      282.300   3.46891e-30
      282.400   3.40645e-30
      282.500   3.34507e-30
      282.600   3.28480e-30
      282.700   3.22557e-30
      282.800   3.16743e-30
      282.900   3.11036e-30
      283.000   3.05426e-30
      283.100   2.99918e-30
      283.200   2.94512e-30
      283.300   2.89198e-30
      283.400   2.83980e-30
      283.500   2.78859e-30
      283.600   2.73826e-30
      283.700   2.68882e-30
      283.800   2.64027e-30
      283.900   2.59262e-30
      284.000   2.54578e-30
      284.100   2.49976e-30
      284.200   2.45459e-30
      284.300   2.41025e-30
      284.400   2.36668e-30
      284.500   2.32391e-30
      284.600   2.28191e-30
      284.700   2.24066e-30
      284.800   2.20015e-30
      284.900   2.16037e-30
      285.000   2.12127e-30
      285.100   2.08290e-30
      285.200   2.04524e-30
      285.300   2.00823e-30
      285.400   1.97189e-30
      285.500   1.93620e-30
      285.600   1.90120e-30
      285.700   1.86679e-30
      285.800   1.83302e-30
      285.900   1.79985e-30
      286.000   1.76729e-30
      286.100   1.73535e-30
      286.200   1.70396e-30
      286.300   1.67317e-30
      286.400   1.64292e-30
      286.500   1.61321e-30
      286.600   1.58403e-30
      286.700   1.55538e-30
      286.800   1.52727e-30
      286.900   1.49966e-30
      287.000   1.47254e-30
      287.100   1.44592e-30
      287.200   1.41979e-30
      287.300   1.39413e-30
      287.400   1.36893e-30
      287.500   1.34420e-30
      287.600   1.31992e-30
      287.700   1.29607e-30
      287.800   1.27266e-30
      287.900   1.24968e-30
      288.000   1.22712e-30
      288.100   1.20496e-30
      288.200   1.18323e-30
      288.300   1.16190e-30
      288.400   1.14095e-30
      288.500   1.12039e-30
      288.600   1.10018e-30
      288.700   1.08036e-30
      288.800   1.06089e-30
      288.900   1.04179e-30
      289.000   1.02304e-30
      289.100   1.00461e-30
      289.200   9.86526e-31
      289.300   9.68779e-31
      289.400   9.51349e-31
      289.500   9.34235e-31
      289.600   9.17433e-31
      289.700   9.00954e-31
      289.800   8.84757e-31
      289.900   8.68846e-31
      290.000   8.53253e-31
      290.100   8.37920e-31
      290.200   8.22898e-31
      290.300   8.08136e-31
      290.400   7.93646e-31
      290.500   7.79433e-31
      290.600   7.65463e-31
      290.700   7.51749e-31
      290.800   7.38296e-31
      290.900   7.25082e-31
      291.000   7.12099e-31
      291.100   6.99353e-31
      291.200   6.86845e-31
      291.300   6.74562e-31
      291.400   6.62507e-31
      291.500   6.50664e-31
      291.600   6.39036e-31
      291.700   6.27625e-31
      291.800   6.16414e-31
      291.900   6.05421e-31
      292.000   5.94636e-31
      292.100   5.84040e-31
      292.200   5.73637e-31
      292.300   5.63416e-31
      292.400   5.53382e-31
      292.500   5.43528e-31
      292.600   5.33852e-31
      292.700   5.24352e-31
      292.800   5.15023e-31
      292.900   5.05863e-31
      293.000   4.96869e-31
      293.100   4.88037e-31
      293.200   4.79363e-31
      293.300   4.70841e-31
      293.400   4.62485e-31
      293.500   4.54277e-31
      293.600   4.46221e-31
      293.700   4.38305e-31
      293.800   4.30536e-31
      293.900   4.22906e-31
      294.000   4.15409e-31
      294.100   4.08050e-31
      294.200   4.00825e-31
      294.300   3.93731e-31
      294.400   3.86758e-31
      294.500   3.79911e-31
      294.600   3.73184e-31
      294.700   3.66582e-31
      294.800   3.60096e-31
      294.900   3.53726e-31
      295.000   3.47478e-31
      295.100   3.41343e-31
      295.200   3.35315e-31
      295.300   3.29390e-31
      295.400   3.23574e-31
      295.500   3.17864e-31
      295.600   3.12253e-31
      295.700   3.06742e-31
      295.800   3.01329e-31
      295.900   2.96008e-31
      296.000   2.90787e-31
      296.100   2.85653e-31
      296.200   2.80614e-31
      296.300   2.75666e-31
      296.400   2.70814e-31
      296.500   2.66039e-31
      296.600   2.61353e-31
      296.700   2.56748e-31
      296.800   2.52226e-31
      296.900   2.47783e-31
      297.000   2.43418e-31
      297.100   2.39128e-31
      297.200   2.34916e-31
      297.300   2.30778e-31
      297.400   2.26713e-31
      297.500   2.22716e-31
      297.600   2.18797e-31
      297.700   2.14945e-31
      297.800   2.11163e-31
      297.900   2.07448e-31
      298.000   2.03799e-31
      298.100   2.00211e-31
      298.200   1.96687e-31
      298.300   1.93226e-31
      298.400   1.89824e-31
      298.500   1.86481e-31
      298.600   1.83197e-31
      298.700   1.79971e-31
      298.800   1.76799e-31
      298.900   1.73688e-31
      299.000   1.70633e-31
      299.100   1.67631e-31
      299.200   1.64679e-31
      299.300   1.61780e-31
      299.400   1.58931e-31
      299.500   1.56132e-31
      299.600   1.53382e-31
      299.700   1.50679e-31
      299.800   1.48023e-31
      299.900   1.45414e-31
      300.000   1.42850e-31
      300.100   1.40332e-31
      300.192   1.38056e-31
      300.285   1.35788e-31
      300.377   1.33585e-31
      300.470   1.31394e-31
      300.562   1.29261e-31
      300.654   1.27162e-31
      300.747   1.25074e-31
      300.839   1.23043e-31
      300.932   1.21021e-31
      301.025   1.19033e-31
      301.117   1.17099e-31
      301.210   1.15173e-31
      301.303   1.13282e-31
      301.395   1.11440e-31
      301.488   1.09607e-31
      301.581   1.07805e-31
      301.674   1.06032e-31
      301.766   1.04305e-31
      301.859   1.02588e-31
      301.952   1.00900e-31
      302.045   9.92390e-32
      302.138   9.77502e-32
      302.231   9.66103e-32
      302.324   9.54973e-32
      302.417   9.43987e-32
      302.510   9.33103e-32
      302.603   9.22363e-32
      302.696   9.11722e-32
      302.789   9.01201e-32
      302.882   8.90798e-32
      302.976   8.80421e-32
      303.069   8.70255e-32
      303.162   8.60200e-32
      303.255   8.50253e-32
      303.349   8.40318e-32
      303.442   8.30594e-32
      303.535   8.20982e-32
      303.629   8.11374e-32
      303.722   8.01979e-32
      303.816   7.92595e-32
      303.909   7.83402e-32
      304.003   7.74219e-32
      304.096   7.65239e-32
      304.190   7.56262e-32
      304.283   7.47475e-32
      304.377   7.38701e-32
      304.471   7.30017e-32
      304.564   7.21525e-32
      304.658   7.13051e-32
      304.752   7.04657e-32
      304.846   6.96364e-32
      304.939   6.88251e-32
      305.033   6.80142e-32
      305.127   6.72122e-32
      305.221   6.64195e-32
      305.315   6.56368e-32
      305.409   6.48613e-32
      305.503   6.40955e-32
      305.597   6.33390e-32
      305.691   6.25900e-32
      305.785   6.18503e-32
      305.879   6.11182e-32
      305.973   6.03948e-32
      306.067   5.96794e-32
      306.161   5.89725e-32
      306.255   5.82737e-32
      306.350   5.75753e-32
      306.444   5.68919e-32
      306.538   5.62170e-32
      306.633   5.55428e-32
      306.727   5.48830e-32
      306.821   5.42310e-32
      306.916   5.35795e-32
      307.010   5.29554e-32
      307.105   5.23743e-32
      307.199   5.18120e-32
      307.294   5.12494e-32
      307.388   5.06990e-32
      307.483   5.01485e-32
      307.577   4.96094e-32
      307.672   4.90700e-32
      307.767   4.85365e-32
      307.861   4.80139e-32
      307.956   4.74907e-32
      308.051   4.69734e-32
      308.146   4.64622e-32
      308.240   4.59607e-32
      308.335   4.54593e-32
      308.430   4.49630e-32
      308.525   4.44725e-32
      308.620   4.39870e-32
      308.715   4.35066e-32
      308.810   4.30315e-32
      308.905   4.25611e-32
      309.000   4.20952e-32
      309.095   4.16348e-32
      309.190   4.11796e-32
      309.285   4.07290e-32
      309.380   4.02831e-32
      309.476   3.98377e-32
      309.571   3.94011e-32
      309.666   3.89694e-32
      309.761   3.85424e-32
      309.857   3.81155e-32
      309.952   3.76971e-32
      310.047   3.72838e-32
      310.143   3.68705e-32
      310.238   3.64658e-32
      310.334   3.60613e-32
      310.429   3.56654e-32
      310.525   3.52695e-32
      310.620   3.48822e-32
      310.716   3.44950e-32
      310.811   3.41164e-32
      310.907   3.37376e-32
      311.003   3.33628e-32
      311.098   3.29960e-32
      311.194   3.26294e-32
      311.290   3.22673e-32
      311.386   3.19090e-32
      311.481   3.15582e-32
      311.577   3.12074e-32
      311.673   3.08608e-32
      311.769   3.05179e-32
      311.865   3.01786e-32
      311.961   2.98440e-32
      312.057   2.95166e-32
      312.153   2.91943e-32
      312.249   2.88752e-32
      312.345   2.85600e-32
      312.441   2.82479e-32
      312.537   2.79394e-32
      312.633   2.76343e-32
      312.730   2.73292e-32
      312.826   2.70308e-32
      312.922   2.67354e-32
      313.018   2.64436e-32
      313.115   2.61519e-32
      313.211   2.58662e-32
      313.307   2.55839e-32
      313.404   2.53019e-32
      313.500   2.50256e-32
      313.597   2.47499e-32
      313.693   2.44799e-32
      313.790   2.42101e-32
      313.886   2.39462e-32
      313.983   2.36822e-32
      314.079   2.34240e-32
      314.176   2.31661e-32
      314.273   2.29110e-32
      314.369   2.26618e-32
      314.466   2.24125e-32
      314.563   2.21660e-32
      314.660   2.19221e-32
      314.756   2.16835e-32
      314.853   2.14451e-32
      314.950   2.12094e-32
      315.047   2.09766e-32
      315.144   2.07463e-32
      315.241   2.05186e-32
      315.338   2.02935e-32
      315.435   2.00708e-32
      315.532   1.98506e-32
      315.629   1.96329e-32
      315.726   1.94179e-32
      315.823   1.92050e-32
      315.921   1.89926e-32
      316.018   1.87847e-32
      316.115   1.85792e-32
      316.212   1.83760e-32
      316.310   1.81729e-32
      316.407   1.79743e-32
      316.504   1.77778e-32
      316.602   1.75817e-32
      316.699   1.73899e-32
      316.796   1.72000e-32
      316.894   1.70105e-32
      316.991   1.68254e-32
      317.089   1.66425e-32
      317.187   1.64628e-32
      317.284   1.62870e-32
      317.382   1.61113e-32
      317.479   1.59392e-32
      317.577   1.57673e-32
      317.675   1.55974e-32
      317.773   1.54294e-32
      317.870   1.52651e-32
      317.968   1.51008e-32
      318.066   1.49383e-32
      318.164   1.47777e-32
      318.262   1.46189e-32
      318.360   1.44619e-32
      318.458   1.43067e-32
      318.556   1.41533e-32
      318.654   1.40016e-32
      318.752   1.38514e-32
      318.850   1.37031e-32
      318.948   1.35564e-32
      319.046   1.34113e-32
      319.144   1.32678e-32
      319.242   1.31259e-32
      319.341   1.29843e-32
      319.439   1.28456e-32
      319.537   1.27086e-32
      319.635   1.25730e-32
      319.734   1.24375e-32
      319.832   1.23050e-32
      319.930   1.21739e-32
      320.029   1.20429e-32
      320.127   1.19147e-32
      320.226   1.17868e-32
      320.324   1.16614e-32
      320.423   1.15361e-32
      320.522   1.14125e-32
      320.620   1.12913e-32
      320.719   1.11702e-32
      320.818   1.10506e-32
      320.916   1.09334e-32
      321.015   1.08164e-32
      321.114   1.07006e-32
      321.213   1.05862e-32
      321.311   1.04742e-32
      321.410   1.03624e-32
      321.509   1.02516e-32
      321.608   1.01422e-32
      321.707   1.00340e-32
      321.806   9.92696e-33
      321.905   9.82115e-33
      322.004   9.71651e-33
      322.103   9.61303e-33
      322.202   9.51058e-33
      322.301   9.40940e-33
      322.401   9.30835e-33
      322.500   9.20940e-33
      322.599   9.11153e-33
      322.698   9.01466e-33
      322.798   8.91793e-33
      322.897   8.82327e-33
      322.996   8.72964e-33
      323.096   8.63605e-33
      323.195   8.54446e-33
      323.294   8.45380e-33
      323.394   8.36326e-33
      323.493   8.27464e-33
      323.593   8.18620e-33
      323.692   8.09949e-33
      323.792   8.01285e-33
      323.892   7.92716e-33
      323.991   7.84323e-33
      324.091   7.75950e-33
      324.191   7.67665e-33
      324.291   7.59463e-33
      324.390   7.51439e-33
      324.490   7.43420e-33
      324.590   7.35484e-33
      324.690   7.27635e-33
      324.790   7.19874e-33
      324.890   7.12200e-33
      324.990   7.04610e-33
      325.090   6.97100e-33
      325.190   6.89665e-33
      325.290   6.82318e-33
      325.390   6.75043e-33
      325.490   6.67855e-33
      325.590   6.60745e-33
      325.690   6.53697e-33
      325.790   6.46732e-33
      325.891   6.39777e-33
      325.991   6.32964e-33
      326.091   6.26221e-33
      326.192   6.19486e-33
      326.292   6.12891e-33
      326.392   6.06368e-33
      326.493   5.99849e-33
      326.593   5.93460e-33
      326.694   5.87082e-33
      326.794   5.80829e-33
      326.895   5.74582e-33
      326.995   5.68465e-33
      327.096   5.62351e-33
      327.197   5.56302e-33
      327.297   5.50378e-33
      327.398   5.44460e-33
      327.499   5.38606e-33
      327.599   5.32869e-33
      327.700   5.27135e-33
      327.801   5.21460e-33
      327.902   5.15852e-33
      328.003   5.10300e-33
      328.104   5.04808e-33
      328.205   4.99376e-33
      328.306   4.94001e-33
      328.407   4.88681e-33
      328.508   4.83414e-33
      328.609   4.78204e-33
      328.710   4.73047e-33
      328.811   4.67947e-33
      328.912   4.62904e-33
      329.013   4.57909e-33
      329.115   4.52927e-33
      329.216   4.48041e-33
      329.317   4.43200e-33
      329.419   4.38372e-33
      329.520   4.33637e-33
      329.621   4.28946e-33
      329.723   4.24265e-33
      329.824   4.19681e-33
      329.926   4.15098e-33
      330.027   4.10608e-33
      330.129   4.06120e-33
      330.230   4.01725e-33
      330.332   3.97330e-33
      330.434   3.92982e-33
      330.535   3.88724e-33
      330.637   3.84466e-33
      330.739   3.80253e-33
      330.840   3.76125e-33
      330.942   3.72001e-33
      331.044   3.67922e-33
      331.146   3.63882e-33
      331.248   3.59887e-33
      331.350   3.55936e-33
      331.452   3.52027e-33
      331.554   3.48243e-33
      331.656   3.44625e-33
      331.758   3.41043e-33
      331.860   3.37494e-33
      331.962   3.33983e-33
      332.064   3.30507e-33
      332.166   3.27070e-33
      332.268   3.23660e-33
      332.371   3.20255e-33
      332.473   3.16913e-33
      332.575   3.13602e-33
      332.677   3.10327e-33
      332.780   3.07053e-33
      332.882   3.03844e-33
      332.985   3.00635e-33
      333.087   2.97488e-33
      333.190   2.94344e-33
      333.292   2.91221e-33
      333.395   2.87995e-33
      333.497   2.84798e-33
      333.600   2.81605e-33
      333.702   2.78476e-33
      333.805   2.75349e-33
      333.908   2.72255e-33
      334.011   2.69196e-33
      334.113   2.66197e-33
      334.216   2.63201e-33
      334.319   2.60239e-33
      334.422   2.57305e-33
      334.525   2.54404e-33
      334.628   2.51533e-33
      334.731   2.48695e-33
      334.834   2.45888e-33
      334.937   2.43110e-33
      335.040   2.40361e-33
      335.143   2.37643e-33
      335.246   2.34952e-33
      335.349   2.32290e-33
      335.452   2.29658e-33
      335.555   2.27054e-33
      335.659   2.24454e-33
      335.762   2.21907e-33
      335.865   2.19390e-33
      335.969   2.16872e-33
      336.072   2.14403e-33
      336.175   2.11964e-33
      336.279   2.09529e-33
      336.382   2.07144e-33
      336.486   2.04760e-33
      336.589   2.02424e-33
      336.693   2.00095e-33
      336.796   1.97811e-33
      336.900   1.95532e-33
      337.004   1.93275e-33
      337.107   1.91066e-33
      337.211   1.88860e-33
      337.315   1.86682e-33
      337.419   1.84523e-33
      337.523   1.82387e-33
      337.626   1.80297e-33
      337.730   1.78213e-33
      337.834   1.76148e-33
      337.938   1.74109e-33
      338.042   1.72096e-33
      338.146   1.70125e-33
      338.250   1.68179e-33
      338.354   1.66254e-33
      338.458   1.64350e-33
      338.562   1.62467e-33
      338.667   1.60587e-33
      338.771   1.58744e-33
      338.875   1.56923e-33
      338.979   1.55122e-33
      339.084   1.53326e-33
      339.188   1.51563e-33
      339.292   1.49824e-33
      339.397   1.48084e-33
      339.501   1.46383e-33
      339.606   1.44683e-33
      339.710   1.43018e-33
      339.815   1.41358e-33
      339.919   1.39732e-33
      340.024   1.38107e-33
      340.128   1.36517e-33
      340.233   1.34930e-33
      340.338   1.33362e-33
      340.442   1.31824e-33
      340.547   1.30290e-33
      340.652   1.28774e-33
      340.757   1.27274e-33
      340.862   1.25792e-33
      340.966   1.24342e-33
      341.071   1.22891e-33
      341.176   1.21459e-33
      341.281   1.20044e-33
      341.386   1.18646e-33
      341.491   1.17262e-33
      341.596   1.15897e-33
      341.702   1.14533e-33
      341.807   1.13196e-33
      341.912   1.11877e-33
      342.017   1.10574e-33
      342.122   1.09283e-33
      342.228   1.07996e-33
      342.333   1.06737e-33
      342.438   1.05492e-33
      342.544   1.04250e-33
      342.649   1.03033e-33
      342.754   1.01833e-33
      342.860   1.00633e-33
      342.965   9.94585e-34
      343.071   9.82886e-34
      343.176   9.71424e-34
      343.282   9.59982e-34
      343.388   9.48687e-34
      343.493   9.37680e-34
      343.599   9.27176e-34
      343.705   9.16860e-34
      343.810   9.06729e-34
      343.916   8.96624e-34
      344.022   8.86648e-34
      344.128   8.76768e-34
      344.234   8.66999e-34
      344.340   8.57353e-34
      344.446   8.47795e-34
      344.552   8.38356e-34
      344.658   8.29043e-34
      344.764   8.19817e-34
      344.870   8.10699e-34
      344.976   8.01681e-34
      345.082   7.92767e-34
      345.188   7.83963e-34
      345.294   7.75250e-34
      345.401   7.66555e-34
      345.507   7.58042e-34
      345.613   7.49627e-34
      345.719   7.41308e-34
      345.826   7.33008e-34
      345.932   7.24875e-34
      346.039   7.16766e-34
      346.145   7.08813e-34
      346.252   7.00890e-34
      346.358   6.93130e-34
      346.465   6.85378e-34
      346.571   6.77792e-34
      346.678   6.70221e-34
      346.785   6.62737e-34
      346.891   6.55408e-34
      346.998   6.48097e-34
      347.105   6.40879e-34
      347.212   6.33730e-34
      347.319   6.26674e-34
      347.425   6.19750e-34
      347.532   6.12851e-34
      347.639   6.06036e-34
      347.746   5.99291e-34
      347.853   5.92636e-34
      347.960   5.86043e-34
      348.067   5.79542e-34
      348.174   5.73117e-34
      348.281   5.66747e-34
      348.389   5.60411e-34
      348.496   5.54187e-34
      348.603   5.48055e-34
      348.710   5.41980e-34
      348.818   5.35934e-34
      348.925   5.29999e-34
      349.032   5.24144e-34
      349.140   5.18287e-34
      349.247   5.12551e-34
      349.355   5.06841e-34
      349.462   5.01241e-34
      349.570   4.95648e-34
      349.677   4.90180e-34
      349.785   4.84718e-34
      349.892   4.79377e-34
      350.000   4.74048e-34
      350.100   4.69165e-34
      350.193   4.64678e-34
      350.287   4.60183e-34
      350.380   4.55777e-34
      350.473   4.51423e-34
      350.567   4.47059e-34
      350.660   4.42789e-34
      350.754   4.38514e-34
      350.847   4.34336e-34
      350.941   4.30147e-34
      351.034   4.26043e-34
      351.128   4.21942e-34
      351.221   4.17923e-34
      351.315   4.13907e-34
      351.409   4.09922e-34
      351.502   4.06025e-34
      351.596   4.02120e-34
      351.690   3.98259e-34
      351.783   3.94477e-34
      351.877   3.90699e-34
      351.971   3.86947e-34
      352.065   3.83240e-34
      352.159   3.79571e-34
      352.252   3.75974e-34
      352.346   3.72374e-34
      352.440   3.68810e-34
      352.534   3.65288e-34
      352.628   3.61800e-34
      352.722   3.58342e-34
      352.816   3.54919e-34
      352.910   3.51533e-34
      353.004   3.48180e-34
      353.098   3.44858e-34
      353.192   3.41571e-34
      353.287   3.38284e-34
      353.381   3.35064e-34
      353.475   3.31877e-34
      353.569   3.28716e-34
      353.663   3.25589e-34
      353.758   3.22465e-34
      353.852   3.19404e-34
      353.946   3.16372e-34
      354.041   3.13336e-34
      354.135   3.10363e-34
      354.229   3.07418e-34
      354.324   3.04478e-34
      354.418   3.01587e-34
      354.513   2.98700e-34
      354.607   2.95878e-34
      354.702   2.93039e-34
      354.796   2.90238e-34
      354.891   2.87429e-34
      354.985   2.84682e-34
      355.080   2.81930e-34
      355.175   2.79209e-34
      355.269   2.76539e-34
      355.364   2.73870e-34
      355.459   2.71227e-34
      355.553   2.68639e-34
      355.648   2.66048e-34
      355.743   2.63485e-34
      355.838   2.60943e-34
      355.933   2.58432e-34
      356.027   2.55971e-34
      356.122   2.53506e-34
      356.217   2.51065e-34
      356.312   2.48651e-34
      356.407   2.46260e-34
      356.502   2.43892e-34
      356.597   2.41544e-34
      356.692   2.39226e-34
      356.787   2.36928e-34
      356.882   2.34651e-34
      356.977   2.32399e-34
      357.073   2.30146e-34
      357.168   2.27935e-34
      357.263   2.25747e-34
      357.358   2.23582e-34
      357.453   2.21439e-34
      357.549   2.19294e-34
      357.644   2.17191e-34
      357.739   2.15110e-34
      357.835   2.13029e-34
      357.930   2.10988e-34
      358.025   2.08966e-34
      358.121   2.06943e-34
      358.216   2.04961e-34
      358.312   2.02977e-34
      358.407   2.01035e-34
      358.503   1.99090e-34
      358.598   1.97188e-34
      358.694   1.95281e-34
      358.790   1.93393e-34
      358.885   1.91542e-34
      358.981   1.89692e-34
      359.076   1.87876e-34
      359.172   1.86062e-34
      359.268   1.84262e-34
      359.364   1.82481e-34
      359.459   1.80738e-34
      359.555   1.78993e-34
      359.651   1.77263e-34
      359.747   1.75551e-34
      359.843   1.73856e-34
      359.939   1.72175e-34
      360.035   1.70513e-34
      360.131   1.68865e-34
      360.227   1.67234e-34
      360.323   1.65619e-34
      360.419   1.64020e-34
      360.515   1.62437e-34
      360.611   1.60868e-34
      360.707   1.59313e-34
      360.803   1.57774e-34
      360.899   1.56249e-34
      360.995   1.54742e-34
      361.092   1.53232e-34
      361.188   1.51751e-34
      361.284   1.50285e-34
      361.380   1.48834e-34
      361.477   1.47380e-34
      361.573   1.45957e-34
      361.669   1.44546e-34
      361.766   1.43133e-34
      361.862   1.41750e-34
      361.959   1.40366e-34
      362.055   1.39006e-34
      362.152   1.37648e-34
      362.248   1.36316e-34
      362.345   1.34982e-34
      362.441   1.33677e-34
      362.538   1.32370e-34
      362.635   1.31076e-34
      362.731   1.29805e-34
      362.828   1.28533e-34
      362.925   1.27275e-34
      363.021   1.26042e-34
      363.118   1.24808e-34
      363.215   1.23584e-34
      363.312   1.22372e-34
      363.409   1.21173e-34
      363.505   1.19997e-34
      363.602   1.18819e-34
      363.699   1.17654e-34
      363.796   1.16499e-34
      363.893   1.15355e-34
      363.990   1.14222e-34
      364.087   1.13099e-34
      364.184   1.11988e-34
      364.281   1.10887e-34
      364.378   1.09797e-34
      364.475   1.08717e-34
      364.573   1.07635e-34
      364.670   1.06574e-34
      364.767   1.05525e-34
      364.864   1.04486e-34
      364.961   1.03455e-34
      365.059   1.02425e-34
      365.156   1.01415e-34
      365.253   1.00414e-34
      365.351   9.94120e-35
      365.448   9.84298e-35
      365.545   9.74578e-35
      365.643   9.64840e-35
      365.740   9.55292e-35
      365.838   9.45744e-35
      365.935   9.36382e-35
      366.033   9.27021e-35
      366.130   9.17830e-35
      366.228   9.08639e-35
      366.326   8.99539e-35
      366.423   8.90608e-35
      366.521   8.81674e-35
      366.618   8.72910e-35
      366.716   8.64141e-35
      366.814   8.55460e-35
      366.912   8.46866e-35
      367.010   8.38355e-35
      367.107   8.30007e-35
      367.205   8.21649e-35
      367.303   8.13369e-35
      367.401   8.05173e-35
      367.499   7.97054e-35
      367.597   7.89013e-35
      367.695   7.81044e-35
      367.793   7.73158e-35
      367.891   7.65353e-35
      367.989   7.57615e-35
      368.087   7.49953e-35
      368.185   7.42360e-35
      368.283   7.34843e-35
      368.381   7.27396e-35
      368.480   7.19945e-35
      368.578   7.12643e-35
      368.676   7.05413e-35
      368.774   6.98254e-35
      368.873   6.91092e-35
      368.971   6.84069e-35
      369.069   6.77117e-35
      369.168   6.70152e-35
      369.266   6.63324e-35
      369.364   6.56568e-35
      369.463   6.49815e-35
      369.561   6.43189e-35
      369.660   6.36560e-35
      369.758   6.30060e-35
      369.857   6.23562e-35
      369.955   6.17192e-35
      370.054   6.10813e-35
      370.153   6.04497e-35
      370.251   5.98309e-35
      370.350   5.92123e-35
      370.449   5.85998e-35
      370.547   5.79991e-35
      370.646   5.73975e-35
      370.745   5.68027e-35
      370.844   5.62134e-35
      370.943   5.56301e-35
      371.041   5.50585e-35
      371.140   5.44861e-35
      371.239   5.39194e-35
      371.338   5.33591e-35
      371.437   5.28039e-35
      371.536   5.22540e-35
      371.635   5.17095e-35
      371.734   5.11710e-35
      371.833   5.06376e-35
      371.932   5.01093e-35
      372.032   4.95812e-35
      372.131   4.90630e-35
      372.230   4.85508e-35
      372.329   4.80439e-35
      372.428   4.75416e-35
      372.528   4.70396e-35
      372.627   4.65479e-35
      372.726   4.60609e-35
      372.826   4.55742e-35
      372.925   4.50970e-35
      373.024   4.46244e-35
      373.124   4.41517e-35
      373.223   4.36888e-35
      373.323   4.32261e-35
      373.422   4.27724e-35
      373.522   4.23185e-35
      373.621   4.18743e-35
      373.721   4.14299e-35
      373.820   4.09942e-35
      373.920   4.05586e-35
      374.020   4.01274e-35
      374.119   3.97050e-35
      374.219   3.92825e-35
      374.319   3.88647e-35
      374.419   3.84511e-35
      374.518   3.80456e-35
      374.618   3.76403e-35
      374.718   3.72387e-35
      374.818   3.68417e-35
      374.918   3.64489e-35
      375.018   3.60599e-35
      375.118   3.56752e-35
      375.218   3.52941e-35
      375.318   3.49172e-35
      375.418   3.45440e-35
      375.518   3.41751e-35
      375.618   3.38099e-35
      375.718   3.34480e-35
      375.818   3.30901e-35
      375.918   3.27360e-35
      376.019   3.23823e-35
      376.119   3.20357e-35
      376.219   3.16926e-35
      376.319   3.13530e-35
      376.420   3.10138e-35
      376.520   3.06812e-35
      376.620   3.03525e-35
      376.721   3.00237e-35
      376.821   2.97017e-35
      376.922   2.93798e-35
      377.022   2.90644e-35
      377.122   2.87527e-35
      377.223   2.84411e-35
      377.323   2.81357e-35
      377.424   2.78306e-35
      377.525   2.75288e-35
      377.625   2.72330e-35
      377.726   2.69375e-35
      377.827   2.66454e-35
      377.927   2.63589e-35
      378.028   2.60729e-35
      378.129   2.57899e-35
      378.230   2.55717e-35
      378.330   2.54520e-35
      378.431   2.53476e-35
      378.532   2.52437e-35
      378.633   2.51399e-35
      378.734   2.50367e-35
      378.835   2.49339e-35
      378.936   2.48314e-35
      379.037   2.47292e-35
      379.138   2.46270e-35
      379.239   2.45256e-35
      379.340   2.44247e-35
      379.441   2.43242e-35
      379.542   2.42238e-35
      379.643   2.41239e-35
      379.745   2.40234e-35
      379.846   2.39243e-35
      379.947   2.38252e-35
      380.048   2.37268e-35
      380.150   2.36279e-35
      380.251   2.35302e-35
      380.352   2.34330e-35
      380.454   2.33353e-35
      380.555   2.32387e-35
      380.656   2.31423e-35
      380.758   2.30457e-35
      380.859   2.29502e-35
      380.961   2.28542e-35
      381.062   2.27596e-35
      381.164   2.26645e-35
      381.266   2.25697e-35
      381.367   2.24763e-35
      381.469   2.23824e-35
      381.570   2.22898e-35
      381.672   2.21964e-35
      381.774   2.21036e-35
      381.876   2.20112e-35
      381.977   2.19201e-35
      382.079   2.18284e-35
      382.181   2.17371e-35
      382.283   2.16464e-35
      382.385   2.15559e-35
      382.487   2.14659e-35
      382.589   2.13762e-35
      382.691   2.12868e-35
      382.793   2.11979e-35
      382.895   2.11095e-35
      382.997   2.10215e-35
      383.099   2.09338e-35
      383.201   2.08464e-35
      383.303   2.07597e-35
      383.405   2.06730e-35
      383.507   2.05866e-35
      383.610   2.05001e-35
      383.712   2.04147e-35
      383.814   2.03298e-35
      383.916   2.02453e-35
      384.019   2.01603e-35
      384.121   2.00766e-35
      384.223   1.99929e-35
      384.326   1.99166e-35
      384.428   1.98602e-35
      384.531   1.98090e-35
      384.633   1.97586e-35
      384.736   1.97078e-35
      384.838   1.96574e-35
      384.941   1.96069e-35
      385.043   1.95569e-35
      385.146   1.95070e-35
      385.249   1.94569e-35
      385.351   1.94074e-35
      385.454   1.93578e-35
      385.557   1.93083e-35
      385.660   1.92591e-35
      385.762   1.92104e-35
      385.865   1.91615e-35
      385.968   1.91126e-35
      386.071   1.90640e-35
      386.174   1.90155e-35
      386.277   1.89671e-35
      386.380   1.89190e-35
      386.483   1.88709e-35
      386.586   1.88234e-35
      386.689   1.87758e-35
      386.792   1.87283e-35
      386.895   1.86809e-35
      386.998   1.86339e-35
      387.101   1.85868e-35
      387.204   1.85398e-35
      387.308   1.84930e-35
      387.411   1.84466e-35
      387.514   1.84003e-35
      387.617   1.83541e-35
      387.721   1.83078e-35
      387.824   1.82621e-35
      387.927   1.82165e-35
      388.031   1.81706e-35
      388.134   1.81253e-35
      388.238   1.80798e-35
      388.341   1.80348e-35
      388.445   1.79898e-35
      388.548   1.79450e-35
      388.652   1.79004e-35
      388.755   1.78562e-35
      388.859   1.78116e-35
      388.962   1.77676e-35
      389.066   1.77234e-35
      389.170   1.76794e-35
      389.274   1.76356e-35
      389.377   1.75926e-35
      389.481   1.75489e-35
      389.585   1.75056e-35
      389.689   1.74623e-35
      389.793   1.74193e-35
      389.897   1.73764e-35
      390.000   1.73343e-35
      390.104   1.72918e-35
      390.208   1.72493e-35
      390.312   1.72070e-35
      390.416   1.71648e-35
      390.520   1.71226e-35
      390.625   1.70802e-35
      390.729   1.70382e-35
      390.833   1.69965e-35
      390.937   1.69549e-35
      391.041   1.69135e-35
      391.145   1.68720e-35
      391.250   1.68306e-35
      391.354   1.67895e-35
      391.458   1.67486e-35
      391.563   1.67075e-35
      391.667   1.66669e-35
      391.771   1.66266e-35
      391.876   1.65860e-35
      391.980   1.65458e-35
      392.085   1.65055e-35
      392.189   1.64657e-35
      392.294   1.64257e-35
      392.398   1.63862e-35
      392.503   1.63465e-35
      392.607   1.63071e-35
      392.712   1.62678e-35
      392.817   1.62283e-35
      392.921   1.61897e-35
      393.026   1.61506e-35
      393.131   1.61117e-35
      393.236   1.60728e-35
      393.340   1.60347e-35
      393.445   1.59964e-35
      393.550   1.59579e-35
      393.655   1.59197e-35
      393.760   1.58816e-35
      393.865   1.58438e-35
      393.970   1.58059e-35
      394.075   1.57682e-35
      394.180   1.57309e-35
      394.285   1.56936e-35
      394.390   1.56561e-35
      394.495   1.56190e-35
      394.600   1.55820e-35
      394.706   1.55447e-35
      394.811   1.55081e-35
      394.916   1.54712e-35
      395.021   1.54347e-35
      395.126   1.53983e-35
      395.232   1.53616e-35
      395.337   1.53253e-35
      395.443   1.52890e-35
      395.548   1.52529e-35
      395.653   1.52169e-35
      395.759   1.51810e-35
      395.864   1.51454e-35
      395.970   1.51096e-35
      396.075   1.50741e-35
      396.181   1.50385e-35
      396.286   1.50031e-35
      396.392   1.49678e-35
      396.498   1.49326e-35
      396.603   1.48975e-35
      396.709   1.48622e-35
      396.815   1.48269e-35
      396.921   1.47920e-35
      397.026   1.47575e-35
      397.132   1.47228e-35
      397.238   1.46881e-35
      397.344   1.46535e-35
      397.450   1.46192e-35
      397.556   1.45847e-35
      397.662   1.45503e-35
      397.768   1.45161e-35
      397.874   1.44822e-35
      397.980   1.44479e-35
      398.086   1.44141e-35
      398.192   1.43801e-35
      398.298   1.43462e-35
      398.404   1.43127e-35
      398.510   1.42790e-35
      398.617   1.42450e-35
      398.723   1.42115e-35
      398.829   1.41781e-35
      398.935   1.41446e-35
      399.042   1.41113e-35
      399.148   1.40779e-35
      399.255   1.40444e-35
      399.361   1.40113e-35
      399.467   1.39782e-35
      399.574   1.39451e-35
      399.680   1.39121e-35
      399.787   1.38787e-35
      399.893       0.00000
      400.000       0.00000
