Filter Ti-poly
observation_date 22-Sept-2015 22:40:45
wavelength effective area
      1.00000   2.76776e-10
      1.10000   7.88641e-10
      1.20000   2.04569e-09
      1.30000   4.87936e-09
      1.40000   1.10400e-08
      1.50000   2.34774e-08
      1.60000   4.73591e-08
      1.70000   9.15827e-08
      1.80000   1.69779e-07
      1.90000   3.03745e-07
      2.00000   5.25460e-07
      2.10000   8.82872e-07
      2.20000   1.44765e-06
      2.30000   2.31343e-06
      2.40000   3.60961e-06
      2.50000   5.78550e-06
      2.60000   8.95688e-06
      2.70000   1.33535e-05
      2.80000   1.95276e-05
      2.90000   2.82632e-05
      3.00000   4.02687e-05
      3.10000   5.66367e-05
      3.20000   7.87891e-05
      3.30000   0.000108492
      3.40000   0.000147838
      3.50000   0.000199506
      3.60000   0.000267996
      3.70000   0.000356178
      3.80000   0.000471422
      3.90000   0.000620500
      4.00000   0.000811648
      4.10000    0.00105677
      4.20000    0.00137103
      4.30000    0.00177371
      4.40000    0.00228857
      4.50000    0.00294481
      4.60000    0.00377655
      4.70000    0.00484311
      4.80000    0.00620463
      4.90000    0.00784677
      5.00000     0.0101850
      5.10000     0.0130337
      5.20000     0.0167288
      5.30000     0.0212903
      5.40000     0.0270522
      5.50000     0.0344341
      5.60000     0.0424863
      5.70000     0.0552277
      5.80000     0.0647471
      5.90000     0.0988598
      6.00000      0.132893
      6.10000      0.169851
      6.20000      0.208578
      6.30000      0.245515
      6.40000      0.277209
      6.50000      0.300544
      6.60000      0.311101
      6.70000      0.320807
      6.80000      0.321240
      6.90000      0.421450
      7.00000      0.458329
      7.10000      0.484726
      7.20000      0.505694
      7.30000      0.522791
      7.40000      0.535839
      7.50000      0.546219
      7.60000      0.554042
      7.70000      0.557841
      7.80000      0.556536
      7.90000      0.555892
      8.00000      0.803699
      8.10000      0.879516
      8.20000      0.893494
      8.30000      0.903382
      8.40000      0.909791
      8.50000      0.914750
      8.60000      0.917981
      8.70000      0.920084
      8.80000      0.920760
      8.90000      0.920474
      9.00000      0.919160
      9.10000      0.916870
      9.20000      0.913786
      9.30000      0.909828
      9.40000      0.905140
      9.50000      0.899782
      9.60000      0.893705
      9.70000      0.887016
      9.80000      0.879864
      9.90000      0.872277
      10.0000      0.864316
      10.1000      0.855992
      10.2000      0.847330
      10.3000      0.838276
      10.4000      0.828857
      10.5000      0.819097
      10.6000      0.809038
      10.7000      0.798701
      10.8000      0.788099
      10.9000      0.777261
      11.0000      0.766203
      11.1000      0.754959
      11.2000      0.743533
      11.3000      0.731959
      11.4000      0.720231
      11.5000      0.708353
      11.6000      0.696342
      11.7000      0.684147
      11.8000      0.671849
      11.9000      0.659366
      12.0000      0.646019
      12.1000      0.635025
      12.2000      0.635149
      12.3000      0.628557
      12.4000      0.617321
      12.5000      0.605700
      12.6000      0.593944
      12.7000      0.582150
      12.8000      0.570355
      12.9000      0.558573
      13.0000      0.546844
      13.1000      0.535199
      13.2000      0.523654
      13.3000      0.512223
      13.4000      0.500923
      13.5000      0.489884
      13.6000      0.479083
      13.7000      0.468406
      13.8000      0.457851
      13.9000      0.447437
      14.0000      0.437161
      14.1000      0.427009
      14.2000      0.416984
      14.3000      0.407081
      14.4000      0.397292
      14.5000      0.387630
      14.6000      0.378095
      14.7000      0.368679
      14.8000      0.359388
      14.9000      0.350222
      15.0000      0.341186
      15.1000      0.332284
      15.2000      0.323543
      15.3000      0.314946
      15.4000      0.306487
      15.5000      0.298168
      15.6000      0.290007
      15.7000      0.282001
      15.8000      0.274187
      15.9000      0.266536
      16.0000      0.259045
      16.1000      0.251717
      16.2000      0.244589
      16.3000      0.237613
      16.4000      0.230773
      16.5000      0.224067
      16.6000      0.217507
      16.7000      0.211098
      16.8000      0.204812
      16.9000      0.198646
      17.0000      0.192625
      17.1000      0.186746
      17.2000      0.180980
      17.3000      0.175334
      17.4000      0.169933
      17.5000      0.164742
      17.6000      0.159732
      17.7000      0.154931
      17.8000      0.150430
      17.9000      0.146027
      18.0000      0.141692
      18.1000      0.137468
      18.2000      0.133285
      18.3000      0.129134
      18.4000      0.125007
      18.5000      0.120914
      18.6000      0.116840
      18.7000      0.112771
      18.8000      0.108814
      18.9000      0.104939
      19.0000      0.101180
      19.1000     0.0975434
      19.2000     0.0939950
      19.3000     0.0905882
      19.4000     0.0872949
      19.5000     0.0840867
      19.6000     0.0810406
      19.7000     0.0780787
      19.8000     0.0751930
      19.9000     0.0724498
      20.0000     0.0697652
      20.1000     0.0671611
      20.2000     0.0646448
      20.3000     0.0621790
      20.4000     0.0598094
      20.5000     0.0574978
      20.6000     0.0552390
      20.7000     0.0530732
      20.8000     0.0509478
      20.9000     0.0488950
      21.0000     0.0469981
      21.1000     0.0452210
      21.2000     0.0438018
      21.3000     0.0424856
      21.4000     0.0413924
      21.5000     0.0405506
      21.6000     0.0399620
      21.7000     0.0393443
      21.8000     0.0387163
      21.9000     0.0380072
      22.0000     0.0372487
      22.1000     0.0363686
      22.2000     0.0352716
      22.3000     0.0339879
      22.4000     0.0320184
      22.5000     0.0298406
      22.6000     0.0251349
      22.7000     0.0222203
      22.8000     0.0284358
      22.9000     0.0362603
      23.0000     0.0454604
      23.1000     0.0510443
      23.2000     0.0531993
      23.3000     0.0530270
      23.4000     0.0516864
      23.5000     0.0503147
      23.6000     0.0489402
      23.7000     0.0474811
      23.8000     0.0460229
      23.9000     0.0446028
      24.0000     0.0431916
      24.1000     0.0418015
      24.2000     0.0404281
      24.3000     0.0391004
      24.4000     0.0377906
      24.5000     0.0365185
      24.6000     0.0352698
      24.7000     0.0340644
      24.8000     0.0328823
      24.9000     0.0317390
      25.0000     0.0306207
      25.1000     0.0295425
      25.2000     0.0284877
      25.3000     0.0274704
      25.4000     0.0264760
      25.5000     0.0255211
      25.6000     0.0245867
      25.7000     0.0236922
      25.8000     0.0228145
      25.9000     0.0219770
      26.0000     0.0211524
      26.1000     0.0203684
      26.2000     0.0195932
      26.3000     0.0188614
      26.4000     0.0181339
      26.5000     0.0174506
      26.6000     0.0167709
      26.7000     0.0161308
      26.8000     0.0154991
      26.9000     0.0148982
      27.0000     0.0143090
      27.1000     0.0137419
      27.2000     0.0131900
      27.3000     0.0568696
      27.4000      0.155624
      27.5000      0.227494
      27.6000      0.223783
      27.7000      0.220083
      27.8000      0.216305
      27.9000      0.212545
      28.0000      0.208855
      28.1000      0.205194
      28.2000      0.201591
      28.3000      0.198034
      28.4000      0.194518
      28.5000      0.191066
      28.6000      0.187638
      28.7000      0.184320
      28.8000      0.181018
      28.9000      0.177782
      29.0000      0.174577
      29.1000      0.171417
      29.2000      0.168305
      29.3000      0.165218
      29.4000      0.162202
      29.5000      0.159202
      29.6000      0.156267
      29.7000      0.153360
      29.8000      0.150495
      29.9000      0.147682
      30.0000      0.144886
      30.1000      0.142164
      30.2000      0.139456
      30.3000      0.142177
      30.4000      0.147981
      30.5000      0.151944
      30.6000      0.149184
      30.7000      0.146438
      30.8000      0.143754
      30.9000      0.141098
      31.0000      0.138477
      31.1000      0.135915
      31.2000      0.133366
      31.3000      0.130882
      31.4000      0.128422
      31.5000      0.125998
      31.6000      0.123637
      31.7000      0.121289
      31.8000      0.118996
      31.9000      0.116726
      32.0000      0.114466
      32.1000      0.112214
      32.2000      0.109974
      32.3000      0.107789
      32.4000      0.105634
      32.5000      0.103501
      32.6000      0.101453
      32.7000     0.0994172
      32.8000     0.0974233
      32.9000     0.0954684
      33.0000     0.0935242
      33.1000     0.0916921
      33.2000     0.0898857
      33.3000     0.0881027
      33.4000     0.0863677
      33.5000     0.0846434
      33.6000     0.0829598
      33.7000     0.0813075
      33.8000     0.0796638
      33.9000     0.0780741
      34.0000     0.0764990
      34.1000     0.0749514
      34.2000     0.0734478
      34.3000     0.0719516
      34.4000     0.0704844
      34.5000     0.0690520
      34.6000     0.0676269
      34.7000     0.0662337
      34.8000     0.0648591
      34.9000     0.0634915
      35.0000     0.0621738
      35.1000     0.0608673
      35.2000     0.0595761
      35.3000     0.0583629
      35.4000     0.0571559
      35.5000     0.0559671
      35.6000     0.0548143
      35.7000     0.0536673
      35.8000     0.0525443
      35.9000     0.0514498
      36.0000     0.0503608
      36.1000     0.0493005
      36.2000     0.0482623
      36.3000     0.0472294
      36.4000     0.0462281
      36.5000     0.0452438
      36.6000     0.0442646
      36.7000     0.0433196
      36.8000     0.0423878
      36.9000     0.0414608
      37.0000     0.0405690
      37.1000     0.0396877
      37.2000     0.0388109
      37.3000     0.0379697
      37.4000     0.0371369
      37.5000     0.0363086
      37.6000     0.0355149
      37.7000     0.0347286
      37.8000     0.0339465
      37.9000     0.0331978
      38.0000     0.0324566
      38.1000     0.0317193
      38.2000     0.0310130
      38.3000     0.0303147
      38.4000     0.0296201
      38.5000     0.0289536
      38.6000     0.0282966
      38.7000     0.0276430
      38.8000     0.0270141
      38.9000     0.0263965
      39.0000     0.0257821
      39.1000     0.0251885
      39.2000     0.0246087
      39.3000     0.0240319
      39.4000     0.0234715
      39.5000     0.0229276
      39.6000     0.0223867
      39.7000     0.0218575
      39.8000     0.0213482
      39.9000     0.0208417
      40.0000     0.0203419
      40.1000     0.0198661
      40.2000     0.0193929
      40.3000     0.0189222
      40.4000     0.0184764
      40.5000     0.0180341
      40.6000     0.0175942
      40.7000     0.0171729
      40.8000     0.0167601
      40.9000     0.0163495
      41.0000     0.0159510
      41.1000     0.0155659
      41.2000     0.0151830
      41.3000     0.0148062
      41.4000     0.0144482
      41.5000     0.0140921
      41.6000     0.0137379
      41.7000     0.0134025
      41.8000     0.0130712
      41.9000     0.0127417
      42.0000     0.0124243
      42.1000     0.0121169
      42.2000     0.0118111
      42.3000     0.0115101
      42.4000     0.0112249
      42.5000     0.0109412
      42.6000     0.0106592
      42.7000     0.0103913
      42.8000     0.0101284
      42.9000    0.00986687
      43.0000    0.00961256
      43.1000    0.00936928
      43.2000    0.00912734
      43.3000    0.00888672
      43.4000     0.0271111
      43.5000     0.0491645
      43.6000     0.0762323
      43.7000     0.0983933
      43.8000      0.106737
      43.9000      0.107579
      44.0000      0.105651
      44.1000      0.101124
      44.2000     0.0994988
      44.3000     0.0981292
      44.4000     0.0967806
      44.5000     0.0954585
      44.6000     0.0941399
      44.7000     0.0928246
      44.8000     0.0915513
      44.9000     0.0902869
      45.0000     0.0890256
      45.1000     0.0877792
      45.2000     0.0865639
      45.3000     0.0853517
      45.4000     0.0841424
      45.5000     0.0829630
      45.6000     0.0817989
      45.7000     0.0806379
      45.8000     0.0794811
      45.9000     0.0783638
      46.0000     0.0772492
      46.1000     0.0761375
      46.2000     0.0750757
      46.3000     0.0740979
      46.4000     0.0731227
      46.5000     0.0721498
      46.6000     0.0712122
      46.7000     0.0702934
      46.8000     0.0693769
      46.9000     0.0684626
      47.0000     0.0675967
      47.1000     0.0667361
      47.2000     0.0658776
      47.3000     0.0650267
      47.4000     0.0642039
      47.5000     0.0633830
      47.6000     0.0625642
      47.7000     0.0617611
      47.8000     0.0609818
      47.9000     0.0602044
      48.0000     0.0594289
      48.1000     0.0586709
      48.2000     0.0579267
      48.3000     0.0571842
      48.4000     0.0564436
      48.5000     0.0557297
      48.6000     0.0550274
      48.7000     0.0543268
      48.8000     0.0536279
      48.9000     0.0529524
      49.0000     0.0522827
      49.1000     0.0516148
      49.2000     0.0509485
      49.3000     0.0503050
      49.4000     0.0496647
      49.5000     0.0490260
      49.6000     0.0483888
      49.7000     0.0477744
      49.8000     0.0471620
      49.9000     0.0465511
      50.0000     0.0459423
      50.1000     0.0453523
      50.2000     0.0447759
      50.3000     0.0442061
      50.4000     0.0436425
      50.5000     0.0430850
      50.6000     0.0425340
      50.7000     0.0419896
      50.8000     0.0414513
      50.9000     0.0409196
      51.0000     0.0403944
      51.1000     0.0398756
      51.2000     0.0393625
      51.3000     0.0388563
      51.4000     0.0383568
      51.5000     0.0378617
      51.6000     0.0373719
      51.7000     0.0368871
      51.8000     0.0364029
      51.9000     0.0359240
      52.0000     0.0354500
      52.1000     0.0349818
      52.2000     0.0345185
      52.3000     0.0340599
      52.4000     0.0336082
      52.5000     0.0331617
      52.6000     0.0327098
      52.7000     0.0322527
      52.8000     0.0318006
      52.9000     0.0313547
      53.0000     0.0309147
      53.1000     0.0304795
      53.2000     0.0300503
      53.3000     0.0296263
      53.4000     0.0292068
      53.5000     0.0287930
      53.6000     0.0283843
      53.7000     0.0279802
      53.8000     0.0275812
      53.9000     0.0271871
      54.0000     0.0267983
      54.1000     0.0264155
      54.2000     0.0260371
      54.3000     0.0256625
      54.4000     0.0252929
      54.5000     0.0249277
      54.6000     0.0245673
      54.7000     0.0242125
      54.8000     0.0238623
      54.9000     0.0235161
      55.0000     0.0231744
      55.1000     0.0228363
      55.2000     0.0224921
      55.3000     0.0221438
      55.4000     0.0218002
      55.5000     0.0214607
      55.6000     0.0211259
      55.7000     0.0207957
      55.8000     0.0204697
      55.9000     0.0201485
      56.0000     0.0198348
      56.1000     0.0195216
      56.2000     0.0192091
      56.3000     0.0189012
      56.4000     0.0185972
      56.5000     0.0182975
      56.6000     0.0180023
      56.7000     0.0177115
      56.8000     0.0174244
      56.9000     0.0171419
      57.0000     0.0168703
      57.1000     0.0166068
      57.2000     0.0163469
      57.3000     0.0160905
      57.4000     0.0158374
      57.5000     0.0155878
      57.6000     0.0153416
      57.7000     0.0150987
      57.8000     0.0148597
      57.9000     0.0146245
      58.0000     0.0143925
      58.1000     0.0141632
      58.2000     0.0139372
      58.3000     0.0137144
      58.4000     0.0134946
      58.5000     0.0132781
      58.6000     0.0130650
      58.7000     0.0128550
      58.8000     0.0126476
      58.9000     0.0124432
      59.0000     0.0122417
      59.1000     0.0120430
      59.2000     0.0118473
      59.3000     0.0116546
      59.4000     0.0114647
      59.5000     0.0112775
      59.6000     0.0110931
      59.7000     0.0109112
      59.8000     0.0107319
      59.9000     0.0105551
      60.0000     0.0103813
      60.1000     0.0102099
      60.2000     0.0100410
      60.3000    0.00987465
      60.4000    0.00971087
      60.5000    0.00954965
      60.6000    0.00939057
      60.7000    0.00923364
      60.8000    0.00907894
      60.9000    0.00892636
      61.0000    0.00877620
      61.1000    0.00862852
      61.2000    0.00848308
      61.3000    0.00833979
      61.4000    0.00819868
      61.5000    0.00805971
      61.6000    0.00792272
      61.7000    0.00778819
      61.8000    0.00765804
      61.9000    0.00753068
      62.0000    0.00740520
      62.1000    0.00728157
      62.2000    0.00716001
      62.3000    0.00704026
      62.4000    0.00692219
      62.5000    0.00680583
      62.6000    0.00669122
      62.7000    0.00657876
      62.8000    0.00647311
      62.9000    0.00636916
      63.0000    0.00626677
      63.1000    0.00616588
      63.2000    0.00606636
      63.3000    0.00596822
      63.4000    0.00587155
      63.5000    0.00577640
      63.6000    0.00568257
      63.7000    0.00559008
      63.8000    0.00549906
      63.9000    0.00540944
      64.0000    0.00532114
      64.1000    0.00523415
      64.2000    0.00514857
      64.3000    0.00506432
      64.4000    0.00498124
      64.5000    0.00489929
      64.6000    0.00481850
      64.7000    0.00473889
      64.8000    0.00466045
      64.9000    0.00458317
      65.0000    0.00450713
      65.1000    0.00443240
      65.2000    0.00435884
      65.3000    0.00428631
      65.4000    0.00421482
      65.5000    0.00414435
      65.6000    0.00407487
      65.7000    0.00400647
      65.8000    0.00393918
      65.9000    0.00387300
      66.0000    0.00380791
      66.1000    0.00374388
      66.2000    0.00368079
      66.3000    0.00361865
      66.4000    0.00355744
      66.5000    0.00349712
      66.6000    0.00343767
      66.7000    0.00337916
      66.8000    0.00332165
      66.9000    0.00326544
      67.0000    0.00321043
      67.1000    0.00315631
      67.2000    0.00310302
      67.3000    0.00305059
      67.4000    0.00299895
      67.5000    0.00294806
      67.6000    0.00289796
      67.7000    0.00284866
      67.8000    0.00280006
      67.9000    0.00275202
      68.0000    0.00270472
      68.1000    0.00265824
      68.2000    0.00261249
      68.3000    0.00256747
      68.4000    0.00252316
      68.5000    0.00247956
      68.6000    0.00243668
      68.7000    0.00239449
      68.8000    0.00235297
      68.9000    0.00231269
      69.0000    0.00227628
      69.1000    0.00224341
      69.2000    0.00221152
      69.3000    0.00218047
      69.4000    0.00215065
      69.5000    0.00212027
      69.6000    0.00208899
      69.7000    0.00205899
      69.8000    0.00203044
      69.9000    0.00200228
      70.0000    0.00197443
      70.1000    0.00194639
      70.2000    0.00191973
      70.3000    0.00189445
      70.4000    0.00186926
      70.5000    0.00184472
      70.6000    0.00182079
      70.7000    0.00179719
      70.8000    0.00177384
      70.9000    0.00174994
      71.0000    0.00172559
      71.1000    0.00170236
      71.2000    0.00168024
      71.3000    0.00165681
      71.4000    0.00163176
      71.5000    0.00160869
      71.6000    0.00158847
      71.7000    0.00156812
      71.8000    0.00154711
      71.9000    0.00152683
      72.0000    0.00150807
      72.1000    0.00148891
      72.2000    0.00146695
      72.3000    0.00144538
      72.4000    0.00142645
      72.5000    0.00140781
      72.6000    0.00138942
      72.7000    0.00137128
      72.8000    0.00135336
      72.9000    0.00133568
      73.0000    0.00131864
      73.1000    0.00130201
      73.2000    0.00128560
      73.3000    0.00126939
      73.4000    0.00125354
      73.5000    0.00123816
      73.6000    0.00122297
      73.7000    0.00120798
      73.8000    0.00119317
      73.9000    0.00117853
      74.0000    0.00116415
      74.1000    0.00115108
      74.2000    0.00113850
      74.3000    0.00112490
      74.4000    0.00111059
      74.5000    0.00109669
      74.6000    0.00108348
      74.7000    0.00107044
      74.8000    0.00105762
      74.9000    0.00104506
      75.0000    0.00103258
      75.1000    0.00102018
      75.2000    0.00100791
      75.3000   0.000995773
      75.4000   0.000983890
      75.5000   0.000972401
      75.6000   0.000961050
      75.7000   0.000949834
      75.8000   0.000938766
      75.9000   0.000927970
      76.0000   0.000917423
      76.1000   0.000907674
      76.2000   0.000898124
      76.3000   0.000888687
      76.4000   0.000879521
      76.5000   0.000870464
      76.6000   0.000861487
      76.7000   0.000852595
      76.8000   0.000843788
      76.9000   0.000835076
      77.0000   0.000826460
      77.1000   0.000817944
      77.2000   0.000809522
      77.3000   0.000801184
      77.4000   0.000792923
      77.5000   0.000784719
      77.6000   0.000776415
      77.7000   0.000768192
      77.8000   0.000760045
      77.9000   0.000751970
      78.0000   0.000743863
      78.1000   0.000735517
      78.2000   0.000727280
      78.3000   0.000719843
      78.4000   0.000712738
      78.5000   0.000705627
      78.6000   0.000698364
      78.7000   0.000691172
      78.8000   0.000683776
      78.9000   0.000676383
      79.0000   0.000669065
      79.1000   0.000661818
      79.2000   0.000654662
      79.3000   0.000647800
      79.4000   0.000641090
      79.5000   0.000634382
      79.6000   0.000627512
      79.7000   0.000620704
      79.8000   0.000613847
      79.9000   0.000607000
      80.0000   0.000600194
      80.1000   0.000593193
      80.2000   0.000586251
      80.3000   0.000579095
      80.4000   0.000571748
      80.5000   0.000564472
      80.6000   0.000557285
      80.7000   0.000550183
      80.8000   0.000543209
      80.9000   0.000536418
      81.0000   0.000529703
      81.1000   0.000523071
      81.2000   0.000516519
      81.3000   0.000510055
      81.4000   0.000504180
      81.5000   0.000498402
      81.6000   0.000492834
      81.7000   0.000487634
      81.8000   0.000482503
      81.9000   0.000477629
      82.0000   0.000472915
      82.1000   0.000468263
      82.2000   0.000463492
      82.3000   0.000458771
      82.4000   0.000454208
      82.5000   0.000449859
      82.6000   0.000445540
      82.7000   0.000441123
      82.8000   0.000436588
      82.9000   0.000432087
      83.0000   0.000427679
      83.1000   0.000423334
      83.2000   0.000419033
      83.3000   0.000414777
      83.4000   0.000410570
      83.5000   0.000406425
      83.6000   0.000402430
      83.7000   0.000398473
      83.8000   0.000394525
      83.9000   0.000390542
      84.0000   0.000386593
      84.1000   0.000382744
      84.2000   0.000379026
      84.3000   0.000375341
      84.4000   0.000371643
      84.5000   0.000367942
      84.6000   0.000364277
      84.7000   0.000360718
      84.8000   0.000357235
      84.9000   0.000353790
      85.0000   0.000350279
      85.1000   0.000346774
      85.2000   0.000343306
      85.3000   0.000340025
      85.4000   0.000336800
      85.5000   0.000333608
      85.6000   0.000330368
      85.7000   0.000327153
      85.8000   0.000323966
      85.9000   0.000320805
      86.0000   0.000317671
      86.1000   0.000314566
      86.2000   0.000311589
      86.3000   0.000308642
      86.4000   0.000305722
      86.5000   0.000302826
      86.6000   0.000299956
      86.7000   0.000297110
      86.8000   0.000294059
      86.9000   0.000291030
      87.0000   0.000288034
      87.1000   0.000285119
      87.2000   0.000282239
      87.3000   0.000279390
      87.4000   0.000276487
      87.5000   0.000273596
      87.6000   0.000270729
      87.7000   0.000267936
      87.8000   0.000265181
      87.9000   0.000262448
      88.0000   0.000259740
      88.1000   0.000257057
      88.2000   0.000254402
      88.3000   0.000251834
      88.4000   0.000249347
      88.5000   0.000246891
      88.6000   0.000244439
      88.7000   0.000241980
      88.8000   0.000239547
      88.9000   0.000237135
      89.0000   0.000234735
      89.1000   0.000232359
      89.2000   0.000230018
      89.3000   0.000227732
      89.4000   0.000225512
      89.5000   0.000223312
      89.6000   0.000221133
      89.7000   0.000218971
      89.8000   0.000216826
      89.9000   0.000214697
      90.0000   0.000212587
      90.1000   0.000210497
      90.2000   0.000208376
      90.3000   0.000206161
      90.4000   0.000203966
      90.5000   0.000201796
      90.6000   0.000199691
      90.7000   0.000197598
      90.8000   0.000195504
      90.9000   0.000193385
      91.0000   0.000191274
      91.1000   0.000189185
      91.2000   0.000187087
      91.3000   0.000184963
      91.4000   0.000182854
      91.5000   0.000180768
      91.6000   0.000178704
      91.7000   0.000176849
      91.8000   0.000175303
      91.9000   0.000174116
      92.0000   0.000172724
      92.1000   0.000171298
      92.2000   0.000169766
      92.3000   0.000168145
      92.4000   0.000166477
      92.5000   0.000164827
      92.6000   0.000163194
      92.7000   0.000161576
      92.8000   0.000159975
      92.9000   0.000158410
      93.0000   0.000156908
      93.1000   0.000155419
      93.2000   0.000153944
      93.3000   0.000152543
      93.4000   0.000151175
      93.5000   0.000149818
      93.6000   0.000148469
      93.7000   0.000147122
      93.8000   0.000145773
      93.9000   0.000144435
      94.0000   0.000143107
      94.1000   0.000141790
      94.2000   0.000140485
      94.3000   0.000139204
      94.4000   0.000137974
      94.5000   0.000136760
      94.6000   0.000135557
      94.7000   0.000134366
      94.8000   0.000133184
      94.9000   0.000132012
      95.0000   0.000130849
      95.1000   0.000129698
      95.2000   0.000128552
      95.3000   0.000127414
      95.4000   0.000126289
      95.5000   0.000125194
      95.6000   0.000124108
      95.7000   0.000123030
      95.8000   0.000121944
      95.9000   0.000120861
      96.0000   0.000119784
      96.1000   0.000118715
      96.2000   0.000117652
      96.3000   0.000116601
      96.4000   0.000115558
      96.5000   0.000114524
      96.6000   0.000113504
      96.7000   0.000112494
      96.8000   0.000111489
      96.9000   0.000110491
      97.0000   0.000109502
      97.1000   0.000108525
      97.2000   0.000107555
      97.3000   0.000106578
      97.4000   0.000105597
      97.5000   0.000104626
      97.6000   0.000103665
      97.7000   0.000102719
      97.8000   0.000101785
      97.9000   0.000100860
      98.0000   9.99418e-05
      98.1000   9.90294e-05
      98.2000   9.81247e-05
      98.3000   9.73018e-05
      98.4000   9.65210e-05
      98.5000   9.57701e-05
      98.6000   9.50249e-05
      98.7000   9.42848e-05
      98.8000   9.35495e-05
      98.9000   9.28191e-05
      99.0000   9.20969e-05
      99.1000   9.13803e-05
      99.2000   9.06638e-05
      99.3000   8.99253e-05
      99.4000   8.91935e-05
      99.5000   8.84675e-05
      99.6000   8.77537e-05
      99.7000   8.70862e-05
      99.8000   8.64420e-05
      99.9000   8.59664e-05
      100.000   8.57461e-05
      100.100   8.54964e-05
      100.200   8.52463e-05
      100.300   8.49960e-05
      100.400   8.47459e-05
      100.500   8.45074e-05
      100.600   8.42676e-05
      100.700   8.40275e-05
      100.800   8.37869e-05
      100.900   8.35463e-05
      101.000   8.33060e-05
      101.100   8.30664e-05
      101.200   8.28280e-05
      101.300   8.25906e-05
      101.400   8.23542e-05
      101.500   8.20904e-05
      101.600   8.17913e-05
      101.700   8.15012e-05
      101.800   8.12141e-05
      101.900   8.09273e-05
      102.000   8.06423e-05
      102.100   8.03702e-05
      102.200   8.01045e-05
      102.300   7.98388e-05
      102.400   7.95735e-05
      102.500   7.93080e-05
      102.600   7.90421e-05
      102.700   7.87759e-05
      102.800   7.85093e-05
      102.900   7.82427e-05
      103.000   7.79761e-05
      103.100   7.77099e-05
      103.200   7.74445e-05
      103.300   7.71797e-05
      103.400   7.69156e-05
      103.500   7.66521e-05
      103.600   7.63891e-05
      103.700   7.61252e-05
      103.800   7.58435e-05
      103.900   7.55408e-05
      104.000   7.52375e-05
      104.100   7.49354e-05
      104.200   7.46428e-05
      104.300   7.44057e-05
      104.400   7.41708e-05
      104.500   7.39367e-05
      104.600   7.37021e-05
      104.700   7.34503e-05
      104.800   7.31915e-05
      104.900   7.29327e-05
      105.000   7.26743e-05
      105.100   7.24286e-05
      105.200   7.22137e-05
      105.300   7.19996e-05
      105.400   7.17857e-05
      105.500   7.15721e-05
      105.600   7.13658e-05
      105.700   7.11611e-05
      105.800   7.09561e-05
      105.900   7.07515e-05
      106.000   7.05571e-05
      106.100   7.03845e-05
      106.200   7.02133e-05
      106.300   7.00416e-05
      106.400   6.98695e-05
      106.500   6.96973e-05
      106.600   6.95251e-05
      106.700   6.93529e-05
      106.800   6.91806e-05
      106.900   6.90087e-05
      107.000   6.88368e-05
      107.100   6.86650e-05
      107.200   6.84935e-05
      107.300   6.83223e-05
      107.400   6.81501e-05
      107.500   6.79774e-05
      107.600   6.78054e-05
      107.700   6.76339e-05
      107.800   6.74634e-05
      107.900   6.72887e-05
      108.000   6.71141e-05
      108.100   6.69392e-05
      108.200   6.67637e-05
      108.300   6.65867e-05
      108.400   6.64038e-05
      108.500   6.62202e-05
      108.600   6.60359e-05
      108.700   6.58508e-05
      108.800   6.56489e-05
      108.900   6.54233e-05
      109.000   6.51973e-05
      109.100   6.49714e-05
      109.200   6.47457e-05
      109.300   6.45205e-05
      109.400   6.42957e-05
      109.500   6.40715e-05
      109.600   6.38481e-05
      109.700   6.36254e-05
      109.800   6.34038e-05
      109.900   6.31834e-05
      110.000   6.29640e-05
      110.100   6.27457e-05
      110.200   6.25280e-05
      110.300   6.23210e-05
      110.400   6.21152e-05
      110.500   6.19097e-05
      110.600   6.17039e-05
      110.700   6.14979e-05
      110.800   6.12916e-05
      110.900   6.10849e-05
      111.000   6.08778e-05
      111.100   6.06705e-05
      111.200   6.04640e-05
      111.300   6.02781e-05
      111.400   6.00924e-05
      111.500   5.99063e-05
      111.600   5.97201e-05
      111.700   5.95346e-05
      111.800   5.93623e-05
      111.900   5.91906e-05
      112.000   5.90190e-05
      112.100   5.88477e-05
      112.200   5.86767e-05
      112.300   5.84931e-05
      112.400   5.83095e-05
      112.500   5.81269e-05
      112.600   5.79449e-05
      112.700   5.77658e-05
      112.800   5.76000e-05
      112.900   5.74029e-05
      113.000   5.72168e-05
      113.100   5.70355e-05
      113.200   5.68479e-05
      113.300   5.66672e-05
      113.400   5.64143e-05
      113.500   5.61435e-05
      113.600   5.59356e-05
      113.700   5.57086e-05
      113.800   5.54392e-05
      113.900   5.52317e-05
      114.000   5.50240e-05
      114.100   5.47723e-05
      114.200   5.45429e-05
      114.300   5.43491e-05
      114.400   5.41461e-05
      114.500   5.39335e-05
      114.600   5.37673e-05
      114.700   5.35667e-05
      114.800   5.33897e-05
      114.900   5.32671e-05
      115.000   5.31055e-05
      115.100   5.29209e-05
      115.200   5.27341e-05
      115.300   5.25966e-05
      115.400   5.24121e-05
      115.500   5.22507e-05
      115.600   5.20697e-05
      115.700   5.18590e-05
      115.800   5.16880e-05
      115.900   5.14960e-05
      116.000   5.13384e-05
      116.100   5.12337e-05
      116.200   5.11246e-05
      116.300   5.10055e-05
      116.400   5.08691e-05
      116.500   5.07705e-05
      116.600   5.06596e-05
      116.700   5.05580e-05
      116.800   5.04448e-05
      116.900   5.02848e-05
      117.000   5.01773e-05
      117.100   5.02208e-05
      117.200   5.03708e-05
      117.300   5.04164e-05
      117.400   5.04550e-05
      117.500   5.04952e-05
      117.600   5.04737e-05
      117.700   5.04281e-05
      117.800   5.03501e-05
      117.900   5.02554e-05
      118.000   5.01298e-05
      118.100   4.99742e-05
      118.200   4.98422e-05
      118.300   4.97203e-05
      118.400   4.94806e-05
      118.500   4.92506e-05
      118.600   4.90748e-05
      118.700   4.88798e-05
      118.800   4.86586e-05
      118.900   4.84557e-05
      119.000   4.81888e-05
      119.100   4.78499e-05
      119.200   4.75754e-05
      119.300   4.73547e-05
      119.400   4.71637e-05
      119.500   4.69863e-05
      119.600   4.67665e-05
      119.700   4.64975e-05
      119.800   4.61304e-05
      119.900   4.56337e-05
      120.000   4.51797e-05
      120.100   4.47601e-05
      120.200   4.45026e-05
      120.300   4.43384e-05
      120.400   4.41732e-05
      120.500   4.38767e-05
      120.600   4.34805e-05
      120.700   4.30528e-05
      120.800   4.26470e-05
      120.900   4.24141e-05
      121.000   4.24505e-05
      121.100   4.24388e-05
      121.200   4.22916e-05
      121.300   4.20481e-05
      121.400   4.17312e-05
      121.500   4.13590e-05
      121.600   4.07717e-05
      121.700   4.02714e-05
      121.800   3.96957e-05
      121.900   3.91113e-05
      122.000   3.84763e-05
      122.100   3.78816e-05
      122.200   3.72953e-05
      122.300   3.68934e-05
      122.400   3.66912e-05
      122.500   3.65314e-05
      122.600   3.63463e-05
      122.700   3.61595e-05
      122.800   3.59275e-05
      122.900   3.57219e-05
      123.000   3.57501e-05
      123.100   3.61852e-05
      123.200   3.66487e-05
      123.300   3.73235e-05
      123.400   3.81744e-05
      123.500   3.92773e-05
      123.600   4.02408e-05
      123.700   4.07850e-05
      123.800   4.12103e-05
      123.900   4.17583e-05
      124.000   4.25048e-05
      124.100   4.38962e-05
      124.200   4.66638e-05
      124.300   5.07800e-05
      124.400   5.47699e-05
      124.500   5.60137e-05
      124.600   5.59805e-05
      124.700   5.57998e-05
      124.800   5.56341e-05
      124.900   5.54674e-05
      125.000   5.52988e-05
      125.100   5.51159e-05
      125.200   5.49314e-05
      125.300   5.47469e-05
      125.400   5.45626e-05
      125.500   5.43785e-05
      125.600   5.41944e-05
      125.700   5.40108e-05
      125.800   5.38272e-05
      125.900   5.36443e-05
      126.000   5.34619e-05
      126.100   5.32801e-05
      126.200   5.30988e-05
      126.300   5.29180e-05
      126.400   5.27379e-05
      126.500   5.25582e-05
      126.600   5.23791e-05
      126.700   5.22004e-05
      126.800   5.20222e-05
      126.900   5.18442e-05
      127.000   5.16650e-05
      127.100   5.14809e-05
      127.200   5.12944e-05
      127.300   5.11075e-05
      127.400   5.09206e-05
      127.500   5.07337e-05
      127.600   5.05470e-05
      127.700   5.03603e-05
      127.800   5.01736e-05
      127.900   4.99870e-05
      128.000   4.98005e-05
      128.100   4.96140e-05
      128.200   4.94277e-05
      128.300   4.92415e-05
      128.400   4.90555e-05
      128.500   4.88696e-05
      128.600   4.86837e-05
      128.700   4.84983e-05
      128.800   4.83130e-05
      128.900   4.81280e-05
      129.000   4.79435e-05
      129.100   4.77584e-05
      129.200   4.75708e-05
      129.300   4.73837e-05
      129.400   4.71972e-05
      129.500   4.70115e-05
      129.600   4.68264e-05
      129.700   4.66420e-05
      129.800   4.64582e-05
      129.900   4.62751e-05
      130.000   4.60927e-05
      130.100   4.59109e-05
      130.200   4.57296e-05
      130.300   4.55489e-05
      130.400   4.53687e-05
      130.500   4.51889e-05
      130.600   4.50093e-05
      130.700   4.48303e-05
      130.800   4.46517e-05
      130.900   4.44735e-05
      131.000   4.42955e-05
      131.100   4.41179e-05
      131.200   4.39402e-05
      131.300   4.37621e-05
      131.400   4.35843e-05
      131.500   4.34069e-05
      131.600   4.32297e-05
      131.700   4.30530e-05
      131.800   4.28765e-05
      131.900   4.27003e-05
      132.000   4.25245e-05
      132.100   4.23490e-05
      132.200   4.21739e-05
      132.300   4.19991e-05
      132.400   4.18247e-05
      132.500   4.16508e-05
      132.600   4.14773e-05
      132.700   4.13043e-05
      132.800   4.11319e-05
      132.900   4.09599e-05
      133.000   4.07885e-05
      133.100   4.06177e-05
      133.200   4.04473e-05
      133.300   4.02773e-05
      133.400   4.01074e-05
      133.500   3.99379e-05
      133.600   3.97689e-05
      133.700   3.96004e-05
      133.800   3.94323e-05
      133.900   3.92648e-05
      134.000   3.90978e-05
      134.100   3.89312e-05
      134.200   3.87651e-05
      134.300   3.85994e-05
      134.400   3.84344e-05
      134.500   3.82699e-05
      134.600   3.81058e-05
      134.700   3.79423e-05
      134.800   3.77794e-05
      134.900   3.76170e-05
      135.000   3.74551e-05
      135.100   3.72937e-05
      135.200   3.71329e-05
      135.300   3.69727e-05
      135.400   3.68129e-05
      135.500   3.66533e-05
      135.600   3.64937e-05
      135.700   3.63345e-05
      135.800   3.61758e-05
      135.900   3.60176e-05
      136.000   3.58600e-05
      136.100   3.57027e-05
      136.200   3.55462e-05
      136.300   3.53900e-05
      136.400   3.52344e-05
      136.500   3.50792e-05
      136.600   3.49245e-05
      136.700   3.47703e-05
      136.800   3.46166e-05
      136.900   3.44633e-05
      137.000   3.43105e-05
      137.100   3.41580e-05
      137.200   3.40058e-05
      137.300   3.38541e-05
      137.400   3.37028e-05
      137.500   3.35519e-05
      137.600   3.34076e-05
      137.700   3.32787e-05
      137.800   3.31616e-05
      137.900   3.30446e-05
      138.000   3.29279e-05
      138.100   3.28114e-05
      138.200   3.26952e-05
      138.300   3.25791e-05
      138.400   3.24634e-05
      138.500   3.23480e-05
      138.600   3.22328e-05
      138.700   3.21180e-05
      138.800   3.20035e-05
      138.900   3.18894e-05
      139.000   3.17755e-05
      139.100   3.16621e-05
      139.200   3.15490e-05
      139.300   3.14362e-05
      139.400   3.13238e-05
      139.500   3.12117e-05
      139.600   3.10999e-05
      139.700   3.09885e-05
      139.800   3.08775e-05
      139.900   3.07666e-05
      140.000   3.06558e-05
      140.100   3.05454e-05
      140.200   3.04352e-05
      140.300   3.03253e-05
      140.400   3.02157e-05
      140.500   3.01062e-05
      140.600   2.99970e-05
      140.700   2.98880e-05
      140.800   2.97792e-05
      140.900   2.96705e-05
      141.000   2.95619e-05
      141.100   2.94533e-05
      141.200   2.93450e-05
      141.300   2.92367e-05
      141.400   2.91285e-05
      141.500   2.90204e-05
      141.600   2.89124e-05
      141.700   2.88045e-05
      141.800   2.86967e-05
      141.900   2.85891e-05
      142.000   2.84817e-05
      142.100   2.83859e-05
      142.200   2.83227e-05
      142.300   2.82878e-05
      142.400   2.82525e-05
      142.500   2.82168e-05
      142.600   2.81810e-05
      142.700   2.81450e-05
      142.800   2.81088e-05
      142.900   2.80724e-05
      143.000   2.80358e-05
      143.100   2.79990e-05
      143.200   2.79620e-05
      143.300   2.79249e-05
      143.400   2.78876e-05
      143.500   2.78503e-05
      143.600   2.78129e-05
      143.700   2.77753e-05
      143.800   2.77377e-05
      143.900   2.77000e-05
      144.000   2.76621e-05
      144.100   2.76241e-05
      144.200   2.75860e-05
      144.300   2.75478e-05
      144.400   2.75125e-05
      144.500   2.75182e-05
      144.600   2.75367e-05
      144.700   2.75562e-05
      144.800   2.75752e-05
      144.900   2.75937e-05
      145.000   2.76118e-05
      145.100   2.76293e-05
      145.200   2.76462e-05
      145.300   2.76625e-05
      145.400   2.76782e-05
      145.500   2.76933e-05
      145.600   2.77078e-05
      145.700   2.77217e-05
      145.800   2.77350e-05
      145.900   2.77477e-05
      146.000   2.77598e-05
      146.100   2.77712e-05
      146.200   2.77822e-05
      146.300   2.77925e-05
      146.400   2.78023e-05
      146.500   2.78114e-05
      146.600   2.78200e-05
      146.700   2.78281e-05
      146.800   2.78339e-05
      146.900   2.78368e-05
      147.000   2.78392e-05
      147.100   2.78411e-05
      147.200   2.78425e-05
      147.300   2.78435e-05
      147.400   2.78442e-05
      147.500   2.78445e-05
      147.600   2.78443e-05
      147.700   2.78439e-05
      147.800   2.78430e-05
      147.900   2.78418e-05
      148.000   2.78402e-05
      148.100   2.78384e-05
      148.200   2.78363e-05
      148.300   2.78339e-05
      148.400   2.78311e-05
      148.500   2.78281e-05
      148.600   2.78247e-05
      148.700   2.78209e-05
      148.800   2.78167e-05
      148.900   2.78123e-05
      149.000   2.78074e-05
      149.100   2.78021e-05
      149.200   2.77962e-05
      149.300   2.77898e-05
      149.400   2.77829e-05
      149.500   2.77756e-05
      149.600   2.77677e-05
      149.700   2.77593e-05
      149.800   2.77505e-05
      149.900   2.77412e-05
      150.000   2.77315e-05
      150.100   2.77213e-05
      150.200   2.77103e-05
      150.300   2.76990e-05
      150.400   2.76872e-05
      150.500   2.76748e-05
      150.600   2.76620e-05
      150.700   2.76487e-05
      150.800   2.76349e-05
      150.900   2.76205e-05
      151.000   2.76055e-05
      151.100   2.75903e-05
      151.200   2.75744e-05
      151.300   2.75581e-05
      151.400   2.75414e-05
      151.500   2.75242e-05
      151.600   2.75069e-05
      151.700   2.74896e-05
      151.800   2.74720e-05
      151.900   2.74539e-05
      152.000   2.74353e-05
      152.100   2.74165e-05
      152.200   2.73973e-05
      152.300   2.73777e-05
      152.400   2.73578e-05
      152.500   2.73375e-05
      152.600   2.73170e-05
      152.700   2.72960e-05
      152.800   2.72747e-05
      152.900   2.72532e-05
      153.000   2.72313e-05
      153.100   2.72090e-05
      153.200   2.71865e-05
      153.300   2.71636e-05
      153.400   2.71404e-05
      153.500   2.71167e-05
      153.600   2.70927e-05
      153.700   2.70685e-05
      153.800   2.70438e-05
      153.900   2.70188e-05
      154.000   2.69834e-05
      154.100   2.69359e-05
      154.200   2.68865e-05
      154.300   2.68368e-05
      154.400   2.67868e-05
      154.500   2.67365e-05
      154.600   2.66858e-05
      154.700   2.66348e-05
      154.800   2.65835e-05
      154.900   2.65319e-05
      155.000   2.64799e-05
      155.100   2.64277e-05
      155.200   2.63750e-05
      155.300   2.63221e-05
      155.400   2.62688e-05
      155.500   2.62153e-05
      155.600   2.61614e-05
      155.700   2.61072e-05
      155.800   2.60527e-05
      155.900   2.59979e-05
      156.000   2.59428e-05
      156.100   2.58873e-05
      156.200   2.58316e-05
      156.300   2.57756e-05
      156.400   2.57193e-05
      156.500   2.56593e-05
      156.600   2.55904e-05
      156.700   2.55207e-05
      156.800   2.54508e-05
      156.900   2.53807e-05
      157.000   2.53105e-05
      157.100   2.52400e-05
      157.200   2.51694e-05
      157.300   2.50986e-05
      157.400   2.50277e-05
      157.500   2.49565e-05
      157.600   2.48852e-05
      157.700   2.48137e-05
      157.800   2.47420e-05
      157.900   2.46701e-05
      158.000   2.45980e-05
      158.100   2.45258e-05
      158.200   2.44533e-05
      158.300   2.43807e-05
      158.400   2.43079e-05
      158.500   2.42350e-05
      158.600   2.41619e-05
      158.700   2.40885e-05
      158.800   2.40151e-05
      158.900   2.39415e-05
      159.000   2.38678e-05
      159.100   2.37937e-05
      159.200   2.37195e-05
      159.300   2.36451e-05
      159.400   2.35707e-05
      159.500   2.34961e-05
      159.600   2.34214e-05
      159.700   2.33467e-05
      159.800   2.32718e-05
      159.900   2.31969e-05
      160.000   2.31218e-05
      160.100   2.30467e-05
      160.200   2.29715e-05
      160.300   2.28962e-05
      160.400   2.28209e-05
      160.500   2.27455e-05
      160.600   2.26701e-05
      160.700   2.25947e-05
      160.800   2.25192e-05
      160.900   2.24436e-05
      161.000   2.23680e-05
      161.100   2.22925e-05
      161.200   2.22169e-05
      161.300   2.21412e-05
      161.400   2.20656e-05
      161.500   2.19900e-05
      161.600   2.19142e-05
      161.700   2.18383e-05
      161.800   2.17623e-05
      161.900   2.16863e-05
      162.000   2.16102e-05
      162.100   2.15341e-05
      162.200   2.14580e-05
      162.300   2.13818e-05
      162.400   2.13056e-05
      162.500   2.12293e-05
      162.600   2.11530e-05
      162.700   2.10766e-05
      162.800   2.10002e-05
      162.900   2.09236e-05
      163.000   2.08470e-05
      163.100   2.07704e-05
      163.200   2.06937e-05
      163.300   2.06168e-05
      163.400   2.05400e-05
      163.500   2.04630e-05
      163.600   2.03860e-05
      163.700   2.03089e-05
      163.800   2.02319e-05
      163.900   2.01548e-05
      164.000   2.00776e-05
      164.100   2.00004e-05
      164.200   1.99232e-05
      164.300   1.98472e-05
      164.400   1.97712e-05
      164.500   1.96953e-05
      164.600   1.96194e-05
      164.700   1.95434e-05
      164.800   1.94675e-05
      164.900   1.93917e-05
      165.000   1.93159e-05
      165.100   1.92402e-05
      165.200   1.91646e-05
      165.300   1.90891e-05
      165.400   1.90136e-05
      165.500   1.89383e-05
      165.600   1.88631e-05
      165.700   1.87879e-05
      165.800   1.87130e-05
      165.900   1.86381e-05
      166.000   1.85634e-05
      166.100   1.84888e-05
      166.200   1.84143e-05
      166.300   1.83400e-05
      166.400   1.82659e-05
      166.500   1.81919e-05
      166.600   1.81180e-05
      166.700   1.80443e-05
      166.800   1.79692e-05
      166.900   1.78871e-05
      167.000   1.77987e-05
      167.100   1.77103e-05
      167.200   1.76221e-05
      167.300   1.75342e-05
      167.400   1.74465e-05
      167.500   1.73590e-05
      167.600   1.72718e-05
      167.700   1.71847e-05
      167.800   1.70979e-05
      167.900   1.70113e-05
      168.000   1.69249e-05
      168.100   1.68387e-05
      168.200   1.67526e-05
      168.300   1.66667e-05
      168.400   1.65811e-05
      168.500   1.64956e-05
      168.600   1.64102e-05
      168.700   1.63250e-05
      168.800   1.62400e-05
      168.900   1.61553e-05
      169.000   1.60706e-05
      169.100   1.59862e-05
      169.200   1.59019e-05
      169.300   1.58178e-05
      169.400   1.57339e-05
      169.500   1.56458e-05
      169.600   1.55391e-05
      169.700   1.54139e-05
      169.800   1.52880e-05
      169.900   1.51627e-05
      170.000   1.50381e-05
      170.100   1.49140e-05
      170.200   1.47906e-05
      170.300   1.94601e-05
      170.400   4.21892e-05
      170.500   8.05702e-05
      170.600   0.000119535
      170.700   0.000151313
      170.800   0.000166833
      170.900   0.000168504
      171.000   0.000166731
      171.100   0.000164964
      171.200   0.000163205
      171.300   0.000161453
      171.400   0.000159710
      171.500   0.000157975
      171.600   0.000156249
      171.700   0.000154534
      171.800   0.000152830
      171.900   0.000151140
      172.000   0.000149465
      172.100   0.000147805
      172.200   0.000146163
      172.300   0.000144533
      172.400   0.000142893
      172.500   0.000141266
      172.600   0.000139657
      172.700   0.000138068
      172.800   0.000136498
      172.900   0.000134947
      173.000   0.000133415
      173.100   0.000131902
      173.200   0.000130407
      173.300   0.000128931
      173.400   0.000127472
      173.500   0.000126031
      173.600   0.000124608
      173.700   0.000123202
      173.800   0.000121813
      173.900   0.000120440
      174.000   0.000119084
      174.100   0.000117742
      174.200   0.000116417
      174.300   0.000115106
      174.400   0.000113811
      174.500   0.000112529
      174.600   0.000111261
      174.700   0.000110006
      174.800   0.000108766
      174.900   0.000107538
      175.000   0.000106321
      175.100   0.000105118
      175.200   0.000103930
      175.300   0.000102754
      175.400   0.000101590
      175.500   0.000100438
      175.600   9.92972e-05
      175.700   9.81685e-05
      175.800   9.70509e-05
      175.900   9.59449e-05
      176.000   9.48502e-05
      176.100   9.37672e-05
      176.200   9.26952e-05
      176.300   9.16341e-05
      176.400   9.05846e-05
      176.500   8.95457e-05
      176.600   8.85176e-05
      176.700   8.75003e-05
      176.800   8.64938e-05
      176.900   8.54981e-05
      177.000   8.45126e-05
      177.100   8.35372e-05
      177.200   8.25726e-05
      177.300   8.16181e-05
      177.400   8.06732e-05
      177.500   7.97379e-05
      177.600   7.88127e-05
      177.700   7.78971e-05
      177.800   7.69911e-05
      177.900   7.60935e-05
      178.000   7.52102e-05
      178.100   7.43366e-05
      178.200   7.34715e-05
      178.300   7.26153e-05
      178.400   7.17683e-05
      178.500   7.09298e-05
      178.600   7.00999e-05
      178.700   6.92781e-05
      178.800   6.84652e-05
      178.900   6.76609e-05
      179.000   6.68647e-05
      179.100   6.60766e-05
      179.200   6.52970e-05
      179.300   6.45257e-05
      179.400   6.37627e-05
      179.500   6.30082e-05
      179.600   6.22617e-05
      179.700   6.15239e-05
      179.800   6.07940e-05
      179.900   6.00724e-05
      180.000   5.93586e-05
      180.100   5.86534e-05
      180.200   5.79563e-05
      180.300   5.72673e-05
      180.400   5.65862e-05
      180.500   5.59134e-05
      180.600   5.52485e-05
      180.700   5.45916e-05
      180.800   5.39283e-05
      180.900   5.32568e-05
      181.000   5.25892e-05
      181.100   5.19303e-05
      181.200   5.12795e-05
      181.300   5.06368e-05
      181.400   5.00025e-05
      181.500   4.93760e-05
      181.600   4.87574e-05
      181.700   4.81463e-05
      181.800   4.75430e-05
      181.900   4.69472e-05
      182.000   4.63590e-05
      182.100   4.57779e-05
      182.200   4.52042e-05
      182.300   4.46375e-05
      182.400   4.40779e-05
      182.500   4.35250e-05
      182.600   4.29786e-05
      182.700   4.24390e-05
      182.800   4.19060e-05
      182.900   4.13792e-05
      183.000   4.08589e-05
      183.100   4.03450e-05
      183.200   3.98371e-05
      183.300   3.93351e-05
      183.400   3.88392e-05
      183.500   3.83494e-05
      183.600   3.78653e-05
      183.700   3.73610e-05
      183.800   3.67612e-05
      183.900   3.61515e-05
      184.000   3.55513e-05
      184.100   3.49604e-05
      184.200   3.43788e-05
      184.300   3.38060e-05
      184.400   3.32422e-05
      184.500   3.26871e-05
      184.600   3.21405e-05
      184.700   3.16024e-05
      184.800   3.10726e-05
      184.900   3.05509e-05
      185.000   3.00374e-05
      185.100   2.95317e-05
      185.200   2.90337e-05
      185.300   2.85438e-05
      185.400   2.80613e-05
      185.500   2.75863e-05
      185.600   2.71186e-05
      185.700   2.66580e-05
      185.800   2.62049e-05
      185.900   2.57591e-05
      186.000   2.53199e-05
      186.100   2.48875e-05
      186.200   2.44618e-05
      186.300   2.40427e-05
      186.400   2.36299e-05
      186.500   2.32235e-05
      186.600   2.28233e-05
      186.700   2.24292e-05
      186.800   2.20411e-05
      186.900   2.16589e-05
      187.000   2.12825e-05
      187.100   2.09120e-05
      187.200   2.05471e-05
      187.300   2.01882e-05
      187.400   1.98349e-05
      187.500   1.94871e-05
      187.600   1.91447e-05
      187.700   1.88077e-05
      187.800   1.84758e-05
      187.900   1.81492e-05
      188.000   1.78279e-05
      188.100   1.75116e-05
      188.200   1.72003e-05
      188.300   1.68938e-05
      188.400   1.65923e-05
      188.500   1.62958e-05
      188.600   1.60042e-05
      188.700   1.57174e-05
      188.800   1.54355e-05
      188.900   1.51583e-05
      189.000   1.48856e-05
      189.100   1.46173e-05
      189.200   1.43536e-05
      189.300   1.40943e-05
      189.400   1.38394e-05
      189.500   1.35887e-05
      189.600   1.33421e-05
      189.700   1.30983e-05
      189.800   1.28495e-05
      189.900   1.26055e-05
      190.000   1.23658e-05
      190.100   1.21304e-05
      190.200   1.18993e-05
      190.300   1.16723e-05
      190.400   1.14492e-05
      190.500   1.12301e-05
      190.600   1.10151e-05
      190.700   1.08038e-05
      190.800   1.05964e-05
      190.900   1.03927e-05
      191.000   1.01928e-05
      191.100   9.99667e-06
      191.200   9.80404e-06
      191.300   9.61488e-06
      191.400   9.42915e-06
      191.500   9.24671e-06
      191.600   9.06759e-06
      191.700   8.89170e-06
      191.800   8.71889e-06
      191.900   8.54927e-06
      192.000   8.38279e-06
      192.100   8.21947e-06
      192.200   8.05924e-06
      192.300   7.90187e-06
      192.400   7.74730e-06
      192.500   7.59554e-06
      192.600   7.44657e-06
      192.700   7.29767e-06
      192.800   7.13754e-06
      192.900   6.95576e-06
      193.000   6.77826e-06
      193.100   6.60503e-06
      193.200   6.43599e-06
      193.300   6.27092e-06
      193.400   6.10978e-06
      193.500   5.95236e-06
      193.600   5.79856e-06
      193.700   5.64836e-06
      193.800   5.50177e-06
      193.900   5.35868e-06
      194.000   5.21890e-06
      194.100   5.08260e-06
      194.200   4.94980e-06
      194.300   4.82014e-06
      194.400   4.69354e-06
      194.500   4.56995e-06
      194.600   4.44929e-06
      194.700   4.33157e-06
      194.800   4.21671e-06
      194.900   4.10456e-06
      195.000   3.99515e-06
      195.100   3.88862e-06
      195.200   3.78471e-06
      195.300   3.68332e-06
      195.400   3.58437e-06
      195.500   3.48780e-06
      195.600   3.39357e-06
      195.700   3.30166e-06
      195.800   3.21198e-06
      195.900   3.12449e-06
      196.000   3.03877e-06
      196.100   2.95516e-06
      196.200   2.87363e-06
      196.300   2.79411e-06
      196.400   2.71657e-06
      196.500   2.64092e-06
      196.600   2.56720e-06
      196.700   2.49531e-06
      196.800   2.42533e-06
      196.900   2.35720e-06
      197.000   2.29082e-06
      197.100   2.22611e-06
      197.200   2.16305e-06
      197.300   2.10157e-06
      197.400   2.04162e-06
      197.500   1.98323e-06
      197.600   1.92635e-06
      197.700   1.87110e-06
      197.800   1.81731e-06
      197.900   1.76487e-06
      198.000   1.71380e-06
      198.100   1.66407e-06
      198.200   1.61562e-06
      198.300   1.56842e-06
      198.400   1.52249e-06
      198.500   1.47790e-06
      198.600   1.43453e-06
      198.700   1.39230e-06
      198.800   1.35119e-06
      198.900   1.31118e-06
      199.000   1.27308e-06
      199.100   1.23850e-06
      199.200   1.20829e-06
      199.300   1.17882e-06
      199.400   1.15004e-06
      199.500   1.12191e-06
      199.600   1.09440e-06
      199.700   1.06751e-06
      199.800   1.04122e-06
      199.900   1.01554e-06
      200.000   9.90429e-07
      200.100   9.65994e-07
      200.200   9.42085e-07
      200.300   9.18734e-07
      200.400   8.95920e-07
      200.500   8.73634e-07
      200.600   8.51862e-07
      200.700   8.30599e-07
      200.800   8.09819e-07
      200.900   7.89527e-07
      201.000   7.69736e-07
      201.100   7.50413e-07
      201.200   7.31540e-07
      201.300   7.13115e-07
      201.400   6.95131e-07
      201.500   6.77553e-07
      201.600   6.60399e-07
      201.700   6.43651e-07
      201.800   6.27292e-07
      201.900   6.11338e-07
      202.000   5.95787e-07
      202.100   5.80592e-07
      202.200   5.65766e-07
      202.300   5.51583e-07
      202.400   5.38146e-07
      202.500   5.25081e-07
      202.600   5.12308e-07
      202.700   4.99826e-07
      202.800   4.87639e-07
      202.900   4.75741e-07
      203.000   4.64122e-07
      203.100   4.52772e-07
      203.200   4.41680e-07
      203.300   4.30840e-07
      203.400   4.20252e-07
      203.500   4.09914e-07
      203.600   3.99813e-07
      203.700   3.89946e-07
      203.800   3.80325e-07
      203.900   3.70933e-07
      204.000   3.61759e-07
      204.100   3.52802e-07
      204.200   3.44058e-07
      204.300   3.35515e-07
      204.400   3.27177e-07
      204.500   3.19035e-07
      204.600   3.11083e-07
      204.700   3.03321e-07
      204.800   2.95754e-07
      204.900   2.88367e-07
      205.000   2.81157e-07
      205.100   2.74121e-07
      205.200   2.67248e-07
      205.300   2.60543e-07
      205.400   2.53997e-07
      205.500   2.47605e-07
      205.600   2.41392e-07
      205.700   2.35351e-07
      205.800   2.29453e-07
      205.900   2.23700e-07
      206.000   2.18092e-07
      206.100   2.12612e-07
      206.200   2.07262e-07
      206.300   2.02041e-07
      206.400   1.96945e-07
      206.500   1.91966e-07
      206.600   1.87109e-07
      206.700   1.82366e-07
      206.800   1.77734e-07
      206.900   1.73212e-07
      207.000   1.68802e-07
      207.100   1.64498e-07
      207.200   1.60299e-07
      207.300   1.56202e-07
      207.400   1.52200e-07
      207.500   1.48294e-07
      207.600   1.44482e-07
      207.700   1.40760e-07
      207.800   1.37127e-07
      207.900   1.33582e-07
      208.000   1.30122e-07
      208.100   1.26745e-07
      208.200   1.23451e-07
      208.300   1.20235e-07
      208.400   1.17101e-07
      208.500   1.14045e-07
      208.600   1.11060e-07
      208.700   1.08148e-07
      208.800   1.05303e-07
      208.900   1.02351e-07
      209.000   9.92442e-08
      209.100   9.62254e-08
      209.200   9.32918e-08
      209.300   9.04399e-08
      209.400   8.76707e-08
      209.500   8.49793e-08
      209.600   8.23639e-08
      209.700   7.98252e-08
      209.800   7.73637e-08
      209.900   7.49705e-08
      210.000   7.26472e-08
      210.100   7.03912e-08
      210.200   6.81999e-08
      210.300   6.60727e-08
      210.400   6.40073e-08
      210.500   6.20017e-08
      210.600   6.00549e-08
      210.700   5.81658e-08
      210.800   5.63317e-08
      210.900   5.45516e-08
      211.000   5.28239e-08
      211.100   5.11482e-08
      211.200   4.95218e-08
      211.300   4.79460e-08
      211.400   4.64184e-08
      211.500   4.49353e-08
      211.600   4.34969e-08
      211.700   4.21023e-08
      211.800   4.07486e-08
      211.900   3.94358e-08
      212.000   3.81635e-08
      212.100   3.69295e-08
      212.200   3.56980e-08
      212.300   3.39847e-08
      212.400   3.20367e-08
      212.500   3.01917e-08
      212.600   2.84460e-08
      212.700   2.67932e-08
      212.800   2.52295e-08
      212.900   2.37512e-08
      213.000   2.23538e-08
      213.100   2.10349e-08
      213.200   1.97881e-08
      213.300   1.86106e-08
      213.400   1.74976e-08
      213.500   1.64466e-08
      213.600   1.54544e-08
      213.700   1.45183e-08
      213.800   1.36343e-08
      213.900   1.28012e-08
      214.000   1.20153e-08
      214.100   1.12742e-08
      214.200   1.05762e-08
      214.300   9.91828e-09
      214.400   9.29838e-09
      214.500   8.71474e-09
      214.600   8.16563e-09
      214.700   7.64870e-09
      214.800   7.16233e-09
      214.900   6.70522e-09
      215.000   6.27506e-09
      215.100   5.87104e-09
      215.200   5.49198e-09
      215.300   5.13620e-09
      215.400   4.80176e-09
      215.500   4.48780e-09
      215.600   4.19337e-09
      215.700   3.91686e-09
      215.800   3.65749e-09
      215.900   3.41442e-09
      216.000   3.18640e-09
      216.100   2.97268e-09
      216.200   2.77252e-09
      216.300   2.58507e-09
      216.400   2.40953e-09
      216.500   2.24515e-09
      216.600   2.09140e-09
      216.700   1.94758e-09
      216.800   1.81304e-09
      216.900   1.68732e-09
      217.000   1.56981e-09
      217.100   1.45995e-09
      217.200   1.35744e-09
      217.300   1.26169e-09
      217.400   1.17228e-09
      217.500   1.08891e-09
      217.600   1.01109e-09
      217.700   9.38527e-10
      217.800   8.70876e-10
      217.900   8.07909e-10
      218.000   7.49275e-10
      218.100   6.94673e-10
      218.200   6.43845e-10
      218.300   5.96559e-10
      218.400   5.52543e-10
      218.500   5.11583e-10
      218.600   4.73528e-10
      218.700   4.38130e-10
      218.800   4.05239e-10
      218.900   3.74708e-10
      219.000   3.46336e-10
      219.100   3.20257e-10
      219.200   2.98182e-10
      219.300   2.80785e-10
      219.400   2.64345e-10
      219.500   2.48827e-10
      219.600   2.34176e-10
      219.700   2.20343e-10
      219.800   2.07295e-10
      219.900   1.94979e-10
      220.000   1.83355e-10
      220.100   1.72392e-10
      220.200   1.62055e-10
      220.300   1.52311e-10
      220.400   1.43121e-10
      220.500   1.34462e-10
      220.600   1.26304e-10
      220.700   1.18616e-10
      220.800   1.11370e-10
      220.900   1.04552e-10
      221.000   9.81300e-11
      221.100   9.20820e-11
      221.200   8.63934e-11
      221.300   8.10387e-11
      221.400   7.59997e-11
      221.500   7.12616e-11
      221.600   6.68045e-11
      221.700   6.26124e-11
      221.800   5.86714e-11
      221.900   5.49691e-11
      222.000   5.14899e-11
      222.100   4.82191e-11
      222.200   4.51494e-11
      222.300   4.22654e-11
      222.400   3.95569e-11
      222.500   3.70139e-11
      222.600   3.46291e-11
      222.700   3.23900e-11
      222.800   3.02894e-11
      222.900   2.83207e-11
      223.000   2.64733e-11
      223.100   2.47411e-11
      223.200   2.31173e-11
      223.300   2.15962e-11
      223.400   2.01707e-11
      223.500   1.88345e-11
      223.600   1.75842e-11
      223.700   1.64128e-11
      223.800   1.53158e-11
      223.900   1.42904e-11
      224.000   1.33296e-11
      224.100   1.24309e-11
      224.200   1.15903e-11
      224.300   1.08045e-11
      224.400   1.00693e-11
      224.500   9.38227e-12
      224.600   8.73993e-12
      224.700   8.14038e-12
      224.800   7.58004e-12
      224.900   7.05644e-12
      225.000   6.56780e-12
      225.100   6.11146e-12
      225.200   5.68552e-12
      225.300   5.28841e-12
      225.400   4.91766e-12
      225.500   4.57181e-12
      225.600   4.24936e-12
      225.700   3.94890e-12
      225.800   3.66870e-12
      225.900   3.40763e-12
      226.000   3.16453e-12
      226.100   2.93797e-12
      226.200   2.72698e-12
      226.300   2.53086e-12
      226.400   2.34840e-12
      226.500   2.17846e-12
      226.600   2.02030e-12
      226.700   1.87329e-12
      226.800   1.73648e-12
      226.900   1.60922e-12
      227.000   1.49104e-12
      227.100   1.38116e-12
      227.200   1.27907e-12
      227.300   1.18426e-12
      227.400   1.09622e-12
      227.500   1.01448e-12
      227.600   9.38609e-13
      227.700   8.68205e-13
      227.800   8.02906e-13
      227.900   7.42345e-13
      228.000   6.86181e-13
      228.100   6.34115e-13
      228.200   5.85852e-13
      228.300   5.41138e-13
      228.400   4.99728e-13
      228.500   4.61362e-13
      228.600   4.25849e-13
      228.700   3.92970e-13
      228.800   3.62538e-13
      228.900   3.34396e-13
      229.000   3.08352e-13
      229.100   2.84269e-13
      229.200   2.62007e-13
      229.300   2.41430e-13
      229.400   2.22415e-13
      229.500   2.04846e-13
      229.600   1.88619e-13
      229.700   1.73637e-13
      229.800   1.59802e-13
      229.900   1.47083e-13
      230.000   1.35734e-13
      230.100   1.25967e-13
      230.200   1.16881e-13
      230.300   1.08435e-13
      230.400   1.00577e-13
      230.500   9.32771e-14
      230.600   8.64990e-14
      230.700   8.01963e-14
      230.800   7.43398e-14
      230.900   6.88993e-14
      231.000   6.38423e-14
      231.100   5.91462e-14
      231.200   5.47842e-14
      231.300   5.07352e-14
      231.400   4.69778e-14
      231.500   4.34879e-14
      231.600   4.02489e-14
      231.700   3.72449e-14
      231.800   3.44585e-14
      231.900   3.18741e-14
      232.000   2.94775e-14
      232.100   2.72553e-14
      232.200   2.51958e-14
      232.300   2.32873e-14
      232.400   2.15187e-14
      232.500   1.98799e-14
      232.600   1.83627e-14
      232.700   1.69577e-14
      232.800   1.56569e-14
      232.900   1.44528e-14
      233.000   1.33384e-14
      233.100   1.23077e-14
      233.200   1.13537e-14
      233.300   1.04717e-14
      233.400   9.65631e-15
      233.500   8.90380e-15
      233.600   8.20910e-15
      233.700   7.56682e-15
      233.800   6.96779e-15
      233.900   6.41423e-15
      234.000   5.90301e-15
      234.100   5.43153e-15
      234.200   4.99661e-15
      234.300   4.59546e-15
      234.400   4.22556e-15
      234.500   3.88459e-15
      234.600   3.57026e-15
      234.700   3.28068e-15
      234.800   3.01396e-15
      234.900   2.76820e-15
      235.000   2.54187e-15
      235.100   2.33355e-15
      235.200   2.14180e-15
      235.300   1.96533e-15
      235.400   1.80298e-15
      235.500   1.65363e-15
      235.600   1.51633e-15
      235.700   1.39018e-15
      235.800   1.27461e-15
      235.900   1.16838e-15
      236.000   1.07075e-15
      236.100   9.81027e-16
      236.200   8.98612e-16
      236.300   8.22909e-16
      236.400   7.53415e-16
      236.500   6.89611e-16
      236.600   6.31061e-16
      236.700   5.77338e-16
      236.800   5.28046e-16
      236.900   4.82849e-16
      237.000   4.41409e-16
      237.100   4.03411e-16
      237.200   3.68605e-16
      237.300   3.36703e-16
      237.400   3.07618e-16
      237.500   2.82214e-16
      237.600   2.61009e-16
      237.700   2.41414e-16
      237.800   2.23247e-16
      237.900   2.06408e-16
      238.000   1.90811e-16
      238.100   1.76352e-16
      238.200   1.62961e-16
      238.300   1.50556e-16
      238.400   1.39070e-16
      238.500   1.28433e-16
      238.600   1.18588e-16
      238.700   1.09479e-16
      238.800   1.01048e-16
      238.900   9.32476e-17
      239.000   8.60319e-17
      239.100   7.93595e-17
      239.200   7.31915e-17
      239.300   6.75044e-17
      239.400   6.22602e-17
      239.500   5.74110e-17
      239.600   5.29286e-17
      239.700   4.87878e-17
      239.800   4.49606e-17
      239.900   4.14255e-17
      240.000   3.81607e-17
      240.100   3.51452e-17
      240.200   3.23611e-17
      240.300   2.97919e-17
      240.400   2.74200e-17
      240.500   2.52328e-17
      240.600   2.32148e-17
      240.700   2.13539e-17
      240.800   1.96429e-17
      240.900   1.80695e-17
      241.000   1.66188e-17
      241.100   1.52814e-17
      241.200   1.40486e-17
      241.300   1.29725e-17
      241.400   1.20866e-17
      241.500   1.13162e-17
      241.600   1.05937e-17
      241.700   9.91593e-18
      241.800   9.28042e-18
      241.900   8.68450e-18
      242.000   8.12591e-18
      242.100   7.60231e-18
      242.200   7.11303e-18
      242.300   6.65542e-18
      242.400   6.22641e-18
      242.500   5.82434e-18
      242.600   5.44756e-18
      242.700   5.09445e-18
      242.800   4.76371e-18
      242.900   4.45386e-18
      243.000   4.16364e-18
      243.100   3.89187e-18
      243.200   3.63726e-18
      243.300   3.39894e-18
      243.400   3.17591e-18
      243.500   2.96766e-18
      243.600   2.77334e-18
      243.700   2.59132e-18
      243.800   2.42093e-18
      243.900   2.26153e-18
      244.000   2.11229e-18
      244.100   1.97266e-18
      244.200   1.84204e-18
      244.300   1.71979e-18
      244.400   1.60550e-18
      244.500   1.49858e-18
      244.600   1.39859e-18
      244.700   1.30532e-18
      244.800   1.21845e-18
      244.900   1.13723e-18
      245.000   1.06125e-18
      245.100   9.90226e-19
      245.200   9.23860e-19
      245.300   8.61821e-19
      245.400   8.03819e-19
      245.500   7.49646e-19
      245.600   6.99022e-19
      245.700   6.51716e-19
      245.800   6.07517e-19
      245.900   5.66450e-19
      246.000   5.28167e-19
      246.100   4.92395e-19
      246.200   4.58987e-19
      246.300   4.27781e-19
      246.400   3.98650e-19
      246.500   3.71446e-19
      246.600   3.46050e-19
      246.700   3.22349e-19
      246.800   3.00219e-19
      246.900   2.79571e-19
      247.000   2.60398e-19
      247.100   2.42548e-19
      247.200   2.25891e-19
      247.300   2.10349e-19
      247.400   1.95845e-19
      247.500   1.82316e-19
      247.600   1.69696e-19
      247.700   1.57926e-19
      247.800   1.46951e-19
      247.900   1.36717e-19
      248.000   1.27178e-19
      248.100   1.18358e-19
      248.200   1.10131e-19
      248.300   1.02460e-19
      248.400   9.53098e-20
      248.500   8.86421e-20
      248.600   8.24288e-20
      248.700   7.66407e-20
      248.800   7.12473e-20
      248.900   6.62239e-20
      249.000   6.15447e-20
      249.100   5.72153e-20
      249.200   5.36688e-20
      249.300   5.08375e-20
      249.400   4.82702e-20
      249.500   4.58298e-20
      249.600   4.35093e-20
      249.700   4.13036e-20
      249.800   3.92073e-20
      249.900   3.72141e-20
      250.000   3.53209e-20
      250.100   3.35275e-20
      250.200   3.18257e-20
      250.300   3.02096e-20
      250.400   2.86737e-20
      250.500   2.72147e-20
      250.600   2.58285e-20
      250.700   2.45114e-20
      250.800   2.32601e-20
      250.900   2.20714e-20
      251.000   2.09424e-20
      251.100   1.98699e-20
      251.200   1.88529e-20
      251.300   1.78895e-20
      251.400   1.69741e-20
      251.500   1.61045e-20
      251.600   1.52787e-20
      251.700   1.44947e-20
      251.800   1.37500e-20
      251.900   1.30428e-20
      252.000   1.23711e-20
      252.100   1.17338e-20
      252.200   1.11284e-20
      252.300   1.05545e-20
      252.400   1.00106e-20
      252.500   9.49456e-21
      252.600   9.00443e-21
      252.700   8.53923e-21
      252.800   8.09762e-21
      252.900   7.67835e-21
      253.000   7.28042e-21
      253.100   6.90279e-21
      253.200   6.57533e-21
      253.300   6.39395e-21
      253.400   6.24709e-21
      253.500   6.10375e-21
      253.600   5.96376e-21
      253.700   5.82692e-21
      253.800   5.69324e-21
      253.900   5.56257e-21
      254.000   5.43486e-21
      254.100   5.31003e-21
      254.200   5.18803e-21
      254.300   5.06880e-21
      254.400   4.95227e-21
      254.500   4.83842e-21
      254.600   4.72708e-21
      254.700   4.61833e-21
      254.800   4.51218e-21
      254.900   4.40839e-21
      255.000   4.30698e-21
      255.100   4.20780e-21
      255.200   4.11092e-21
      255.300   4.01621e-21
      255.400   3.92365e-21
      255.500   3.83321e-21
      255.600   3.74479e-21
      255.700   3.65837e-21
      255.800   3.57391e-21
      255.900   3.49135e-21
      256.000   3.41064e-21
      256.100   3.33186e-21
      256.200   3.25486e-21
      256.300   3.17960e-21
      256.400   3.10610e-21
      256.500   3.03422e-21
      256.600   2.96398e-21
      256.700   2.89533e-21
      256.800   2.82824e-21
      256.900   2.76265e-21
      257.000   2.69856e-21
      257.100   2.63592e-21
      257.200   2.57473e-21
      257.300   2.51490e-21
      257.400   2.45694e-21
      257.500   2.40048e-21
      257.600   2.34534e-21
      257.700   2.29146e-21
      257.800   2.23878e-21
      257.900   2.18730e-21
      258.000   2.13697e-21
      258.100   2.08776e-21
      258.200   2.03969e-21
      258.300   1.99269e-21
      258.400   1.94674e-21
      258.500   1.90181e-21
      258.600   1.85793e-21
      258.700   1.81502e-21
      258.800   1.77308e-21
      258.900   1.73211e-21
      259.000   1.69205e-21
      259.100   1.65290e-21
      259.200   1.61466e-21
      259.300   1.57731e-21
      259.400   1.54080e-21
      259.500   1.50511e-21
      259.600   1.47026e-21
      259.700   1.43618e-21
      259.800   1.40288e-21
      259.900   1.37032e-21
      260.000   1.33852e-21
      260.100   1.30745e-21
      260.200   1.27708e-21
      260.300   1.24741e-21
      260.400   1.21841e-21
      260.500   1.19009e-21
      260.600   1.16240e-21
      260.700   1.13535e-21
      260.800   1.10893e-21
      260.900   1.08310e-21
      261.000   1.05788e-21
      261.100   1.03326e-21
      261.200   1.00919e-21
      261.300   9.85674e-22
      261.400   9.62707e-22
      261.500   9.40289e-22
      261.600   9.18464e-22
      261.700   8.97146e-22
      261.800   8.76325e-22
      261.900   8.55970e-22
      262.000   8.36086e-22
      262.100   8.16656e-22
      262.200   7.97683e-22
      262.300   7.79139e-22
      262.400   7.61027e-22
      262.500   7.43327e-22
      262.600   7.26033e-22
      262.700   7.09142e-22
      262.800   6.92639e-22
      262.900   6.76506e-22
      263.000   6.60767e-22
      263.100   6.45385e-22
      263.200   6.30368e-22
      263.300   6.15693e-22
      263.400   6.01358e-22
      263.500   5.87357e-22
      263.600   5.73683e-22
      263.700   5.60321e-22
      263.800   5.47267e-22
      263.900   5.34528e-22
      264.000   5.22075e-22
      264.100   5.09909e-22
      264.200   4.98022e-22
      264.300   4.86420e-22
      264.400   4.75086e-22
      264.500   4.64011e-22
      264.600   4.53195e-22
      264.700   4.42632e-22
      264.800   4.32309e-22
      264.900   4.22233e-22
      265.000   4.12389e-22
      265.100   4.02770e-22
      265.200   3.93378e-22
      265.300   3.84204e-22
      265.400   3.75249e-22
      265.500   3.66496e-22
      265.600   3.57952e-22
      265.700   3.50594e-22
      265.800   3.47598e-22
      265.900   3.44765e-22
      266.000   3.41954e-22
      266.100   3.39168e-22
      266.200   3.36405e-22
      266.300   3.33664e-22
      266.400   3.30948e-22
      266.500   3.28255e-22
      266.600   3.25583e-22
      266.700   3.22929e-22
      266.800   3.20303e-22
      266.900   3.17699e-22
      267.000   3.15117e-22
      267.100   3.12556e-22
      267.200   3.10018e-22
      267.300   3.07500e-22
      267.400   3.05003e-22
      267.500   3.02528e-22
      267.600   3.00074e-22
      267.700   2.97641e-22
      267.800   2.95226e-22
      267.900   2.92833e-22
      268.000   2.90463e-22
      268.100   2.88113e-22
      268.200   2.85782e-22
      268.300   2.83473e-22
      268.400   2.81181e-22
      268.500   2.78907e-22
      268.600   2.76652e-22
      268.700   2.74422e-22
      268.800   2.72209e-22
      268.900   2.70013e-22
      269.000   2.67838e-22
      269.100   2.65677e-22
      269.200   2.63540e-22
      269.300   2.61420e-22
      269.400   2.59317e-22
      269.500   2.57231e-22
      269.600   2.55167e-22
      269.700   2.53114e-22
      269.800   2.51083e-22
      269.900   2.49069e-22
      270.000   2.47073e-22
      270.100   2.45102e-22
      270.200   2.43150e-22
      270.300   2.41216e-22
      270.400   2.39295e-22
      270.500   2.37392e-22
      270.600   2.35502e-22
      270.700   2.33632e-22
      270.800   2.31775e-22
      270.900   2.29935e-22
      271.000   2.28111e-22
      271.100   2.26300e-22
      271.200   2.24505e-22
      271.300   2.22724e-22
      271.400   2.20959e-22
      271.500   2.19209e-22
      271.600   2.17473e-22
      271.700   2.15749e-22
      271.800   2.14042e-22
      271.900   2.12347e-22
      272.000   2.10667e-22
      272.100   2.09000e-22
      272.200   2.07346e-22
      272.300   2.05704e-22
      272.400   2.04077e-22
      272.500   2.02463e-22
      272.600   2.00862e-22
      272.700   1.99274e-22
      272.800   1.97696e-22
      272.900   1.96134e-22
      273.000   1.94582e-22
      273.100   1.93042e-22
      273.200   1.91517e-22
      273.300   1.90003e-22
      273.400   1.88499e-22
      273.500   1.87006e-22
      273.600   1.85527e-22
      273.700   1.84058e-22
      273.800   1.82599e-22
      273.900   1.81154e-22
      274.000   1.79719e-22
      274.100   1.78296e-22
      274.200   1.76882e-22
      274.300   1.75479e-22
      274.400   1.74046e-22
      274.500   1.72527e-22
      274.600   1.71001e-22
      274.700   1.69488e-22
      274.800   1.67989e-22
      274.900   1.66501e-22
      275.000   1.65025e-22
      275.100   1.63562e-22
      275.200   1.62110e-22
      275.300   1.60670e-22
      275.400   1.59243e-22
      275.500   1.57827e-22
      275.600   1.56423e-22
      275.700   1.55030e-22
      275.800   1.53649e-22
      275.900   1.52280e-22
      276.000   1.50922e-22
      276.100   1.49574e-22
      276.200   1.48237e-22
      276.300   1.46911e-22
      276.400   1.45596e-22
      276.500   1.44292e-22
      276.600   1.43000e-22
      276.700   1.41716e-22
      276.800   1.40444e-22
      276.900   1.39181e-22
      277.000   1.37929e-22
      277.100   1.36687e-22
      277.200   1.35455e-22
      277.300   1.34234e-22
      277.400   1.33022e-22
      277.500   1.31819e-22
      277.600   1.30627e-22
      277.700   1.29443e-22
      277.800   1.28268e-22
      277.900   1.27106e-22
      278.000   1.25953e-22
      278.100   1.24808e-22
      278.200   1.23672e-22
      278.300   1.22546e-22
      278.400   1.21429e-22
      278.500   1.20321e-22
      278.600   1.19221e-22
      278.700   1.18132e-22
      278.800   1.17098e-22
      278.900   1.16294e-22
      279.000   1.15500e-22
      279.100   1.14710e-22
      279.200   1.13922e-22
      279.300   1.13140e-22
      279.400   1.12362e-22
      279.500   1.11587e-22
      279.600   1.10817e-22
      279.700   1.10051e-22
      279.800   1.09290e-22
      279.900   1.08533e-22
      280.000   1.07779e-22
      280.100   1.07029e-22
      280.200   1.06284e-22
      280.300   1.05543e-22
      280.400   1.04806e-22
      280.500   1.04073e-22
      280.600   1.03344e-22
      280.700   1.02619e-22
      280.800   1.01898e-22
      280.900   1.01180e-22
      281.000   1.00467e-22
      281.100   9.97582e-23
      281.200   9.90530e-23
      281.300   9.83518e-23
      281.400   9.76551e-23
      281.500   9.69621e-23
      281.600   9.62718e-23
      281.700   9.55860e-23
      281.800   9.49053e-23
      281.900   9.42279e-23
      282.000   9.35538e-23
      282.100   9.28842e-23
      282.200   9.22192e-23
      282.300   9.15565e-23
      282.400   9.08981e-23
      282.500   9.02431e-23
      282.600   8.95932e-23
      282.700   8.89468e-23
      282.800   8.83033e-23
      282.900   8.76653e-23
      283.000   8.70305e-23
      283.100   8.63983e-23
      283.200   8.57713e-23
      283.300   8.53215e-23
      283.400   8.58192e-23
      283.500   8.64331e-23
      283.600   8.70490e-23
      283.700   8.76685e-23
      283.800   8.82898e-23
      283.900   8.89130e-23
      284.000   8.95390e-23
      284.100   9.01671e-23
      284.200   9.07989e-23
      284.300   9.14339e-23
      284.400   9.20701e-23
      284.500   9.27091e-23
      284.600   9.33517e-23
      284.700   9.39960e-23
      284.800   9.46429e-23
      284.900   9.52934e-23
      285.000   9.59458e-23
      285.100   9.66008e-23
      285.200   9.72577e-23
      285.300   9.79184e-23
      285.400   9.85828e-23
      285.500   9.92477e-23
      285.600   9.99171e-23
      285.700   1.00588e-22
      285.800   1.01262e-22
      285.900   1.01940e-22
      286.000   1.02618e-22
      286.100   1.03302e-22
      286.200   1.03988e-22
      286.300   1.04677e-22
      286.400   1.05367e-22
      286.500   1.06061e-22
      286.600   1.06758e-22
      286.700   1.07458e-22
      286.800   1.08161e-22
      286.900   1.08867e-22
      287.000   1.09576e-22
      287.100   1.10287e-22
      287.200   1.11002e-22
      287.300   1.11718e-22
      287.400   1.12438e-22
      287.500   1.13162e-22
      287.600   1.13889e-22
      287.700   1.14619e-22
      287.800   1.15353e-22
      287.900   1.16089e-22
      288.000   1.16830e-22
      288.100   1.17575e-22
      288.200   1.18322e-22
      288.300   1.19073e-22
      288.400   1.19830e-22
      288.500   1.20587e-22
      288.600   1.21348e-22
      288.700   1.22114e-22
      288.800   1.22882e-22
      288.900   1.23652e-22
      289.000   1.24428e-22
      289.100   1.25206e-22
      289.200   1.25985e-22
      289.300   1.26770e-22
      289.400   1.27560e-22
      289.500   1.28352e-22
      289.600   1.29146e-22
      289.700   1.29945e-22
      289.800   1.30747e-22
      289.900   1.31552e-22
      290.000   1.32363e-22
      290.100   1.33173e-22
      290.200   1.33991e-22
      290.300   1.34812e-22
      290.400   1.35635e-22
      290.500   1.36463e-22
      290.600   1.37293e-22
      290.700   1.38127e-22
      290.800   1.38966e-22
      290.900   1.39808e-22
      291.000   1.40654e-22
      291.100   1.41503e-22
      291.200   1.42356e-22
      291.300   1.43213e-22
      291.400   1.44073e-22
      291.500   1.44936e-22
      291.600   1.45804e-22
      291.700   1.46675e-22
      291.800   1.47550e-22
      291.900   1.48428e-22
      292.000   1.49313e-22
      292.100   1.50201e-22
      292.200   1.51090e-22
      292.300   1.51985e-22
      292.400   1.52882e-22
      292.500   1.53784e-22
      292.600   1.54687e-22
      292.700   1.55590e-22
      292.800   1.56498e-22
      292.900   1.57407e-22
      293.000   1.58321e-22
      293.100   1.59241e-22
      293.200   1.60162e-22
      293.300   1.61086e-22
      293.400   1.62015e-22
      293.500   1.62948e-22
      293.600   1.63884e-22
      293.700   1.64826e-22
      293.800   1.65770e-22
      293.900   1.66717e-22
      294.000   1.67667e-22
      294.100   1.68622e-22
      294.200   1.69580e-22
      294.300   1.70542e-22
      294.400   1.71508e-22
      294.500   1.72476e-22
      294.600   1.73447e-22
      294.700   1.74424e-22
      294.800   1.75403e-22
      294.900   1.76383e-22
      295.000   1.77371e-22
      295.100   1.78362e-22
      295.200   1.79355e-22
      295.300   1.80351e-22
      295.400   1.81351e-22
      295.500   1.82354e-22
      295.600   1.83359e-22
      295.700   1.84368e-22
      295.800   1.85380e-22
      295.900   1.86396e-22
      296.000   1.87417e-22
      296.100   1.88438e-22
      296.200   1.89464e-22
      296.300   1.90492e-22
      296.400   1.91524e-22
      296.500   1.92557e-22
      296.600   1.93596e-22
      296.700   1.94636e-22
      296.800   1.95679e-22
      296.900   1.96726e-22
      297.000   1.97776e-22
      297.100   1.98828e-22
      297.200   2.00003e-22
      297.300   2.02082e-22
      297.400   2.06393e-22
      297.500   2.10788e-22
      297.600   2.15271e-22
      297.700   2.19849e-22
      297.800   2.24511e-22
      297.900   2.29263e-22
      298.000   2.34102e-22
      298.100   2.39034e-22
      298.200   2.44059e-22
      298.300   2.49177e-22
      298.400   2.54395e-22
      298.500   2.59709e-22
      298.600   2.65124e-22
      298.700   2.70637e-22
      298.800   2.76253e-22
      298.900   2.81981e-22
      299.000   2.87819e-22
      299.100   2.93763e-22
      299.200   2.99819e-22
      299.300   3.05981e-22
      299.400   3.12259e-22
      299.500   3.18652e-22
      299.600   3.25157e-22
      299.700   3.31779e-22
      299.800   3.38527e-22
      299.900   3.45395e-22
      300.000   3.52381e-22
      300.100   3.59506e-22
      300.192   3.66173e-22
      300.285   3.73023e-22
      300.377   3.79910e-22
      300.470   3.86991e-22
      300.562   3.94103e-22
      300.654   4.01333e-22
      300.747   4.08772e-22
      300.839   4.16242e-22
      300.932   4.23917e-22
      301.025   4.31726e-22
      301.117   4.39569e-22
      301.210   4.47622e-22
      301.303   4.55817e-22
      301.395   4.64039e-22
      301.488   4.72498e-22
      301.581   4.81077e-22
      301.674   4.89807e-22
      301.766   4.98574e-22
      301.859   5.07587e-22
      301.952   5.16732e-22
      302.045   5.26031e-22
      302.138   5.51684e-22
      302.231   5.85251e-22
      302.324   6.21018e-22
      302.417   6.58898e-22
      302.510   6.98958e-22
      302.603   7.41289e-22
      302.696   7.86073e-22
      302.789   8.33455e-22
      302.882   8.83531e-22
      302.976   9.37034e-22
      303.069   9.92989e-22
      303.162   1.05211e-21
      303.255   1.11458e-21
      303.349   1.18129e-21
      303.442   1.25104e-21
      303.535   1.32462e-21
      303.629   1.40316e-21
      303.722   1.48524e-21
      303.816   1.57281e-21
      303.909   1.66429e-21
      304.003   1.76181e-21
      304.096   1.86369e-21
      304.190   1.97232e-21
      304.283   2.08567e-21
      304.377   2.20638e-21
      304.471   2.33381e-21
      304.564   2.46671e-21
      304.658   2.60829e-21
      304.752   2.75770e-21
      304.846   2.91499e-21
      304.939   3.07901e-21
      305.033   3.25368e-21
      305.127   3.43766e-21
      305.221   3.63141e-21
      305.315   3.83563e-21
      305.409   4.05051e-21
      305.503   4.27677e-21
      305.597   4.51509e-21
      305.691   4.76578e-21
      305.785   5.02980e-21
      305.879   5.30750e-21
      305.973   5.59940e-21
      306.067   5.90676e-21
      306.161   6.22985e-21
      306.255   6.56962e-21
      306.350   6.93077e-21
      306.444   7.30650e-21
      306.538   7.70157e-21
      306.633   8.12099e-21
      306.727   8.55742e-21
      306.821   9.01592e-21
      306.916   9.50259e-21
      307.010   1.00111e-20
      307.105   1.05532e-20
      307.199   1.11170e-20
      307.294   1.17158e-20
      307.388   1.23380e-20
      307.483   1.29984e-20
      307.577   1.36847e-20
      307.672   1.44129e-20
      307.767   1.51773e-20
      307.861   1.59707e-20
      307.956   1.68130e-20
      308.051   1.76968e-20
      308.146   1.86241e-20
      308.240   1.95860e-20
      308.335   2.06057e-20
      308.430   2.16756e-20
      308.525   2.27983e-20
      308.620   2.39744e-20
      308.715   2.52079e-20
      308.810   2.65009e-20
      308.905   2.78560e-20
      309.000   2.92753e-20
      309.095   3.07630e-20
      309.190   3.23213e-20
      309.285   3.39541e-20
      309.380   3.56641e-20
      309.476   3.74733e-20
      309.571   3.93487e-20
      309.666   4.13135e-20
      309.761   4.33688e-20
      309.857   4.55424e-20
      309.952   4.77940e-20
      310.047   5.01487e-20
      310.143   5.26398e-20
      310.238   5.52189e-20
      310.334   5.79444e-20
      310.429   6.07678e-20
      310.525   6.37482e-20
      310.620   6.68342e-20
      310.716   7.00939e-20
      310.811   7.34668e-20
      310.907   7.70262e-20
      311.003   8.07471e-20
      311.098   8.45964e-20
      311.194   8.86607e-20
      311.290   9.29075e-20
      311.386   9.73423e-20
      311.481   1.01926e-19
      311.577   1.06760e-19
      311.673   1.11812e-19
      311.769   1.17087e-19
      311.865   1.22589e-19
      311.961   1.28360e-19
      312.057   1.34436e-19
      312.153   1.40793e-19
      312.249   1.47431e-19
      312.345   1.54363e-19
      312.441   1.61599e-19
      312.537   1.69148e-19
      312.633   1.77025e-19
      312.730   1.85337e-19
      312.826   1.93918e-19
      312.922   2.02867e-19
      313.018   2.12204e-19
      313.115   2.22045e-19
      313.211   2.32207e-19
      313.307   2.42800e-19
      313.404   2.53958e-19
      313.500   2.65475e-19
      313.597   2.77602e-19
      313.693   2.90104e-19
      313.790   3.03278e-19
      313.886   3.16865e-19
      313.983   3.31173e-19
      314.079   3.45926e-19
      314.176   3.61444e-19
      314.273   3.77615e-19
      314.369   3.94283e-19
      314.466   4.11820e-19
      314.563   4.30084e-19
      314.660   4.49082e-19
      314.756   4.68672e-19
      314.853   4.89264e-19
      314.950   5.10699e-19
      315.047   5.33005e-19
      315.144   5.56225e-19
      315.241   5.80374e-19
      315.338   6.05507e-19
      315.435   6.31639e-19
      315.532   6.58819e-19
      315.629   6.87076e-19
      315.726   7.16464e-19
      315.823   7.47040e-19
      315.921   7.79123e-19
      316.018   8.12162e-19
      316.115   8.46497e-19
      316.212   8.82179e-19
      316.310   9.19634e-19
      316.407   9.58151e-19
      316.504   9.98187e-19
      316.602   1.04019e-18
      316.699   1.08339e-18
      316.796   1.12822e-18
      316.894   1.17527e-18
      316.991   1.22368e-18
      317.089   1.27481e-18
      317.187   1.32811e-18
      317.284   1.38289e-18
      317.382   1.44035e-18
      317.479   1.49942e-18
      317.577   1.56134e-18
      317.675   1.62560e-18
      317.773   1.69235e-18
      317.870   1.76091e-18
      317.968   1.83284e-18
      318.066   1.90745e-18
      318.164   1.98486e-18
      318.262   2.06517e-18
      318.360   2.14852e-18
      318.458   2.23495e-18
      318.556   2.32457e-18
      318.654   2.41752e-18
      318.752   2.51388e-18
      318.850   2.61379e-18
      318.948   2.71741e-18
      319.046   2.82483e-18
      319.144   2.93617e-18
      319.242   3.05150e-18
      319.341   3.17230e-18
      319.439   3.29618e-18
      319.537   3.42453e-18
      319.635   3.55751e-18
      319.734   3.69663e-18
      319.832   3.83929e-18
      319.930   3.98705e-18
      320.029   4.14160e-18
      320.127   4.30001e-18
      320.226   4.46575e-18
      320.324   4.63563e-18
      320.423   4.81325e-18
      320.522   4.99707e-18
      320.620   5.18537e-18
      320.719   5.38224e-18
      320.818   5.58601e-18
      320.916   5.79468e-18
      321.015   6.01282e-18
      321.114   6.23840e-18
      321.213   6.47181e-18
      321.311   6.71069e-18
      321.410   6.96011e-18
      321.509   7.21819e-18
      321.608   7.48484e-18
      321.707   7.76067e-18
      321.806   8.04587e-18
      321.905   8.34046e-18
      322.004   8.64522e-18
      322.103   9.00441e-18
      322.202   9.45439e-18
      322.301   9.95881e-18
      322.401   1.04936e-17
      322.500   1.10492e-17
      322.599   1.16319e-17
      322.698   1.22430e-17
      322.798   1.28907e-17
      322.897   1.35632e-17
      322.996   1.42677e-17
      323.096   1.50142e-17
      323.195   1.57884e-17
      323.294   1.65993e-17
      323.394   1.74573e-17
      323.493   1.83473e-17
      323.593   1.92889e-17
      323.692   2.02647e-17
      323.792   2.12965e-17
      323.892   2.23765e-17
      323.991   2.34959e-17
      324.091   2.46786e-17
      324.191   2.59167e-17
      324.291   2.72112e-17
      324.390   2.85507e-17
      324.490   2.99672e-17
      324.590   3.14464e-17
      324.690   3.29926e-17
      324.790   3.46094e-17
      324.890   3.62983e-17
      324.990   3.80639e-17
      325.090   3.99086e-17
      325.190   4.18333e-17
      325.290   4.38430e-17
      325.390   4.59430e-17
      325.490   4.81336e-17
      325.590   5.04193e-17
      325.690   5.28053e-17
      325.790   5.52942e-17
      325.891   5.79169e-17
      325.991   6.06251e-17
      326.091   6.34502e-17
      326.192   6.64249e-17
      326.292   6.94955e-17
      326.392   7.26942e-17
      326.493   7.60623e-17
      326.593   7.95372e-17
      326.694   8.31906e-17
      326.794   8.69606e-17
      326.895   9.09263e-17
      326.995   9.50153e-17
      327.096   9.93116e-17
      327.197   1.03786e-16
      327.297   1.08405e-16
      327.398   1.13274e-16
      327.499   1.18349e-16
      327.599   1.23581e-16
      327.700   1.29076e-16
      327.801   1.34791e-16
      327.902   1.40733e-16
      328.003   1.46916e-16
      328.104   1.53344e-16
      328.205   1.60027e-16
      328.306   1.66971e-16
      328.407   1.74186e-16
      328.508   1.81683e-16
      328.609   1.89471e-16
      328.710   1.97558e-16
      328.811   2.05957e-16
      328.912   2.14680e-16
      329.013   2.23731e-16
      329.115   2.33222e-16
      329.216   2.42978e-16
      329.317   2.53097e-16
      329.419   2.63698e-16
      329.520   2.74593e-16
      329.621   2.85890e-16
      329.723   2.97729e-16
      329.824   3.09863e-16
      329.926   3.22575e-16
      330.027   3.35629e-16
      330.129   3.49289e-16
      330.230   3.63296e-16
      330.332   3.77961e-16
      330.434   3.93147e-16
      330.535   4.08726e-16
      330.637   4.25014e-16
      330.739   4.41865e-16
      330.840   4.59148e-16
      330.942   4.77217e-16
      331.044   4.95915e-16
      331.146   5.15258e-16
      331.248   5.35273e-16
      331.350   5.55974e-16
      331.452   5.77402e-16
      331.554   5.99870e-16
      331.656   6.23649e-16
      331.758   6.48259e-16
      331.860   6.73750e-16
      331.962   7.00126e-16
      332.064   7.27419e-16
      332.166   7.55650e-16
      332.268   7.84871e-16
      332.371   8.15378e-16
      332.473   8.46633e-16
      332.575   8.77611e-16
      332.677   9.05104e-16
      332.780   9.29998e-16
      332.882   9.55246e-16
      332.985   9.81325e-16
      333.087   1.00777e-15
      333.190   1.03509e-15
      333.292   1.06245e-15
      333.395   1.08986e-15
      333.497   1.11724e-15
      333.600   1.14547e-15
      333.702   1.17402e-15
      333.805   1.20343e-15
      333.908   1.23351e-15
      334.011   1.26419e-15
      334.113   1.29518e-15
      334.216   1.32714e-15
      334.319   1.35975e-15
      334.422   1.39303e-15
      334.525   1.42699e-15
      334.628   1.46163e-15
      334.731   1.49695e-15
      334.834   1.53300e-15
      334.937   1.56978e-15
      335.040   1.60730e-15
      335.143   1.64551e-15
      335.246   1.68450e-15
      335.349   1.72423e-15
      335.452   1.76473e-15
      335.555   1.80602e-15
      335.659   1.84853e-15
      335.762   1.89146e-15
      335.865   1.93517e-15
      335.969   1.98015e-15
      336.072   2.02556e-15
      336.175   2.07178e-15
      336.279   2.11932e-15
      336.382   2.16730e-15
      336.486   2.21666e-15
      336.589   2.26641e-15
      336.693   2.31758e-15
      336.796   2.36914e-15
      336.900   2.42221e-15
      337.004   2.47625e-15
      337.107   2.53064e-15
      337.211   2.58662e-15
      337.315   2.64356e-15
      337.419   2.70153e-15
      337.523   2.76048e-15
      337.626   2.81989e-15
      337.730   2.88095e-15
      337.834   2.94304e-15
      337.938   3.00608e-15
      338.042   3.06978e-15
      338.146   3.13449e-15
      338.250   3.20028e-15
      338.354   3.26720e-15
      338.458   3.33524e-15
      338.562   3.40441e-15
      338.667   3.47538e-15
      338.771   3.54685e-15
      338.875   3.61946e-15
      338.979   3.69327e-15
      339.084   3.76897e-15
      339.188   3.84512e-15
      339.292   3.92256e-15
      339.397   4.00198e-15
      339.501   4.08187e-15
      339.606   4.16387e-15
      339.710   4.24628e-15
      339.815   4.33085e-15
      339.919   4.41584e-15
      340.024   4.50306e-15
      340.128   4.59066e-15
      340.233   4.68058e-15
      340.338   4.77178e-15
      340.442   4.86351e-15
      340.547   4.95752e-15
      340.652   5.05296e-15
      340.757   5.14979e-15
      340.862   5.24810e-15
      340.966   5.34687e-15
      341.071   5.44798e-15
      341.176   5.55065e-15
      341.281   5.65480e-15
      341.386   5.76045e-15
      341.491   5.86765e-15
      341.596   5.97639e-15
      341.702   6.08775e-15
      341.807   6.19952e-15
      341.912   6.31295e-15
      342.017   6.42800e-15
      342.122   6.54463e-15
      342.228   6.66390e-15
      342.333   6.78378e-15
      342.438   6.90533e-15
      342.544   7.02963e-15
      342.649   7.15444e-15
      342.754   7.28095e-15
      342.860   7.41036e-15
      342.965   7.54039e-15
      343.071   7.67319e-15
      343.176   7.80663e-15
      343.282   7.94316e-15
      343.388   8.08142e-15
      343.493   8.22098e-15
      343.599   8.37070e-15
      343.705   8.52340e-15
      343.810   8.67664e-15
      343.916   8.83349e-15
      344.022   8.99264e-15
      344.128   9.15390e-15
      344.234   9.31753e-15
      344.340   9.48332e-15
      344.446   9.65141e-15
      344.552   9.82182e-15
      344.658   9.99470e-15
      344.764   1.01696e-14
      344.870   1.03471e-14
      344.976   1.05268e-14
      345.082   1.07091e-14
      345.188   1.08937e-14
      345.294   1.10807e-14
      345.401   1.12721e-14
      345.507   1.14641e-14
      345.613   1.16586e-14
      345.719   1.18556e-14
      345.826   1.20572e-14
      345.932   1.22593e-14
      346.039   1.24660e-14
      346.145   1.26734e-14
      346.252   1.28854e-14
      346.358   1.30980e-14
      346.465   1.33152e-14
      346.571   1.35332e-14
      346.678   1.37560e-14
      346.785   1.39816e-14
      346.891   1.42077e-14
      346.998   1.44386e-14
      347.105   1.46725e-14
      347.212   1.49094e-14
      347.319   1.51491e-14
      347.425   1.53893e-14
      347.532   1.56348e-14
      347.639   1.58830e-14
      347.746   1.61342e-14
      347.853   1.63887e-14
      347.960   1.66458e-14
      348.067   1.69061e-14
      348.174   1.71693e-14
      348.281   1.74354e-14
      348.389   1.77074e-14
      348.496   1.79796e-14
      348.603   1.82553e-14
      348.710   1.85337e-14
      348.818   1.88182e-14
      348.925   1.91012e-14
      349.032   1.92923e-14
      349.140   1.92553e-14
      349.247   1.92184e-14
      349.355   1.91812e-14
      349.462   1.91443e-14
      349.570   1.91070e-14
      349.677   1.90700e-14
      349.785   1.90325e-14
      349.892   1.89955e-14
      350.000   1.89581e-14
      350.100   1.89235e-14
      350.193   1.88912e-14
      350.287   1.88585e-14
      350.380   1.88261e-14
      350.473   1.87939e-14
      350.567   1.87611e-14
      350.660   1.87286e-14
      350.754   1.86960e-14
      350.847   1.86636e-14
      350.941   1.86307e-14
      351.034   1.85982e-14
      351.128   1.85655e-14
      351.221   1.85329e-14
      351.315   1.85002e-14
      351.409   1.84673e-14
      351.502   1.84347e-14
      351.596   1.84017e-14
      351.690   1.83688e-14
      351.783   1.83363e-14
      351.877   1.83034e-14
      351.971   1.82704e-14
      352.065   1.82375e-14
      352.159   1.82045e-14
      352.252   1.81719e-14
      352.346   1.81388e-14
      352.440   1.81058e-14
      352.534   1.80728e-14
      352.628   1.80398e-14
      352.722   1.80067e-14
      352.816   1.79737e-14
      352.910   1.79406e-14
      353.004   1.79076e-14
      353.098   1.78744e-14
      353.192   1.78413e-14
      353.287   1.78078e-14
      353.381   1.77747e-14
      353.475   1.77417e-14
      353.569   1.77084e-14
      353.663   1.76752e-14
      353.758   1.76418e-14
      353.852   1.76086e-14
      353.946   1.75754e-14
      354.041   1.75418e-14
      354.135   1.75086e-14
      354.229   1.74753e-14
      354.324   1.74418e-14
      354.418   1.74084e-14
      354.513   1.73748e-14
      354.607   1.73416e-14
      354.702   1.72812e-14
      354.796   1.72049e-14
      354.891   1.71265e-14
      354.985   1.70493e-14
      355.080   1.69716e-14
      355.175   1.68942e-14
      355.269   1.68178e-14
      355.364   1.67411e-14
      355.459   1.66646e-14
      355.553   1.65893e-14
      355.648   1.65135e-14
      355.743   1.64380e-14
      355.838   1.63627e-14
      355.933   1.62879e-14
      356.027   1.62140e-14
      356.122   1.61397e-14
      356.217   1.60657e-14
      356.312   1.59920e-14
      356.407   1.59185e-14
      356.502   1.58454e-14
      356.597   1.57726e-14
      356.692   1.57001e-14
      356.787   1.56278e-14
      356.882   1.55558e-14
      356.977   1.54842e-14
      357.073   1.54121e-14
      357.168   1.53409e-14
      357.263   1.52700e-14
      357.358   1.51995e-14
      357.453   1.51292e-14
      357.549   1.50585e-14
      357.644   1.49887e-14
      357.739   1.49193e-14
      357.835   1.48494e-14
      357.930   1.47804e-14
      358.025   1.47118e-14
      358.121   1.46426e-14
      358.216   1.45745e-14
      358.312   1.45059e-14
      358.407   1.44383e-14
      358.503   1.43702e-14
      358.598   1.43032e-14
      358.694   1.42356e-14
      358.790   1.41683e-14
      358.885   1.41019e-14
      358.981   1.40352e-14
      359.076   1.39693e-14
      359.172   1.39031e-14
      359.268   1.38369e-14
      359.364   1.37711e-14
      359.459   1.37063e-14
      359.555   1.36411e-14
      359.651   1.35759e-14
      359.747   1.35111e-14
      359.843   1.34465e-14
      359.939   1.33821e-14
      360.035   1.33181e-14
      360.131   1.32542e-14
      360.227   1.31905e-14
      360.323   1.31271e-14
      360.419   1.31396e-14
      360.515   1.32192e-14
      360.611   1.33118e-14
      360.707   1.34047e-14
      360.803   1.34977e-14
      360.899   1.35910e-14
      360.995   1.36845e-14
      361.092   1.37792e-14
      361.188   1.38731e-14
      361.284   1.39672e-14
      361.380   1.40615e-14
      361.477   1.41570e-14
      361.573   1.42517e-14
      361.669   1.43465e-14
      361.766   1.44425e-14
      361.862   1.45376e-14
      361.959   1.46339e-14
      362.055   1.47294e-14
      362.152   1.48260e-14
      362.248   1.49217e-14
      362.345   1.50186e-14
      362.441   1.51147e-14
      362.538   1.52118e-14
      362.635   1.53090e-14
      362.731   1.54054e-14
      362.828   1.55027e-14
      362.925   1.56003e-14
      363.021   1.56970e-14
      363.118   1.57947e-14
      363.215   1.58925e-14
      363.312   1.59904e-14
      363.409   1.60884e-14
      363.505   1.61853e-14
      363.602   1.62835e-14
      363.699   1.63817e-14
      363.796   1.64798e-14
      363.893   1.65780e-14
      363.990   1.66762e-14
      364.087   1.67744e-14
      364.184   1.68727e-14
      364.281   1.69710e-14
      364.378   1.70694e-14
      364.475   1.71676e-14
      364.573   1.72669e-14
      364.670   1.73651e-14
      364.767   1.74633e-14
      364.864   1.75616e-14
      364.961   1.76596e-14
      365.059   1.77588e-14
      365.156   1.78568e-14
      365.253   1.79548e-14
      365.351   1.80538e-14
      365.448   1.81516e-14
      365.545   1.82494e-14
      365.643   1.83481e-14
      365.740   1.84457e-14
      365.838   1.85443e-14
      365.935   1.86416e-14
      366.033   1.87399e-14
      366.130   1.88371e-14
      366.228   1.89700e-14
      366.326   1.91524e-14
      366.423   1.93493e-14
      366.521   1.95494e-14
      366.618   1.97485e-14
      366.716   1.99504e-14
      366.814   2.01533e-14
      366.912   2.03571e-14
      367.010   2.05622e-14
      367.107   2.07660e-14
      367.205   2.09729e-14
      367.303   2.11806e-14
      367.401   2.13892e-14
      367.499   2.15988e-14
      367.597   2.18093e-14
      367.695   2.20204e-14
      367.793   2.22325e-14
      367.891   2.24456e-14
      367.989   2.26597e-14
      368.087   2.28744e-14
      368.185   2.30898e-14
      368.283   2.33062e-14
      368.381   2.35236e-14
      368.480   2.37435e-14
      368.578   2.39624e-14
      368.676   2.41818e-14
      368.774   2.44020e-14
      368.873   2.46252e-14
      368.971   2.48469e-14
      369.069   2.50693e-14
      369.168   2.52948e-14
      369.266   2.55183e-14
      369.364   2.57427e-14
      369.463   2.59702e-14
      369.561   2.61959e-14
      369.660   2.64244e-14
      369.758   2.66512e-14
      369.857   2.68810e-14
      369.955   2.71090e-14
      370.054   2.73399e-14
      370.153   2.75713e-14
      370.251   2.78010e-14
      370.350   2.80336e-14
      370.449   2.82665e-14
      370.547   2.84975e-14
      370.646   2.87316e-14
      370.745   2.89660e-14
      370.844   2.92008e-14
      370.943   2.94361e-14
      371.041   2.96693e-14
      371.140   2.99053e-14
      371.239   3.01418e-14
      371.338   3.03787e-14
      371.437   3.06157e-14
      371.536   3.08529e-14
      371.635   3.10906e-14
      371.734   3.13287e-14
      371.833   3.15669e-14
      371.932   3.18053e-14
      372.032   3.20466e-14
      372.131   3.25095e-14
      372.230   3.34518e-14
      372.329   3.46605e-14
      372.428   3.59036e-14
      372.528   3.71942e-14
      372.627   3.85077e-14
      372.726   3.98574e-14
      372.826   4.12586e-14
      372.925   4.26840e-14
      373.024   4.41472e-14
      373.124   4.56648e-14
      373.223   4.72054e-14
      373.323   4.88034e-14
      373.422   5.04267e-14
      373.522   5.21080e-14
      373.621   5.38134e-14
      373.721   5.55808e-14
      373.820   5.73726e-14
      373.920   5.92273e-14
      374.020   6.11289e-14
      374.119   6.30539e-14
      374.219   6.50471e-14
      374.319   6.70862e-14
      374.419   6.91716e-14
      374.518   7.12852e-14
      374.618   7.34687e-14
      374.718   7.57030e-14
      374.818   7.79840e-14
      374.918   8.03153e-14
      375.018   8.27003e-14
      375.118   8.51351e-14
      375.218   8.76232e-14
      375.318   9.01639e-14
      375.418   9.27584e-14
      375.518   9.54045e-14
      375.618   9.81045e-14
      375.718   1.00860e-13
      375.818   1.03669e-13
      375.918   1.06535e-13
      376.019   1.09486e-13
      376.119   1.12465e-13
      376.219   1.15499e-13
      376.319   1.18592e-13
      376.420   1.21772e-13
      376.520   1.24978e-13
      376.620   1.28243e-13
      376.721   1.31600e-13
      376.821   1.34982e-13
      376.922   1.38485e-13
      377.022   1.42367e-13
      377.122   1.46716e-13
      377.223   1.51206e-13
      377.323   1.55745e-13
      377.424   1.60429e-13
      377.525   1.65208e-13
      377.625   1.70036e-13
      377.726   1.75011e-13
      377.827   1.80088e-13
      377.927   1.85214e-13
      378.028   1.90488e-13
      378.129   1.95867e-13
      378.230   2.01349e-13
      378.330   2.06876e-13
      378.431   2.12561e-13
      378.532   2.18346e-13
      378.633   2.24239e-13
      378.734   2.30237e-13
      378.835   2.36336e-13
      378.936   2.42539e-13
      379.037   2.48847e-13
      379.138   2.55257e-13
      379.239   2.61777e-13
      379.340   2.68398e-13
      379.441   2.75126e-13
      379.542   2.81957e-13
      379.643   2.88892e-13
      379.745   2.96004e-13
      379.846   3.03153e-13
      379.947   3.10400e-13
      380.048   3.17752e-13
      380.150   3.25286e-13
      380.251   3.32848e-13
      380.352   3.40510e-13
      380.454   3.48351e-13
      380.555   3.56220e-13
      380.656   3.64188e-13
      380.758   3.72340e-13
      380.859   3.80508e-13
      380.961   3.88855e-13
      381.062   3.97220e-13
      381.164   4.05773e-13
      381.266   4.14421e-13
      381.367   4.23081e-13
      381.469   4.31922e-13
      381.570   4.40767e-13
      381.672   4.49795e-13
      381.774   4.58923e-13
      381.876   4.68136e-13
      381.977   4.77475e-13
      382.079   4.87412e-13
      382.181   4.97809e-13
      382.283   5.08314e-13
      382.385   5.18933e-13
      382.487   5.29671e-13
      382.589   5.40502e-13
      382.691   5.51439e-13
      382.793   5.62482e-13
      382.895   5.73633e-13
      382.997   5.84885e-13
      383.099   5.96235e-13
      383.201   6.07675e-13
      383.303   6.19225e-13
      383.405   6.30858e-13
      383.507   6.42577e-13
      383.610   6.54508e-13
      383.712   6.66417e-13
      383.814   6.78399e-13
      383.916   6.90469e-13
      384.019   7.02743e-13
      384.121   7.14979e-13
      384.223   7.27281e-13
      384.326   7.39787e-13
      384.428   7.52229e-13
      384.531   7.64858e-13
      384.633   7.77439e-13
      384.736   7.90208e-13
      384.838   8.02912e-13
      384.941   8.15803e-13
      385.043   8.28626e-13
      385.146   8.41632e-13
      385.249   8.54689e-13
      385.351   8.67672e-13
      385.454   8.80836e-13
      385.557   8.94035e-13
      385.660   9.07291e-13
      385.762   9.20448e-13
      385.865   9.33772e-13
      385.968   9.47140e-13
      386.071   9.60542e-13
      386.174   9.73975e-13
      386.277   9.87427e-13
      386.380   1.00090e-12
      386.483   1.01441e-12
      386.586   1.02793e-12
      386.689   1.04147e-12
      386.792   1.05503e-12
      386.895   1.06860e-12
      386.998   1.08217e-12
      387.101   1.09078e-12
      387.204   1.08224e-12
      387.308   1.06790e-12
      387.411   1.05389e-12
      387.514   1.04007e-12
      387.617   1.02644e-12
      387.721   1.01285e-12
      387.824   9.99579e-13
      387.927   9.86469e-13
      388.031   9.73417e-13
      388.134   9.60665e-13
      388.238   9.47964e-13
      388.341   9.35540e-13
      388.445   9.23168e-13
      388.548   9.11069e-13
      388.652   8.99024e-13
      388.755   8.87250e-13
      388.859   8.75517e-13
      388.962   8.64051e-13
      389.066   8.52620e-13
      389.170   8.41352e-13
      389.274   8.30225e-13
      389.377   8.19349e-13
      389.481   8.08505e-13
      389.585   7.97815e-13
      389.689   7.87261e-13
      389.793   7.76842e-13
      389.897   7.66570e-13
      390.000   7.56521e-13
      390.104   7.46514e-13
      390.208   7.36631e-13
      390.312   7.26883e-13
      390.416   7.17258e-13
      390.520   7.07748e-13
      390.625   6.98272e-13
      390.729   6.89020e-13
      390.833   6.79883e-13
      390.937   6.70868e-13
      391.041   6.61974e-13
      391.145   6.53196e-13
      391.250   6.44447e-13
      391.354   6.35893e-13
      391.458   6.27446e-13
      391.563   6.19031e-13
      391.667   6.10810e-13
      391.771   6.02698e-13
      391.876   5.94615e-13
      391.980   5.86716e-13
      392.085   5.78848e-13
      392.189   5.71161e-13
      392.294   5.63501e-13
      392.398   5.56019e-13
      392.503   5.48564e-13
      392.607   5.41279e-13
      392.712   5.34025e-13
      392.817   5.26862e-13
      392.921   5.19870e-13
      393.026   5.12900e-13
      393.131   5.06028e-13
      393.236   4.99241e-13
      393.340   4.92614e-13
      393.445   4.86015e-13
      393.550   4.79502e-13
      393.655   4.73076e-13
      393.760   4.66738e-13
      393.865   4.60484e-13
      393.970   4.54319e-13
      394.075   4.48231e-13
      394.180   4.42229e-13
      394.285   4.36307e-13
      394.390   4.30465e-13
      394.495   4.24699e-13
      394.600   4.19013e-13
      394.706   4.13352e-13
      394.811   4.07820e-13
      394.916   4.02358e-13
      395.021   3.96972e-13
      395.126   3.91663e-13
      395.232   3.86370e-13
      395.337   3.81200e-13
      395.443   3.76053e-13
      395.548   3.71022e-13
      395.653   3.66061e-13
      395.759   3.61118e-13
      395.864   3.56290e-13
      395.970   3.51481e-13
      396.075   3.46782e-13
      396.181   3.42101e-13
      396.286   3.37526e-13
      396.392   3.32975e-13
      396.498   3.28484e-13
      396.603   3.24091e-13
      396.709   3.19720e-13
      396.815   3.15406e-13
      396.921   3.11149e-13
      397.026   3.06993e-13
      397.132   3.02851e-13
      397.238   2.98768e-13
      397.344   2.94736e-13
      397.450   2.90766e-13
      397.556   2.86842e-13
      397.662   2.82972e-13
      397.768   2.79155e-13
      397.874   2.75388e-13
      397.980   2.71672e-13
      398.086   2.68004e-13
      398.192   2.64388e-13
      398.298   2.60819e-13
      398.404   2.57299e-13
      398.510   2.53826e-13
      398.617   2.50370e-13
      398.723   2.46990e-13
      398.829   2.43654e-13
      398.935   2.40364e-13
      399.042   2.37090e-13
      399.148   2.33886e-13
      399.255   2.30700e-13
      399.361   2.27585e-13
      399.467   2.24507e-13
      399.574   2.21448e-13
      399.680   2.18455e-13
      399.787   2.15474e-13
      399.893       0.00000
      400.000       0.00000
