Filter Be-med
observation_date 22-Sept-2015 22:40:45
wavelength effective area 
      1.00000   2.78115e-10
      1.10000   7.93777e-10
      1.20000   2.06298e-09
      1.30000   4.93139e-09
      1.40000   1.11852e-08
      1.50000   2.38508e-08
      1.60000   4.82560e-08
      1.70000   9.36201e-08
      1.80000   1.74161e-07
      1.90000   3.12744e-07
      2.00000   5.43156e-07
      2.10000   9.16384e-07
      2.20000   1.50910e-06
      2.30000   2.42245e-06
      2.40000   3.79714e-06
      2.50000   5.79304e-06
      2.60000   8.82394e-06
      2.70000   1.31283e-05
      2.80000   1.91553e-05
      2.90000   2.76560e-05
      3.00000   3.92981e-05
      3.10000   5.51135e-05
      3.20000   7.64337e-05
      3.30000   0.000104899
      3.40000   0.000142431
      3.50000   0.000191475
      3.60000   0.000256147
      3.70000   0.000338942
      3.80000   0.000446506
      3.90000   0.000584771
      4.00000   0.000760865
      4.10000   0.000985106
      4.20000    0.00127064
      4.30000    0.00163379
      4.40000    0.00209443
      4.50000    0.00267670
      4.60000    0.00340829
      4.70000    0.00433806
      4.80000    0.00551361
      4.90000    0.00691569
      5.00000    0.00889818
      5.10000     0.0112846
      5.20000     0.0143457
      5.30000     0.0180780
      5.40000     0.0227325
      5.50000     0.0286233
      5.60000     0.0349221
      5.70000     0.0448689
      5.80000     0.0519538
      5.90000     0.0783210
      6.00000      0.103903
      6.10000      0.130991
      6.20000      0.158627
      6.30000      0.184058
      6.40000      0.204757
      6.50000      0.218612
      6.60000      0.222732
      6.70000      0.225869
      6.80000      0.222399
      6.90000      0.286720
      7.00000      0.306217
      7.10000      0.317861
      7.20000      0.325284
      7.30000      0.329658
      7.40000      0.331013
      7.50000      0.330369
      7.60000      0.327888
      7.70000      0.322831
      7.80000      0.314753
      7.90000      0.307014
      8.00000      0.433051
      8.10000      0.462352
      8.20000      0.457880
      8.30000      0.451209
      8.40000      0.442552
      8.50000      0.433036
      8.60000      0.422632
      8.70000      0.411664
      8.80000      0.400099
      8.90000      0.388159
      9.00000      0.375891
      9.10000      0.363368
      9.20000      0.350682
      9.30000      0.337898
      9.40000      0.325053
      9.50000      0.312196
      9.60000      0.299408
      9.70000      0.286696
      9.80000      0.274117
      9.90000      0.261739
      10.0000      0.249592
      10.1000      0.237670
      10.2000      0.225995
      10.3000      0.214605
      10.4000      0.203523
      10.5000      0.192735
      10.6000      0.182257
      10.7000      0.172100
      10.8000      0.162290
      10.9000      0.152855
      11.0000      0.143764
      11.1000      0.135026
      11.2000      0.126641
      11.3000      0.118611
      11.4000      0.110931
      11.5000      0.103598
      11.6000     0.0966104
      11.7000     0.0899764
      11.8000     0.0836748
      11.9000     0.0776840
      12.0000     0.0719280
      12.1000     0.0667208
      12.2000     0.0629345
      12.3000     0.0586800
      12.4000     0.0542374
      12.5000     0.0500299
      12.6000     0.0460730
      12.7000     0.0423656
      12.8000     0.0388992
      12.9000     0.0356630
      13.0000     0.0326484
      13.1000     0.0298454
      13.2000     0.0272474
      13.3000     0.0248562
      13.4000     0.0226533
      13.5000     0.0206187
      13.6000     0.0187539
      13.7000     0.0170351
      13.8000     0.0154524
      13.9000     0.0139974
      14.0000     0.0126612
      14.1000     0.0114336
      14.2000     0.0103064
      14.3000    0.00927371
      14.4000    0.00832995
      14.5000    0.00747390
      14.6000    0.00670187
      14.7000    0.00599913
      14.8000    0.00536033
      14.9000    0.00478043
      15.0000    0.00425482
      15.1000    0.00377926
      15.2000    0.00335840
      15.3000    0.00297993
      15.4000    0.00263850
      15.5000    0.00233097
      15.6000    0.00205452
      15.7000    0.00180994
      15.8000    0.00159458
      15.9000    0.00140137
      16.0000    0.00122833
      16.1000    0.00107367
      16.2000   0.000939819
      16.3000   0.000821579
      16.4000   0.000715998
      16.5000   0.000621944
      16.6000   0.000540188
      16.7000   0.000469500
      16.8000   0.000406563
      16.9000   0.000350701
      17.0000   0.000302648
      17.1000   0.000261562
      17.2000   0.000225255
      17.3000   0.000193293
      17.4000   0.000166511
      17.5000   0.000143131
      17.6000   0.000122554
      17.7000   0.000105052
      17.8000   9.08550e-05
      17.9000   7.82385e-05
      18.0000   6.70235e-05
      18.1000   5.77811e-05
      18.2000   4.95023e-05
      18.3000   4.20510e-05
      18.4000   3.57016e-05
      18.5000   3.01842e-05
      18.6000   2.52565e-05
      18.7000   2.11016e-05
      18.8000   1.76229e-05
      18.9000   1.45740e-05
      19.0000   1.21045e-05
      19.1000   1.00480e-05
      19.2000   8.24882e-06
      19.3000   6.82250e-06
      19.4000   5.63501e-06
      19.5000   4.60820e-06
      19.6000   3.84064e-06
      19.7000   3.17438e-06
      19.8000   2.59792e-06
      19.9000   2.15944e-06
      20.0000   1.76915e-06
      20.1000   1.44902e-06
      20.2000   1.19317e-06
      20.3000   9.67086e-07
      20.4000   7.94239e-07
      20.5000   6.46519e-07
      20.6000   5.21193e-07
      20.7000   4.26847e-07
      20.8000   3.42700e-07
      20.9000   2.78098e-07
      21.0000   2.24309e-07
      21.1000   1.78644e-07
      21.2000   1.45013e-07
      21.3000   1.14879e-07
      21.4000   9.25140e-08
      21.5000   7.35986e-08
      21.6000   5.81754e-08
      21.7000   4.65317e-08
      21.8000   3.61554e-08
      21.9000   2.89951e-08
      22.0000   2.25591e-08
      22.1000   1.77952e-08
      22.2000   1.38961e-08
      22.3000   1.07486e-08
      22.4000   8.31723e-09
      22.5000   6.12017e-09
      22.6000   4.40694e-09
      22.7000   2.98719e-09
      22.8000   2.87307e-09
      22.9000   2.84882e-09
      23.0000   2.89986e-09
      23.1000   2.70347e-09
      23.2000   2.27935e-09
      23.3000   1.86184e-09
      23.4000   1.44857e-09
      23.5000   1.15129e-09
      23.6000   8.82989e-10
      23.7000   7.02829e-10
      23.8000   5.32491e-10
      23.9000   4.23679e-10
      24.0000   3.20519e-10
      24.1000   2.52932e-10
      24.2000   1.90925e-10
      24.3000   1.49578e-10
      24.4000   1.12697e-10
      24.5000   8.76913e-11
      24.6000   6.58981e-11
      24.7000   5.09779e-11
      24.8000   3.81928e-11
      24.9000   2.93967e-11
      25.0000   2.19360e-11
      25.1000   1.68173e-11
      25.2000   1.24867e-11
      25.3000   9.54477e-12
      25.4000   7.04257e-12
      25.5000   5.37437e-12
      25.6000   3.93582e-12
      25.7000   3.00222e-12
      25.8000   2.17894e-12
      25.9000   1.66342e-12
      26.0000   1.19460e-12
      26.1000   9.13777e-13
      26.2000   6.48270e-13
      26.3000   4.97474e-13
      26.4000   3.48118e-13
      26.5000   2.68290e-13
      26.6000   1.88852e-13
      26.7000   1.43245e-13
      26.8000   1.01818e-13
      26.9000   7.56761e-14
      27.0000   5.43834e-14
      27.1000   3.95152e-14
      27.2000   2.87351e-14
      27.3000   2.03977e-14
      27.4000   1.50909e-14
      27.5000   1.04876e-14
      27.6000   7.84222e-15
      27.7000   5.28571e-15
      27.8000   4.00502e-15
      27.9000   2.73049e-15
      28.0000   2.01457e-15
      28.1000   1.40964e-15
      28.2000   9.98170e-16
      28.3000   7.15911e-16
      28.4000   4.86750e-16
      28.5000   3.57325e-16
      28.6000   2.33424e-16
      28.7000   1.75140e-16
      28.8000   1.17142e-16
      28.9000   8.42426e-17
      29.0000   5.85735e-17
      29.1000   3.97245e-17
      29.2000   2.85729e-17
      29.3000   1.83516e-17
      29.4000   1.35989e-17
      29.5000   8.86995e-18
      29.6000   6.31501e-18
      29.7000   4.33876e-18
      29.8000   2.86146e-18
      29.9000   2.05170e-18
      30.0000   1.26496e-18
      30.1000   9.39840e-19
      30.2000   6.16353e-19
      30.3000   4.20956e-19
      30.4000   2.98951e-19
      30.5000   1.92126e-19
      30.6000   1.39954e-19
      30.7000   8.80456e-20
      30.8000   6.09752e-20
      30.9000   4.14242e-20
      31.0000   2.57301e-20
      31.1000   1.86199e-20
      31.2000   1.15458e-20
      31.3000   8.12566e-21
      31.4000   5.49660e-21
      31.5000   3.41141e-21
      31.6000   2.45537e-21
      31.7000   1.50424e-21
      31.8000   1.04236e-21
      31.9000   7.04547e-22
      32.0000   4.24828e-22
      32.1000   3.09747e-22
      32.2000   1.95256e-22
      32.3000   1.31955e-22
      32.4000   9.13077e-23
      32.5000   5.37465e-23
      32.6000   3.96317e-23
      32.7000   2.55884e-23
      32.8000   1.62493e-23
      32.9000   1.14766e-23
      33.0000   6.72857e-24
      33.1000   4.76771e-24
      33.2000   3.19084e-24
      33.3000   1.86849e-24
      33.4000   1.35634e-24
      33.5000   8.46751e-25
      33.6000   5.34906e-25
      33.7000   3.73285e-25
      33.8000   2.12456e-25
      33.9000   1.48988e-25
      34.0000   9.91828e-26
      34.1000   5.54057e-26
      34.2000   4.03593e-26
      34.3000   2.53820e-26
      34.4000   1.50358e-26
      34.5000   1.06242e-26
      34.6000   6.23331e-27
      34.7000   3.97813e-27
      34.8000   2.71720e-27
      34.9000   1.46207e-27
      35.0000   1.02546e-27
      35.1000   6.74877e-28
      35.2000   3.53177e-28
      35.3000   2.57854e-28
      35.4000   1.62970e-28
      35.5000   8.83812e-29
      35.6000   6.32811e-29
      35.7000   3.82968e-29
      35.8000   2.15932e-29
      35.9000   1.51663e-29
      36.0000   8.76920e-30
      36.1000   5.15087e-30
      36.2000   3.55212e-30
      36.3000   1.96078e-30
      36.4000   1.20011e-30
      36.5000   8.13856e-31
      36.6000   4.29416e-31
      36.7000   2.73168e-31
      36.8000   1.82588e-31
      36.9000   9.24362e-32
      37.0000   6.07468e-32
      37.1000   4.01415e-32
      37.2000   1.96320e-32
      37.3000   1.31954e-32
      37.4000   8.65195e-33
      37.5000   4.12998e-33
      37.6000   2.79952e-33
      37.7000   1.82916e-33
      37.8000   8.63393e-34
      37.9000   5.80018e-34
      38.0000   3.79308e-34
      38.1000   1.79541e-34
      38.2000   1.17243e-34
      38.3000   7.70707e-35
      38.4000   3.70870e-35
      38.5000   2.30891e-35
      38.6000   1.53211e-35
      38.7000   7.58963e-36
      38.8000   4.42739e-36
      38.9000   2.97644e-36
      39.0000   1.53227e-36
      39.1000   8.25899e-37
      39.2000   5.64135e-37
      39.3000   3.03595e-37
      39.4000   1.49475e-37
      39.5000   1.03636e-37
      39.6000   5.80143e-38
      39.7000   2.54640e-38
      39.8000   1.80041e-38
      39.9000   1.05793e-38
      40.0000   4.18404e-39
      40.1000   3.01975e-39
      40.2000   1.86092e-39
      40.3000   7.07694e-40
      40.4000   4.89136e-40
      40.5000   3.15218e-40
      40.6000   1.42111e-40
      40.7000   7.63217e-41
      40.8000   5.12497e-41
      40.9000   2.62982e-41
      41.0000   1.14444e-41
      41.1000   7.97759e-42
      41.2000   4.52760e-42
      41.3000   1.64793e-42
      41.4000   1.18550e-42
      41.5000   7.28675e-43
      41.6000   2.77457e-43
      41.7000   1.66755e-43
      41.8000   1.09301e-43
      41.9000   5.04467e-44
      42.0000   2.24208e-44
      42.1000   1.96182e-44
      42.2000   7.00649e-45
      42.3000   2.80260e-45
      42.4000   2.80260e-45
      42.5000   2.80260e-45
      42.6000  -2.80260e-45
      42.7000       0.00000
      42.8000       0.00000
      42.9000       0.00000
      43.0000       0.00000
      43.1000       0.00000
      43.2000       0.00000
      43.3000       0.00000
      43.4000       0.00000
      43.5000       0.00000
      43.6000       0.00000
      43.7000       0.00000
      43.8000       0.00000
      43.9000       0.00000
      44.0000       0.00000
      44.1000       0.00000
      44.2000       0.00000
      44.3000       0.00000
      44.4000       0.00000
      44.5000       0.00000
      44.6000       0.00000
      44.7000       0.00000
      44.8000       0.00000
      44.9000       0.00000
      45.0000       0.00000
      45.1000       0.00000
      45.2000       0.00000
      45.3000       0.00000
      45.4000       0.00000
      45.5000       0.00000
      45.6000       0.00000
      45.7000       0.00000
      45.8000       0.00000
      45.9000       0.00000
      46.0000       0.00000
      46.1000       0.00000
      46.2000       0.00000
      46.3000       0.00000
      46.4000       0.00000
      46.5000       0.00000
      46.6000       0.00000
      46.7000       0.00000
      46.8000       0.00000
      46.9000       0.00000
      47.0000       0.00000
      47.1000       0.00000
      47.2000       0.00000
      47.3000       0.00000
      47.4000       0.00000
      47.5000       0.00000
      47.6000       0.00000
      47.7000       0.00000
      47.8000       0.00000
      47.9000       0.00000
      48.0000       0.00000
      48.1000       0.00000
      48.2000       0.00000
      48.3000       0.00000
      48.4000       0.00000
      48.5000       0.00000
      48.6000       0.00000
      48.7000       0.00000
      48.8000       0.00000
      48.9000       0.00000
      49.0000       0.00000
      49.1000       0.00000
      49.2000       0.00000
      49.3000       0.00000
      49.4000       0.00000
      49.5000       0.00000
      49.6000       0.00000
      49.7000       0.00000
      49.8000       0.00000
      49.9000       0.00000
      50.0000       0.00000
      50.1000       0.00000
      50.2000       0.00000
      50.3000       0.00000
      50.4000       0.00000
      50.5000       0.00000
      50.6000       0.00000
      50.7000       0.00000
      50.8000       0.00000
      50.9000       0.00000
      51.0000       0.00000
      51.1000       0.00000
      51.2000       0.00000
      51.3000       0.00000
      51.4000       0.00000
      51.5000       0.00000
      51.6000       0.00000
      51.7000       0.00000
      51.8000       0.00000
      51.9000       0.00000
      52.0000       0.00000
      52.1000       0.00000
      52.2000       0.00000
      52.3000       0.00000
      52.4000       0.00000
      52.5000       0.00000
      52.6000       0.00000
      52.7000       0.00000
      52.8000       0.00000
      52.9000       0.00000
      53.0000       0.00000
      53.1000       0.00000
      53.2000       0.00000
      53.3000       0.00000
      53.4000       0.00000
      53.5000       0.00000
      53.6000       0.00000
      53.7000       0.00000
      53.8000       0.00000
      53.9000       0.00000
      54.0000       0.00000
      54.1000       0.00000
      54.2000       0.00000
      54.3000       0.00000
      54.4000       0.00000
      54.5000       0.00000
      54.6000       0.00000
      54.7000       0.00000
      54.8000       0.00000
      54.9000       0.00000
      55.0000       0.00000
      55.1000       0.00000
      55.2000       0.00000
      55.3000       0.00000
      55.4000       0.00000
      55.5000       0.00000
      55.6000       0.00000
      55.7000       0.00000
      55.8000       0.00000
      55.9000       0.00000
      56.0000       0.00000
      56.1000       0.00000
      56.2000       0.00000
      56.3000       0.00000
      56.4000       0.00000
      56.5000       0.00000
      56.6000       0.00000
      56.7000       0.00000
      56.8000       0.00000
      56.9000       0.00000
      57.0000       0.00000
      57.1000       0.00000
      57.2000       0.00000
      57.3000       0.00000
      57.4000       0.00000
      57.5000       0.00000
      57.6000       0.00000
      57.7000       0.00000
      57.8000       0.00000
      57.9000       0.00000
      58.0000       0.00000
      58.1000       0.00000
      58.2000       0.00000
      58.3000       0.00000
      58.4000       0.00000
      58.5000       0.00000
      58.6000       0.00000
      58.7000       0.00000
      58.8000       0.00000
      58.9000       0.00000
      59.0000       0.00000
      59.1000       0.00000
      59.2000       0.00000
      59.3000       0.00000
      59.4000       0.00000
      59.5000       0.00000
      59.6000       0.00000
      59.7000       0.00000
      59.8000       0.00000
      59.9000       0.00000
      60.0000       0.00000
      60.1000       0.00000
      60.2000       0.00000
      60.3000       0.00000
      60.4000       0.00000
      60.5000       0.00000
      60.6000       0.00000
      60.7000       0.00000
      60.8000       0.00000
      60.9000       0.00000
      61.0000       0.00000
      61.1000       0.00000
      61.2000       0.00000
      61.3000       0.00000
      61.4000       0.00000
      61.5000       0.00000
      61.6000       0.00000
      61.7000       0.00000
      61.8000       0.00000
      61.9000       0.00000
      62.0000       0.00000
      62.1000       0.00000
      62.2000       0.00000
      62.3000       0.00000
      62.4000       0.00000
      62.5000       0.00000
      62.6000       0.00000
      62.7000       0.00000
      62.8000       0.00000
      62.9000       0.00000
      63.0000       0.00000
      63.1000       0.00000
      63.2000       0.00000
      63.3000       0.00000
      63.4000       0.00000
      63.5000       0.00000
      63.6000       0.00000
      63.7000       0.00000
      63.8000       0.00000
      63.9000       0.00000
      64.0000       0.00000
      64.1000       0.00000
      64.2000       0.00000
      64.3000       0.00000
      64.4000       0.00000
      64.5000       0.00000
      64.6000       0.00000
      64.7000       0.00000
      64.8000       0.00000
      64.9000       0.00000
      65.0000       0.00000
      65.1000       0.00000
      65.2000       0.00000
      65.3000       0.00000
      65.4000       0.00000
      65.5000       0.00000
      65.6000       0.00000
      65.7000       0.00000
      65.8000       0.00000
      65.9000       0.00000
      66.0000       0.00000
      66.1000       0.00000
      66.2000       0.00000
      66.3000       0.00000
      66.4000       0.00000
      66.5000       0.00000
      66.6000       0.00000
      66.7000       0.00000
      66.8000       0.00000
      66.9000       0.00000
      67.0000       0.00000
      67.1000       0.00000
      67.2000       0.00000
      67.3000       0.00000
      67.4000       0.00000
      67.5000       0.00000
      67.6000       0.00000
      67.7000       0.00000
      67.8000       0.00000
      67.9000       0.00000
      68.0000       0.00000
      68.1000       0.00000
      68.2000       0.00000
      68.3000       0.00000
      68.4000       0.00000
      68.5000       0.00000
      68.6000       0.00000
      68.7000       0.00000
      68.8000       0.00000
      68.9000       0.00000
      69.0000       0.00000
      69.1000       0.00000
      69.2000       0.00000
      69.3000       0.00000
      69.4000       0.00000
      69.5000       0.00000
      69.6000       0.00000
      69.7000       0.00000
      69.8000       0.00000
      69.9000       0.00000
      70.0000       0.00000
      70.1000       0.00000
      70.2000       0.00000
      70.3000       0.00000
      70.4000       0.00000
      70.5000       0.00000
      70.6000       0.00000
      70.7000       0.00000
      70.8000       0.00000
      70.9000       0.00000
      71.0000       0.00000
      71.1000       0.00000
      71.2000       0.00000
      71.3000       0.00000
      71.4000       0.00000
      71.5000       0.00000
      71.6000       0.00000
      71.7000       0.00000
      71.8000       0.00000
      71.9000       0.00000
      72.0000       0.00000
      72.1000       0.00000
      72.2000       0.00000
      72.3000       0.00000
      72.4000       0.00000
      72.5000       0.00000
      72.6000       0.00000
      72.7000       0.00000
      72.8000       0.00000
      72.9000       0.00000
      73.0000       0.00000
      73.1000       0.00000
      73.2000       0.00000
      73.3000       0.00000
      73.4000       0.00000
      73.5000       0.00000
      73.6000       0.00000
      73.7000       0.00000
      73.8000       0.00000
      73.9000       0.00000
      74.0000       0.00000
      74.1000       0.00000
      74.2000       0.00000
      74.3000       0.00000
      74.4000       0.00000
      74.5000       0.00000
      74.6000       0.00000
      74.7000       0.00000
      74.8000       0.00000
      74.9000       0.00000
      75.0000       0.00000
      75.1000       0.00000
      75.2000       0.00000
      75.3000       0.00000
      75.4000       0.00000
      75.5000       0.00000
      75.6000       0.00000
      75.7000       0.00000
      75.8000       0.00000
      75.9000       0.00000
      76.0000       0.00000
      76.1000       0.00000
      76.2000       0.00000
      76.3000       0.00000
      76.4000       0.00000
      76.5000       0.00000
      76.6000       0.00000
      76.7000       0.00000
      76.8000       0.00000
      76.9000       0.00000
      77.0000       0.00000
      77.1000       0.00000
      77.2000       0.00000
      77.3000       0.00000
      77.4000       0.00000
      77.5000       0.00000
      77.6000       0.00000
      77.7000       0.00000
      77.8000       0.00000
      77.9000       0.00000
      78.0000       0.00000
      78.1000       0.00000
      78.2000       0.00000
      78.3000       0.00000
      78.4000       0.00000
      78.5000       0.00000
      78.6000       0.00000
      78.7000       0.00000
      78.8000       0.00000
      78.9000       0.00000
      79.0000       0.00000
      79.1000       0.00000
      79.2000       0.00000
      79.3000       0.00000
      79.4000       0.00000
      79.5000       0.00000
      79.6000       0.00000
      79.7000       0.00000
      79.8000       0.00000
      79.9000       0.00000
      80.0000       0.00000
      80.1000       0.00000
      80.2000       0.00000
      80.3000       0.00000
      80.4000       0.00000
      80.5000       0.00000
      80.6000       0.00000
      80.7000       0.00000
      80.8000       0.00000
      80.9000       0.00000
      81.0000       0.00000
      81.1000       0.00000
      81.2000       0.00000
      81.3000       0.00000
      81.4000       0.00000
      81.5000       0.00000
      81.6000       0.00000
      81.7000       0.00000
      81.8000       0.00000
      81.9000       0.00000
      82.0000       0.00000
      82.1000       0.00000
      82.2000       0.00000
      82.3000       0.00000
      82.4000       0.00000
      82.5000       0.00000
      82.6000       0.00000
      82.7000       0.00000
      82.8000       0.00000
      82.9000       0.00000
      83.0000       0.00000
      83.1000       0.00000
      83.2000       0.00000
      83.3000       0.00000
      83.4000       0.00000
      83.5000       0.00000
      83.6000       0.00000
      83.7000       0.00000
      83.8000       0.00000
      83.9000       0.00000
      84.0000       0.00000
      84.1000       0.00000
      84.2000       0.00000
      84.3000       0.00000
      84.4000       0.00000
      84.5000       0.00000
      84.6000       0.00000
      84.7000       0.00000
      84.8000       0.00000
      84.9000       0.00000
      85.0000       0.00000
      85.1000       0.00000
      85.2000       0.00000
      85.3000       0.00000
      85.4000       0.00000
      85.5000       0.00000
      85.6000       0.00000
      85.7000       0.00000
      85.8000       0.00000
      85.9000       0.00000
      86.0000       0.00000
      86.1000       0.00000
      86.2000       0.00000
      86.3000       0.00000
      86.4000       0.00000
      86.5000       0.00000
      86.6000       0.00000
      86.7000       0.00000
      86.8000       0.00000
      86.9000       0.00000
      87.0000       0.00000
      87.1000       0.00000
      87.2000       0.00000
      87.3000       0.00000
      87.4000       0.00000
      87.5000       0.00000
      87.6000       0.00000
      87.7000       0.00000
      87.8000       0.00000
      87.9000       0.00000
      88.0000       0.00000
      88.1000       0.00000
      88.2000       0.00000
      88.3000       0.00000
      88.4000       0.00000
      88.5000       0.00000
      88.6000       0.00000
      88.7000       0.00000
      88.8000       0.00000
      88.9000       0.00000
      89.0000       0.00000
      89.1000       0.00000
      89.2000       0.00000
      89.3000       0.00000
      89.4000       0.00000
      89.5000       0.00000
      89.6000       0.00000
      89.7000       0.00000
      89.8000       0.00000
      89.9000       0.00000
      90.0000       0.00000
      90.1000       0.00000
      90.2000       0.00000
      90.3000       0.00000
      90.4000       0.00000
      90.5000       0.00000
      90.6000       0.00000
      90.7000       0.00000
      90.8000       0.00000
      90.9000       0.00000
      91.0000       0.00000
      91.1000       0.00000
      91.2000       0.00000
      91.3000       0.00000
      91.4000       0.00000
      91.5000       0.00000
      91.6000       0.00000
      91.7000       0.00000
      91.8000       0.00000
      91.9000       0.00000
      92.0000       0.00000
      92.1000       0.00000
      92.2000       0.00000
      92.3000       0.00000
      92.4000       0.00000
      92.5000       0.00000
      92.6000       0.00000
      92.7000       0.00000
      92.8000       0.00000
      92.9000       0.00000
      93.0000       0.00000
      93.1000       0.00000
      93.2000       0.00000
      93.3000       0.00000
      93.4000       0.00000
      93.5000       0.00000
      93.6000       0.00000
      93.7000       0.00000
      93.8000       0.00000
      93.9000       0.00000
      94.0000       0.00000
      94.1000       0.00000
      94.2000       0.00000
      94.3000       0.00000
      94.4000       0.00000
      94.5000       0.00000
      94.6000       0.00000
      94.7000       0.00000
      94.8000       0.00000
      94.9000       0.00000
      95.0000       0.00000
      95.1000       0.00000
      95.2000       0.00000
      95.3000       0.00000
      95.4000       0.00000
      95.5000       0.00000
      95.6000       0.00000
      95.7000       0.00000
      95.8000       0.00000
      95.9000       0.00000
      96.0000       0.00000
      96.1000       0.00000
      96.2000       0.00000
      96.3000       0.00000
      96.4000       0.00000
      96.5000       0.00000
      96.6000       0.00000
      96.7000       0.00000
      96.8000       0.00000
      96.9000       0.00000
      97.0000       0.00000
      97.1000       0.00000
      97.2000       0.00000
      97.3000       0.00000
      97.4000       0.00000
      97.5000       0.00000
      97.6000       0.00000
      97.7000       0.00000
      97.8000       0.00000
      97.9000       0.00000
      98.0000       0.00000
      98.1000       0.00000
      98.2000       0.00000
      98.3000       0.00000
      98.4000       0.00000
      98.5000       0.00000
      98.6000       0.00000
      98.7000       0.00000
      98.8000       0.00000
      98.9000       0.00000
      99.0000       0.00000
      99.1000       0.00000
      99.2000       0.00000
      99.3000       0.00000
      99.4000       0.00000
      99.5000       0.00000
      99.6000       0.00000
      99.7000       0.00000
      99.8000       0.00000
      99.9000       0.00000
      100.000       0.00000
      100.100       0.00000
      100.200       0.00000
      100.300       0.00000
      100.400       0.00000
      100.500       0.00000
      100.600       0.00000
      100.700       0.00000
      100.800       0.00000
      100.900       0.00000
      101.000       0.00000
      101.100       0.00000
      101.200       0.00000
      101.300       0.00000
      101.400       0.00000
      101.500       0.00000
      101.600       0.00000
      101.700       0.00000
      101.800       0.00000
      101.900       0.00000
      102.000       0.00000
      102.100       0.00000
      102.200       0.00000
      102.300       0.00000
      102.400       0.00000
      102.500       0.00000
      102.600       0.00000
      102.700       0.00000
      102.800       0.00000
      102.900       0.00000
      103.000       0.00000
      103.100       0.00000
      103.200       0.00000
      103.300       0.00000
      103.400       0.00000
      103.500       0.00000
      103.600       0.00000
      103.700       0.00000
      103.800       0.00000
      103.900       0.00000
      104.000       0.00000
      104.100       0.00000
      104.200       0.00000
      104.300       0.00000
      104.400       0.00000
      104.500       0.00000
      104.600       0.00000
      104.700       0.00000
      104.800       0.00000
      104.900       0.00000
      105.000       0.00000
      105.100       0.00000
      105.200       0.00000
      105.300       0.00000
      105.400       0.00000
      105.500       0.00000
      105.600       0.00000
      105.700       0.00000
      105.800       0.00000
      105.900       0.00000
      106.000       0.00000
      106.100       0.00000
      106.200       0.00000
      106.300       0.00000
      106.400       0.00000
      106.500       0.00000
      106.600       0.00000
      106.700       0.00000
      106.800       0.00000
      106.900       0.00000
      107.000       0.00000
      107.100       0.00000
      107.200       0.00000
      107.300       0.00000
      107.400       0.00000
      107.500       0.00000
      107.600       0.00000
      107.700       0.00000
      107.800       0.00000
      107.900       0.00000
      108.000       0.00000
      108.100       0.00000
      108.200       0.00000
      108.300       0.00000
      108.400       0.00000
      108.500       0.00000
      108.600       0.00000
      108.700       0.00000
      108.800       0.00000
      108.900       0.00000
      109.000       0.00000
      109.100       0.00000
      109.200       0.00000
      109.300       0.00000
      109.400       0.00000
      109.500       0.00000
      109.600       0.00000
      109.700       0.00000
      109.800       0.00000
      109.900       0.00000
      110.000       0.00000
      110.100       0.00000
      110.200       0.00000
      110.300       0.00000
      110.400       0.00000
      110.500       0.00000
      110.600       0.00000
      110.700       0.00000
      110.800       0.00000
      110.900   4.87556e-35
      111.000   2.61659e-28
      111.100   3.08959e-24
      111.200   4.29031e-23
      111.300   2.16342e-22
      111.400   7.15045e-22
      111.500   9.47945e-22
      111.600   1.28512e-21
      111.700   2.37200e-21
      111.800   4.30284e-21
      111.900   5.62852e-21
      112.000   9.04899e-21
      112.100   1.62130e-20
      112.200   2.47096e-20
      112.300   3.17438e-20
      112.400   3.97055e-20
      112.500   5.27861e-20
      112.600   7.50125e-20
      112.700   1.02011e-19
      112.800   1.17848e-19
      112.900   1.52805e-19
      113.000   1.95522e-19
      113.100   2.34237e-19
      113.200   2.69235e-19
      113.300   2.74089e-19
      113.400   3.42912e-19
      113.500   4.24415e-19
      113.600   4.37846e-19
      113.700   5.27382e-19
      113.800   6.00398e-19
      113.900   6.68554e-19
      114.000   7.12376e-19
      114.100   7.43561e-19
      114.200   9.57281e-19
      114.300   1.10108e-18
      114.400   1.06912e-18
      114.500   9.79856e-19
      114.600   9.77607e-19
      114.700   9.94404e-19
      114.800   1.03779e-18
      114.900   1.14686e-18
      115.000   1.25971e-18
      115.100   1.33463e-18
      115.200   1.35523e-18
      115.300   1.37740e-18
      115.400   1.39867e-18
      115.500   1.42084e-18
      115.600   1.44278e-18
      115.700   1.46418e-18
      115.800   1.48697e-18
      115.900   1.50949e-18
      116.000   1.52848e-18
      116.100   1.53659e-18
      116.200   1.54308e-18
      116.300   1.54921e-18
      116.400   1.54904e-18
      116.500   1.51578e-18
      116.600   1.48288e-18
      116.700   1.45096e-18
      116.800   1.41941e-18
      116.900   1.38725e-18
      117.000   1.35723e-18
      117.100   1.33186e-18
      117.200   1.30973e-18
      117.300   1.28530e-18
      117.400   1.26114e-18
      117.500   1.23158e-18
      117.600   1.18941e-18
      117.700   1.14492e-18
      117.800   1.10135e-18
      117.900   1.05908e-18
      118.000   1.01776e-18
      118.100   9.77486e-19
      118.200   9.39263e-19
      118.300   9.02705e-19
      118.400   8.65495e-19
      118.500   8.29964e-19
      118.600   7.96734e-19
      118.700   7.64521e-19
      118.800   7.33198e-19
      118.900   7.03400e-19
      119.000   6.73899e-19
      119.100   6.44631e-19
      119.200   6.22633e-19
      119.300   6.10923e-19
      119.400   6.02110e-19
      119.500   5.90829e-19
      119.600   5.75292e-19
      119.700   5.58381e-19
      119.800   5.40800e-19
      119.900   5.22259e-19
      120.000   5.04768e-19
      120.100   4.88189e-19
      120.200   4.73839e-19
      120.300   4.60864e-19
      120.400   4.48225e-19
      120.500   4.34626e-19
      120.600   4.20455e-19
      120.700   4.06417e-19
      120.800   3.93009e-19
      120.900   3.81569e-19
      121.000   3.72813e-19
      121.100   3.64416e-19
      121.200   3.56810e-19
      121.300   3.48635e-19
      121.400   3.40041e-19
      121.500   3.31099e-19
      121.600   3.17050e-19
      121.700   3.03277e-19
      121.800   2.89505e-19
      121.900   2.76236e-19
      122.000   2.63171e-19
      122.100   2.50923e-19
      122.200   2.39238e-19
      122.300   2.29186e-19
      122.400   2.20731e-19
      122.500   2.12826e-19
      122.600   2.05057e-19
      122.700   1.97556e-19
      122.800   1.90086e-19
      122.900   1.83023e-19
      123.000   1.77375e-19
      123.100   1.73920e-19
      123.200   1.71526e-19
      123.300   1.72867e-19
      123.400   1.74971e-19
      123.500   1.78154e-19
      123.600   1.80394e-19
      123.700   1.79045e-19
      123.800   1.74714e-19
      123.900   1.70968e-19
      124.000   1.68058e-19
      124.100   1.67814e-19
      124.200   1.73787e-19
      124.300   1.84632e-19
      124.400   1.94418e-19
      124.500   1.94085e-19
      124.600   1.88850e-19
      124.700   1.81525e-19
      124.800   1.74529e-19
      124.900   1.67796e-19
      125.000   1.61313e-19
      125.100   1.55023e-19
      125.200   1.48970e-19
      125.300   1.43147e-19
      125.400   1.37552e-19
      125.500   1.32175e-19
      125.600   1.25536e-19
      125.700   1.18897e-19
      125.800   1.13407e-19
      125.900   1.11364e-19
      126.000   1.09587e-19
      126.100   1.07838e-19
      126.200   1.06118e-19
      126.300   1.04425e-19
      126.400   1.02759e-19
      126.500   1.01119e-19
      126.600   9.95063e-20
      126.700   9.79195e-20
      126.800   9.63588e-20
      126.900   9.48222e-20
      127.000   9.33078e-20
      127.100   9.13082e-20
      127.200   8.87641e-20
      127.300   8.60960e-20
      127.400   8.35073e-20
      127.500   8.09954e-20
      127.600   7.85588e-20
      127.700   7.61949e-20
      127.800   7.39013e-20
      127.900   7.16759e-20
      128.000   6.95170e-20
      128.100   6.74220e-20
      128.200   6.53895e-20
      128.300   6.34175e-20
      128.400   6.15050e-20
      128.500   5.96492e-20
      128.600   5.78494e-20
      128.700   5.61036e-20
      128.800   5.44095e-20
      128.900   5.27673e-20
      129.000   5.11754e-20
      129.100   4.96304e-20
      129.200   4.81284e-20
      129.300   4.66711e-20
      129.400   4.52578e-20
      129.500   4.38870e-20
      129.600   4.25576e-20
      129.700   4.12681e-20
      129.800   4.00172e-20
      129.900   3.88043e-20
      130.000   3.76281e-20
      130.100   3.64874e-20
      130.200   3.53808e-20
      130.300   3.43079e-20
      130.400   3.32674e-20
      130.500   3.22575e-20
      130.600   3.12748e-20
      130.700   3.03205e-20
      130.800   2.93950e-20
      130.900   2.84987e-20
      131.000   2.76297e-20
      131.100   2.67874e-20
      131.200   2.59703e-20
      131.300   2.51772e-20
      131.400   2.44082e-20
      131.500   2.36625e-20
      131.600   2.29393e-20
      131.700   2.22381e-20
      131.800   2.15578e-20
      131.900   2.08980e-20
      132.000   2.02583e-20
      132.100   1.96378e-20
      132.200   1.90361e-20
      132.300   1.84526e-20
      132.400   1.78867e-20
      132.500   1.73387e-20
      132.600   1.68077e-20
      132.700   1.62619e-20
      132.800   1.57232e-20
      132.900   1.52005e-20
      133.000   1.46949e-20
      133.100   1.42059e-20
      133.200   1.37331e-20
      133.300   1.32755e-20
      133.400   1.28331e-20
      133.500   1.24051e-20
      133.600   1.19913e-20
      133.700   1.15911e-20
      133.800   1.12041e-20
      133.900   1.08310e-20
      134.000   1.04703e-20
      134.100   1.01213e-20
      134.200   9.78395e-21
      134.300   9.45762e-21
      134.400   9.14207e-21
      134.500   8.83703e-21
      134.600   8.54197e-21
      134.700   8.25666e-21
      134.800   7.98084e-21
      134.900   7.71428e-21
      135.000   7.45645e-21
      135.100   7.20780e-21
      135.200   6.96746e-21
      135.300   6.73507e-21
      135.400   6.51030e-21
      135.500   6.29272e-21
      135.600   6.08216e-21
      135.700   5.87855e-21
      135.800   5.68161e-21
      135.900   5.49121e-21
      136.000   5.30703e-21
      136.100   5.12892e-21
      136.200   4.95719e-21
      136.300   4.79118e-21
      136.400   4.63070e-21
      136.500   4.47550e-21
      136.600   4.32536e-21
      136.700   4.18018e-21
      136.800   4.03979e-21
      136.900   3.90408e-21
      137.000   3.77293e-21
      137.100   3.64632e-21
      137.200   3.52408e-21
      137.300   3.40618e-21
      137.400   3.29216e-21
      137.500   3.18186e-21
      137.600   3.07516e-21
      137.700   2.97193e-21
      137.800   2.87208e-21
      137.900   2.77552e-21
      138.000   2.68216e-21
      138.100   2.59188e-21
      138.200   2.50490e-21
      138.300   2.42084e-21
      138.400   2.33957e-21
      138.500   2.26098e-21
      138.600   2.18498e-21
      138.700   2.11150e-21
      138.800   2.04045e-21
      138.900   1.97173e-21
      139.000   1.90529e-21
      139.100   1.84125e-21
      139.200   1.77971e-21
      139.300   1.72052e-21
      139.400   1.66337e-21
      139.500   1.60808e-21
      139.600   1.55456e-21
      139.700   1.50281e-21
      139.800   1.45274e-21
      139.900   1.40430e-21
      140.000   1.35764e-21
      140.100   1.31251e-21
      140.200   1.26884e-21
      140.300   1.22660e-21
      140.400   1.18573e-21
      140.500   1.14618e-21
      140.600   1.10791e-21
      140.700   1.07089e-21
      140.800   1.03522e-21
      140.900   1.00075e-21
      141.000   9.67384e-22
      141.100   9.35109e-22
      141.200   9.03888e-22
      141.300   8.73676e-22
      141.400   8.44540e-22
      141.500   8.16813e-22
      141.600   7.90356e-22
      141.700   7.64767e-22
      141.800   7.39988e-22
      141.900   7.15989e-22
      142.000   6.92747e-22
      142.100   6.70498e-22
      142.200   6.49701e-22
      142.300   6.30174e-22
      142.400   6.11306e-22
      142.500   5.92981e-22
      142.600   5.75185e-22
      142.700   5.57905e-22
      142.800   5.41130e-22
      142.900   5.24847e-22
      143.000   5.09035e-22
      143.100   4.93736e-22
      143.200   4.78912e-22
      143.300   4.64514e-22
      143.400   4.50539e-22
      143.500   4.36971e-22
      143.600   4.23797e-22
      143.700   4.11099e-22
      143.800   4.00021e-22
      143.900   3.89469e-22
      144.000   3.79206e-22
      144.100   3.69203e-22
      144.200   3.59459e-22
      144.300   3.49959e-22
      144.400   3.40738e-22
      144.500   3.32276e-22
      144.600   3.24185e-22
      144.700   3.16300e-22
      144.800   3.08595e-22
      144.900   3.01069e-22
      145.000   2.93715e-22
      145.100   2.86535e-22
      145.200   2.79543e-22
      145.300   2.72722e-22
      145.400   2.66058e-22
      145.500   2.59546e-22
      145.600   2.53183e-22
      145.700   2.46968e-22
      145.800   2.40905e-22
      145.900   2.35006e-22
      146.000   2.29236e-22
      146.100   2.23537e-22
      146.200   2.17925e-22
      146.300   2.12447e-22
      146.400   2.07096e-22
      146.500   2.01899e-22
      146.600   1.96827e-22
      146.700   1.91876e-22
      146.800   1.87030e-22
      146.900   1.82284e-22
      147.000   1.77652e-22
      147.100   1.73143e-22
      147.200   1.68754e-22
      147.300   1.64470e-22
      147.400   1.60290e-22
      147.500   1.56210e-22
      147.600   1.52227e-22
      147.700   1.48351e-22
      147.800   1.44579e-22
      147.900   1.40898e-22
      148.000   1.37305e-22
      148.100   1.33800e-22
      148.200   1.30380e-22
      148.300   1.27050e-22
      148.400   1.24319e-22
      148.500   1.22035e-22
      148.600   1.19926e-22
      148.700   1.17850e-22
      148.800   1.15808e-22
      148.900   1.13804e-22
      149.000   1.11836e-22
      149.100   1.09900e-22
      149.200   1.07994e-22
      149.300   1.06120e-22
      149.400   1.04275e-22
      149.500   1.02466e-22
      149.600   1.00687e-22
      149.700   9.89369e-23
      149.800   9.72151e-23
      149.900   9.55219e-23
      150.000   9.38562e-23
      150.100   9.22217e-23
      150.200   9.06133e-23
      150.300   8.90336e-23
      150.400   8.74795e-23
      150.500   8.59515e-23
      150.600   8.44486e-23
      150.700   8.29707e-23
      150.800   8.15184e-23
      150.900   8.00922e-23
      151.000   7.86880e-23
      151.100   7.73083e-23
      151.200   7.59513e-23
      151.300   7.46167e-23
      151.400   7.33045e-23
      151.500   7.20169e-23
      151.600   7.07509e-23
      151.700   6.95077e-23
      151.800   6.82851e-23
      151.900   6.70824e-23
      152.000   6.59681e-23
      152.100   6.55652e-23
      152.200   6.52532e-23
      152.300   6.49403e-23
      152.400   6.46280e-23
      152.500   6.43175e-23
      152.600   6.40078e-23
      152.700   6.30205e-23
      152.800   6.18060e-23
      152.900   6.06132e-23
      153.000   5.94425e-23
      153.100   5.82939e-23
      153.200   5.71661e-23
      153.300   5.62591e-23
      153.400   5.55572e-23
      153.500   5.48847e-23
      153.600   5.42211e-23
      153.700   5.35659e-23
      153.800   5.29174e-23
      153.900   5.22763e-23
      154.000   5.16493e-23
      154.100   5.10428e-23
      154.200   5.04471e-23
      154.300   4.98579e-23
      154.400   4.92764e-23
      154.500   4.87007e-23
      154.600   4.81314e-23
      154.700   4.75691e-23
      154.800   4.70129e-23
      154.900   4.64626e-23
      155.000   4.59182e-23
      155.100   4.53802e-23
      155.200   4.48478e-23
      155.300   4.43215e-23
      155.400   4.38013e-23
      155.500   4.32869e-23
      155.600   4.27773e-23
      155.700   4.22735e-23
      155.800   4.17755e-23
      155.900   4.12825e-23
      156.000   4.07954e-23
      156.100   4.03134e-23
      156.200   3.98369e-23
      156.300   3.93656e-23
      156.400   3.88992e-23
      156.500   3.84362e-23
      156.600   3.79700e-23
      156.700   3.75086e-23
      156.800   3.70521e-23
      156.900   3.66009e-23
      157.000   3.61558e-23
      157.100   3.56832e-23
      157.200   3.49971e-23
      157.300   3.40899e-23
      157.400   3.32061e-23
      157.500   3.23440e-23
      157.600   3.15041e-23
      157.700   3.06850e-23
      157.800   2.98869e-23
      157.900   2.95475e-23
      158.000   2.92511e-23
      158.100   2.89578e-23
      158.200   2.86668e-23
      158.300   2.83785e-23
      158.400   2.80932e-23
      158.500   2.78104e-23
      158.600   2.75300e-23
      158.700   2.72520e-23
      158.800   2.69772e-23
      158.900   2.67047e-23
      159.000   2.64348e-23
      159.100   2.61555e-23
      159.200   2.57372e-23
      159.300   2.50944e-23
      159.400   2.44675e-23
      159.500   2.38560e-23
      159.600   2.32592e-23
      159.700   2.26773e-23
      159.800   2.21093e-23
      159.900   2.18082e-23
      160.000   2.16843e-23
      160.100   2.15665e-23
      160.200   2.14491e-23
      160.300   2.13324e-23
      160.400   2.12163e-23
      160.500   2.10723e-23
      160.600   2.07679e-23
      160.700   2.03496e-23
      160.800   1.99394e-23
      160.900   1.95371e-23
      161.000   1.91428e-23
      161.100   1.87563e-23
      161.200   1.83776e-23
      161.300   1.80066e-23
      161.400   1.76427e-23
      161.500   1.72863e-23
      161.600   1.69366e-23
      161.700   1.65937e-23
      161.800   1.62575e-23
      161.900   1.59339e-23
      162.000   1.56666e-23
      162.100   1.54337e-23
      162.200   1.52042e-23
      162.300   1.49780e-23
      162.400   1.47550e-23
      162.500   1.45350e-23
      162.600   1.43184e-23
      162.700   1.41048e-23
      162.800   1.38942e-23
      162.900   1.36868e-23
      163.000   1.34823e-23
      163.100   1.32808e-23
      163.200   1.30819e-23
      163.300   1.28859e-23
      163.400   1.26928e-23
      163.500   1.25025e-23
      163.600   1.23149e-23
      163.700   1.21299e-23
      163.800   1.19477e-23
      163.900   1.17681e-23
      164.000   1.15910e-23
      164.100   1.13800e-23
      164.200   1.10750e-23
      164.300   1.07785e-23
      164.400   1.04899e-23
      164.500   1.02089e-23
      164.600   9.93540e-24
      164.700   9.66896e-24
      164.800   9.43963e-24
      164.900   9.28121e-24
      165.000   9.15177e-24
      165.100   9.02403e-24
      165.200   8.89801e-24
      165.300   8.77369e-24
      165.400   8.65118e-24
      165.500   8.53027e-24
      165.600   8.33289e-24
      165.700   8.10657e-24
      165.800   7.88381e-24
      165.900   7.66713e-24
      166.000   7.45666e-24
      166.100   7.25184e-24
      166.200   7.05261e-24
      166.300   6.85883e-24
      166.400   6.67030e-24
      166.500   6.48681e-24
      166.600   6.30832e-24
      166.700   6.13472e-24
      166.800   5.96574e-24
      166.900   5.80139e-24
      167.000   5.64161e-24
      167.100   5.48605e-24
      167.200   5.33473e-24
      167.300   5.18752e-24
      167.400   5.04434e-24
      167.500   4.90503e-24
      167.600   4.76951e-24
      167.700   4.63770e-24
      167.800   4.50949e-24
      167.900   4.38476e-24
      168.000   4.26342e-24
      168.100   4.14537e-24
      168.200   4.03054e-24
      168.300   3.91885e-24
      168.400   3.81023e-24
      168.500   3.70549e-24
      168.600   3.62517e-24
      168.700   3.55788e-24
      168.800   3.49182e-24
      168.900   3.42696e-24
      169.000   3.36331e-24
      169.100   3.30075e-24
      169.200   3.23937e-24
      169.300   3.17910e-24
      169.400   3.11991e-24
      169.500   3.06162e-24
      169.600   3.00366e-24
      169.700   2.94600e-24
      169.800   2.88919e-24
      169.900   2.83340e-24
      170.000   2.77864e-24
      170.100   2.69989e-24
      170.200   2.58719e-24
      170.300   3.26451e-24
      170.400   6.79641e-24
      170.500   1.25385e-23
      170.600   1.79520e-23
      170.700   2.19143e-23
      170.800   2.33028e-23
      170.900   2.28720e-23
      171.000   2.21441e-23
      171.100   2.14627e-23
      171.200   2.08011e-23
      171.300   2.01585e-23
      171.400   1.95346e-23
      171.500   1.89288e-23
      171.600   1.83406e-23
      171.700   1.77700e-23
      171.800   1.72163e-23
      171.900   1.66793e-23
      172.000   1.61588e-23
      172.100   1.56543e-23
      172.200   1.51655e-23
      172.300   1.46915e-23
      172.400   1.42293e-23
      172.500   1.37812e-23
      172.600   1.33474e-23
      172.700   1.29275e-23
      172.800   1.25208e-23
      172.900   1.21270e-23
      173.000   1.17460e-23
      173.100   1.13771e-23
      173.200   1.10199e-23
      173.300   1.06741e-23
      173.400   1.03392e-23
      173.500   1.00151e-23
      173.600   9.70143e-24
      173.700   9.39756e-24
      173.800   9.10352e-24
      173.900   8.81885e-24
      174.000   8.54307e-24
      174.100   8.27611e-24
      174.200   8.01760e-24
      174.300   7.76716e-24
      174.400   7.52465e-24
      174.500   7.28969e-24
      174.600   7.06205e-24
      174.700   6.84161e-24
      174.800   6.62809e-24
      174.900   6.42115e-24
      175.000   6.22059e-24
      175.100   6.02625e-24
      175.200   5.83823e-24
      175.300   5.65594e-24
      175.400   5.47931e-24
      175.500   5.30826e-24
      175.600   5.14243e-24
      175.700   4.98180e-24
      175.800   4.82609e-24
      175.900   4.67523e-24
      176.000   4.52904e-24
      176.100   4.38746e-24
      176.200   4.25027e-24
      176.300   4.11730e-24
      176.400   3.98852e-24
      176.500   3.86338e-24
      176.600   3.68476e-24
      176.700   3.48758e-24
      176.800   3.30085e-24
      176.900   3.12406e-24
      177.000   2.95662e-24
      177.100   2.79806e-24
      177.200   2.64797e-24
      177.300   2.50584e-24
      177.400   2.37122e-24
      177.500   2.24374e-24
      177.600   2.12307e-24
      177.700   2.00884e-24
      177.800   1.90069e-24
      177.900   1.79825e-24
      178.000   1.70141e-24
      178.100   1.60974e-24
      178.200   1.52293e-24
      178.300   1.44074e-24
      178.400   1.36298e-24
      178.500   1.28936e-24
      178.600   1.22112e-24
      178.700   1.16427e-24
      178.800   1.12216e-24
      178.900   1.08156e-24
      179.000   1.04241e-24
      179.100   1.00465e-24
      179.200   9.68258e-25
      179.300   9.33173e-25
      179.400   8.99339e-25
      179.500   8.66747e-25
      179.600   8.35350e-25
      179.700   8.05085e-25
      179.800   7.75908e-25
      179.900   7.47786e-25
      180.000   7.20672e-25
      180.100   6.94545e-25
      180.200   6.69374e-25
      180.300   6.45109e-25
      180.400   6.21723e-25
      180.500   5.99193e-25
      180.600   5.77474e-25
      180.700   5.56546e-25
      180.800   5.36380e-25
      180.900   5.16944e-25
      181.000   4.98208e-25
      181.100   4.80156e-25
      181.200   4.62762e-25
      181.300   4.45999e-25
      181.400   4.29849e-25
      181.500   4.14281e-25
      181.600   3.99279e-25
      181.700   3.84821e-25
      181.800   3.70887e-25
      181.900   3.57459e-25
      182.000   3.44524e-25
      182.100   3.32052e-25
      182.200   3.20150e-25
      182.300   3.09617e-25
      182.400   2.99497e-25
      182.500   2.89705e-25
      182.600   2.80234e-25
      182.700   2.71071e-25
      182.800   2.62208e-25
      182.900   2.53633e-25
      183.000   2.45339e-25
      183.100   2.37317e-25
      183.200   2.29556e-25
      183.300   2.22045e-25
      183.400   2.14780e-25
      183.500   2.07752e-25
      183.600   2.00952e-25
      183.700   1.94374e-25
      183.800   1.88013e-25
      183.900   1.81861e-25
      184.000   1.75908e-25
      184.100   1.70155e-25
      184.200   1.64593e-25
      184.300   1.59213e-25
      184.400   1.54010e-25
      184.500   1.48976e-25
      184.600   1.44104e-25
      184.700   1.39392e-25
      184.800   1.34834e-25
      184.900   1.30423e-25
      185.000   1.26156e-25
      185.100   1.22078e-25
      185.200   1.18379e-25
      185.300   1.15115e-25
      185.400   1.11940e-25
      185.500   1.08852e-25
      185.600   1.05848e-25
      185.700   1.02926e-25
      185.800   1.00090e-25
      185.900   9.73312e-26
      186.000   9.46488e-26
      186.100   9.20394e-26
      186.200   8.95008e-26
      186.300   8.70305e-26
      186.400   8.46291e-26
      186.500   8.22933e-26
      186.600   8.00202e-26
      186.700   7.78081e-26
      186.800   7.56563e-26
      186.900   7.35638e-26
      187.000   7.15282e-26
      187.100   6.95462e-26
      187.200   6.76201e-26
      187.300   6.57492e-26
      187.400   6.39290e-26
      187.500   6.21586e-26
      187.600   6.04363e-26
      187.700   5.87610e-26
      187.800   5.71315e-26
      187.900   5.55463e-26
      188.000   5.40047e-26
      188.100   5.24223e-26
      188.200   5.05990e-26
      188.300   4.84814e-26
      188.400   4.64517e-26
      188.500   4.45059e-26
      188.600   4.26434e-26
      188.700   4.08611e-26
      188.800   3.91531e-26
      188.900   3.75157e-26
      189.000   3.59457e-26
      189.100   3.44404e-26
      189.200   3.29973e-26
      189.300   3.16143e-26
      189.400   3.02888e-26
      189.500   2.90251e-26
      189.600   2.79129e-26
      189.700   2.72254e-26
      189.800   2.65577e-26
      189.900   2.59071e-26
      190.000   2.52731e-26
      190.100   2.46547e-26
      190.200   2.40514e-26
      190.300   2.34630e-26
      190.400   2.28888e-26
      190.500   2.23287e-26
      190.600   2.17826e-26
      190.700   2.12497e-26
      190.800   2.07300e-26
      190.900   2.02230e-26
      191.000   1.97293e-26
      191.100   1.92481e-26
      191.200   1.87783e-26
      191.300   1.83203e-26
      191.400   1.78735e-26
      191.500   1.74375e-26
      191.600   1.70122e-26
      191.700   1.65972e-26
      191.800   1.61922e-26
      191.900   1.57971e-26
      192.000   1.54118e-26
      192.100   1.50363e-26
      192.200   1.46706e-26
      192.300   1.43136e-26
      192.400   1.39652e-26
      192.500   1.35997e-26
      192.600   1.31623e-26
      192.700   1.26739e-26
      192.800   1.22034e-26
      192.900   1.17500e-26
      193.000   1.13133e-26
      193.100   1.08934e-26
      193.200   1.04898e-26
      193.300   1.01010e-26
      193.400   9.72663e-27
      193.500   9.36590e-27
      193.600   9.01831e-27
      193.700   8.68344e-27
      193.800   8.36096e-27
      193.900   8.05041e-27
      194.000   7.75727e-27
      194.100   7.59446e-27
      194.200   7.47540e-27
      194.300   7.36110e-27
      194.400   7.24860e-27
      194.500   7.13792e-27
      194.600   7.02893e-27
      194.700   6.92162e-27
      194.800   6.81599e-27
      194.900   6.71193e-27
      195.000   6.60953e-27
      195.100   6.50892e-27
      195.200   6.40979e-27
      195.300   6.31216e-27
      195.400   6.21598e-27
      195.500   6.11930e-27
      195.600   5.97359e-27
      195.700   5.74694e-27
      195.800   5.52873e-27
      195.900   5.31871e-27
      196.000   5.11635e-27
      196.100   4.92152e-27
      196.200   4.73399e-27
      196.300   4.55343e-27
      196.400   4.37960e-27
      196.500   4.21219e-27
      196.600   4.05109e-27
      196.700   3.89598e-27
      196.800   3.74695e-27
      196.900   3.60394e-27
      197.000   3.46629e-27
      197.100   3.33374e-27
      197.200   3.20614e-27
      197.300   3.08327e-27
      197.400   2.96495e-27
      197.500   2.85107e-27
      197.600   2.74144e-27
      197.700   2.63646e-27
      197.800   2.53547e-27
      197.900   2.43820e-27
      198.000   2.34456e-27
      198.100   2.25445e-27
      198.200   2.16769e-27
      198.300   2.08416e-27
      198.400   2.00380e-27
      198.500   1.92677e-27
      198.600   1.85274e-27
      198.700   1.78874e-27
      198.800   1.73707e-27
      198.900   1.69183e-27
      199.000   1.64772e-27
      199.100   1.60472e-27
      199.200   1.56284e-27
      199.300   1.52216e-27
      199.400   1.48254e-27
      199.500   1.44394e-27
      199.600   1.40631e-27
      199.700   1.36964e-27
      199.800   1.33392e-27
      199.900   1.29911e-27
      200.000   1.26517e-27
      200.100   1.23226e-27
      200.200   1.20017e-27
      200.300   1.16892e-27
      200.400   1.13847e-27
      200.500   1.10880e-27
      200.600   1.07992e-27
      200.700   1.05177e-27
      200.800   1.02434e-27
      200.900   9.97644e-28
      201.000   9.71645e-28
      201.100   9.46359e-28
      201.200   9.21725e-28
      201.300   8.97723e-28
      201.400   8.74352e-28
      201.500   8.51584e-28
      201.600   8.29395e-28
      201.700   8.07791e-28
      201.800   7.86744e-28
      201.900   7.65642e-28
      202.000   7.35217e-28
      202.100   7.01415e-28
      202.200   6.69162e-28
      202.300   6.38427e-28
      202.400   6.09174e-28
      202.500   5.81274e-28
      202.600   5.54629e-28
      202.700   5.29202e-28
      202.800   5.04956e-28
      202.900   4.81857e-28
      203.000   4.59809e-28
      203.100   4.38773e-28
      203.200   4.18676e-28
      203.300   3.99485e-28
      203.400   3.81167e-28
      203.500   3.63683e-28
      203.600   3.47624e-28
      203.700   3.34001e-28
      203.800   3.21150e-28
      203.900   3.08808e-28
      204.000   2.96936e-28
      204.100   2.85517e-28
      204.200   2.74539e-28
      204.300   2.63978e-28
      204.400   2.53823e-28
      204.500   2.44056e-28
      204.600   2.34662e-28
      204.700   2.25627e-28
      204.800   2.16952e-28
      204.900   2.08622e-28
      205.000   2.00609e-28
      205.100   1.92905e-28
      205.200   1.85492e-28
      205.300   1.78367e-28
      205.400   1.71513e-28
      205.500   1.64920e-28
      205.600   1.58566e-28
      205.700   1.52377e-28
      205.800   1.46409e-28
      205.900   1.40679e-28
      206.000   1.35183e-28
      206.100   1.29898e-28
      206.200   1.24817e-28
      206.300   1.19935e-28
      206.400   1.15244e-28
      206.500   1.10733e-28
      206.600   1.06398e-28
      206.700   1.02232e-28
      206.800   9.82257e-29
      206.900   9.43752e-29
      207.000   9.06752e-29
      207.100   8.71253e-29
      207.200   8.37162e-29
      207.300   8.04376e-29
      207.400   7.72859e-29
      207.500   7.42563e-29
      207.600   7.13451e-29
      207.700   6.85455e-29
      207.800   6.58547e-29
      207.900   6.32683e-29
      208.000   6.07824e-29
      208.100   5.83933e-29
      208.200   5.60966e-29
      208.300   5.38901e-29
      208.400   5.17731e-29
      208.500   4.97388e-29
      208.600   4.77828e-29
      208.700   4.59022e-29
      208.800   4.40951e-29
      208.900   4.22931e-29
      209.000   4.02891e-29
      209.100   3.81946e-29
      209.200   3.62076e-29
      209.300   3.43219e-29
      209.400   3.25343e-29
      209.500   3.08381e-29
      209.600   2.92289e-29
      209.700   2.77048e-29
      209.800   2.62625e-29
      209.900   2.48933e-29
      210.000   2.35954e-29
      210.100   2.23642e-29
      210.200   2.11964e-29
      210.300   2.00890e-29
      210.400   1.90388e-29
      210.500   1.80428e-29
      210.600   1.70984e-29
      210.700   1.62030e-29
      210.800   1.53539e-29
      210.900   1.45487e-29
      211.000   1.37853e-29
      211.100   1.30617e-29
      211.200   1.23757e-29
      211.300   1.17269e-29
      211.400   1.11122e-29
      211.500   1.05292e-29
      211.600   9.97647e-30
      211.700   9.45260e-30
      211.800   8.95567e-30
      211.900   8.48464e-30
      212.000   8.03846e-30
      212.100   7.61535e-30
      212.200   7.21421e-30
      212.300   6.81707e-30
      212.400   6.39350e-30
      212.500   5.97737e-30
      212.600   5.58808e-30
      212.700   5.22388e-30
      212.800   4.88315e-30
      212.900   4.56454e-30
      213.000   4.26669e-30
      213.100   3.98867e-30
      213.200   3.72857e-30
      213.300   3.48530e-30
      213.400   3.25770e-30
      213.500   3.04483e-30
      213.600   2.84572e-30
      213.700   2.65956e-30
      213.800   2.48541e-30
      213.900   2.32264e-30
      214.000   2.17039e-30
      214.100   2.03054e-30
      214.200   1.92889e-30
      214.300   1.85162e-30
      214.400   1.77742e-30
      214.500   1.70618e-30
      214.600   1.63780e-30
      214.700   1.57215e-30
      214.800   1.50913e-30
      214.900   1.44865e-30
      215.000   1.39056e-30
      215.100   1.33481e-30
      215.200   1.28136e-30
      215.300   1.23006e-30
      215.400   1.18081e-30
      215.500   1.13352e-30
      215.600   1.08816e-30
      215.700   1.04459e-30
      215.800   1.00275e-30
      215.900   9.62612e-31
      216.000   9.20245e-31
      216.100   8.70670e-31
      216.200   8.20443e-31
      216.300   7.73105e-31
      216.400   7.28488e-31
      216.500   6.86414e-31
      216.600   6.46772e-31
      216.700   6.09416e-31
      216.800   5.74199e-31
      216.900   5.41017e-31
      217.000   5.09744e-31
      217.100   4.80259e-31
      217.200   4.52481e-31
      217.300   4.26304e-31
      217.400   4.01629e-31
      217.500   3.78388e-31
      217.600   3.56472e-31
      217.700   3.35817e-31
      217.800   3.16361e-31
      217.900   2.97956e-31
      218.000   2.78750e-31
      218.100   2.60772e-31
      218.200   2.43948e-31
      218.300   2.28213e-31
      218.400   2.13500e-31
      218.500   1.99724e-31
      218.600   1.86836e-31
      218.700   1.74772e-31
      218.800   1.63480e-31
      218.900   1.52920e-31
      219.000   1.43031e-31
      219.100   1.33776e-31
      219.200   1.25118e-31
      219.300   1.17018e-31
      219.400   1.09437e-31
      219.500   1.02344e-31
      219.600   9.57071e-32
      219.700   8.94972e-32
      219.800   8.36896e-32
      219.900   7.82549e-32
      220.000   7.31690e-32
      220.100   6.84116e-32
      220.200   6.39615e-32
      220.300   5.97996e-32
      220.400   5.59053e-32
      220.500   5.22640e-32
      220.600   4.88586e-32
      220.700   4.56718e-32
      220.800   4.26910e-32
      220.900   3.99052e-32
      221.000   3.72987e-32
      221.100   3.48605e-32
      221.200   3.25818e-32
      221.300   3.04506e-32
      221.400   2.84574e-32
      221.500   2.65942e-32
      221.600   2.48519e-32
      221.700   2.32227e-32
      221.800   2.18078e-32
      221.900   2.07575e-32
      222.000   1.98355e-32
      222.100   1.89538e-32
      222.200   1.81113e-32
      222.300   1.73059e-32
      222.400   1.65362e-32
      222.500   1.58004e-32
      222.600   1.50974e-32
      222.700   1.44253e-32
      222.800   1.37829e-32
      222.900   1.31691e-32
      223.000   1.25823e-32
      223.100   1.20215e-32
      223.200   1.14856e-32
      223.300   1.09734e-32
      223.400   1.04840e-32
      223.500   1.00161e-32
      223.600   9.56920e-33
      223.700   9.14203e-33
      223.800   8.72514e-33
      223.900   8.26920e-33
      224.000   7.82852e-33
      224.100   7.41124e-33
      224.200   7.01605e-33
      224.300   6.64184e-33
      224.400   6.28731e-33
      224.500   5.95175e-33
      224.600   5.63385e-33
      224.700   5.33301e-33
      224.800   5.04799e-33
      224.900   4.77805e-33
      225.000   4.52252e-33
      225.100   4.28052e-33
      225.200   4.05135e-33
      225.300   3.83453e-33
      225.400   3.62907e-33
      225.500   3.43457e-33
      225.600   3.25042e-33
      225.700   3.07615e-33
      225.800   2.91107e-33
      225.900   2.79697e-33
      226.000   2.70446e-33
      226.100   2.61677e-33
      226.200   2.53189e-33
      226.300   2.44995e-33
      226.400   2.37075e-33
      226.500   2.29404e-33
      226.600   2.21973e-33
      226.700   2.14781e-33
      226.800   2.07819e-33
      226.900   2.01082e-33
      227.000   1.94559e-33
      227.100   1.88247e-33
      227.200   1.82141e-33
      227.300   1.76233e-33
      227.400   1.70515e-33
      227.500   1.64982e-33
      227.600   1.59629e-33
      227.700   1.54449e-33
      227.800   1.49437e-33
      227.900   1.44104e-33
      228.000   1.37734e-33
      228.100   1.30953e-33
      228.200   1.24503e-33
      228.300   1.18371e-33
      228.400   1.12542e-33
      228.500   1.06996e-33
      228.600   1.01724e-33
      228.700   9.67111e-34
      228.800   9.19428e-34
      228.900   8.74111e-34
      229.000   8.31016e-34
      229.100   7.90037e-34
      229.200   7.51071e-34
      229.300   7.14025e-34
      229.400   6.78803e-34
      229.500   6.45314e-34
      229.600   6.13469e-34
      229.700   5.83194e-34
      229.800   5.54410e-34
      229.900   5.27047e-34
      230.000   5.00714e-34
      230.100   4.73292e-34
      230.200   4.45951e-34
      230.300   4.20198e-34
      230.400   3.95916e-34
      230.500   3.73049e-34
      230.600   3.51518e-34
      230.700   3.31220e-34
      230.800   3.12093e-34
      230.900   2.94069e-34
      231.000   2.77077e-34
      231.100   2.61062e-34
      231.200   2.45973e-34
      231.300   2.31754e-34
      231.400   2.18357e-34
      231.500   2.05725e-34
      231.600   1.93818e-34
      231.700   1.82601e-34
      231.800   1.72032e-34
      231.900   1.62070e-34
      232.000   1.52682e-34
      232.100   1.43835e-34
      232.200   1.36709e-34
      232.300   1.31641e-34
      232.400   1.27207e-34
      232.500   1.22923e-34
      232.600   1.18784e-34
      232.700   1.14784e-34
      232.800   1.10920e-34
      232.900   1.07183e-34
      233.000   1.03568e-34
      233.100   1.00076e-34
      233.200   9.67020e-35
      233.300   9.34422e-35
      233.400   9.02927e-35
      233.500   8.72508e-35
      233.600   8.43132e-35
      233.700   8.14746e-35
      233.800   7.87016e-35
      233.900   7.60182e-35
      234.000   7.34261e-35
      234.100   7.09219e-35
      234.200   6.85043e-35
      234.300   6.61683e-35
      234.400   6.39117e-35
      234.500   6.17321e-35
      234.600   5.96264e-35
      234.700   5.75931e-35
      234.800   5.56293e-35
      234.900   5.37318e-35
      235.000   5.18987e-35
      235.100   5.01281e-35
      235.200   4.84181e-35
      235.300   4.67663e-35
      235.400   4.51701e-35
      235.500   4.36290e-35
      235.600   4.21405e-35
      235.700   4.07024e-35
      235.800   3.93152e-35
      235.900   3.79753e-35
      236.000   3.66814e-35
      236.100   3.54309e-35
      236.200   3.42229e-35
      236.300   3.30560e-35
      236.400   3.19292e-35
      236.500   3.08403e-35
      236.600   2.98450e-35
      236.700   2.90048e-35
      236.800   2.82657e-35
      236.900   2.75452e-35
      237.000   2.68429e-35
      237.100   2.61586e-35
      237.200   2.54915e-35
      237.300   2.48415e-35
      237.400   2.42079e-35
      237.500   2.35906e-35
      237.600   2.29883e-35
      237.700   2.24024e-35
      237.800   2.18315e-35
      237.900   2.12746e-35
      238.000   2.07320e-35
      238.100   2.02031e-35
      238.200   1.96876e-35
      238.300   1.91852e-35
      238.400   1.86953e-35
      238.500   1.82178e-35
      238.600   1.77525e-35
      238.700   1.72989e-35
      238.800   1.68568e-35
      238.900   1.64604e-35
      239.000   1.61946e-35
      239.100   1.59467e-35
      239.200   1.57027e-35
      239.300   1.54624e-35
      239.400   1.52256e-35
      239.500   1.49926e-35
      239.600   1.47627e-35
      239.700   1.45363e-35
      239.800   1.43136e-35
      239.900   1.40940e-35
      240.000   1.38775e-35
      240.100   1.36643e-35
      240.200   1.34544e-35
      240.300   1.32475e-35
      240.400   1.30438e-35
      240.500   1.28430e-35
      240.600   1.26454e-35
      240.700   1.24504e-35
      240.800   1.22584e-35
      240.900   1.20695e-35
      241.000   1.18833e-35
      241.100   1.16999e-35
      241.200   1.15193e-35
      241.300   1.13413e-35
      241.400   1.11660e-35
      241.500   1.09934e-35
      241.600   1.08234e-35
      241.700   1.06560e-35
      241.800   1.04909e-35
      241.900   1.03284e-35
      242.000   1.01684e-35
      242.100   1.00108e-35
      242.200   9.85567e-36
      242.300   9.70307e-36
      242.400   9.55270e-36
      242.500   9.40465e-36
      242.600   9.25878e-36
      242.700   9.11515e-36
      242.800   8.97381e-36
      242.900   8.83461e-36
      243.000   8.69748e-36
      243.100   8.56245e-36
      243.200   8.42953e-36
      243.300   8.29861e-36
      243.400   8.16977e-36
      243.500   8.04297e-36
      243.600   7.91820e-36
      243.700   7.79534e-36
      243.800   7.67441e-36
      243.900   7.55533e-36
      244.000   7.43807e-36
      244.100   7.32268e-36
      244.200   7.20911e-36
      244.300   7.09723e-36
      244.400   6.98709e-36
      244.500   6.87875e-36
      244.600   6.77201e-36
      244.700   6.66700e-36
      244.800   6.56379e-36
      244.900   6.46210e-36
      245.000   6.36201e-36
      245.100   6.26349e-36
      245.200   6.16653e-36
      245.300   6.07108e-36
      245.400   5.97708e-36
      245.500   5.88458e-36
      245.600   5.79354e-36
      245.700   5.70391e-36
      245.800   5.61570e-36
      245.900   5.52892e-36
      246.000   5.44358e-36
      246.100   5.35957e-36
      246.200   5.27682e-36
      246.300   5.19541e-36
      246.400   5.11533e-36
      246.500   5.03645e-36
      246.600   4.95877e-36
      246.700   4.88235e-36
      246.800   4.80712e-36
      246.900   4.73310e-36
      247.000   4.66026e-36
      247.100   4.58853e-36
      247.200   4.51804e-36
      247.300   4.44862e-36
      247.400   4.38029e-36
      247.500   4.31302e-36
      247.600   4.24677e-36
      247.700   4.18158e-36
      247.800   4.11743e-36
      247.900   4.05424e-36
      248.000   3.99209e-36
      248.100   3.93101e-36
      248.200   3.87090e-36
      248.300   3.81165e-36
      248.400   3.75333e-36
      248.500   3.67185e-36
      248.600   3.55271e-36
      248.700   3.41240e-36
      248.800   3.27756e-36
      248.900   3.14804e-36
      249.000   3.02356e-36
      249.100   2.90441e-36
      249.200   2.79002e-36
      249.300   2.68008e-36
      249.400   2.57441e-36
      249.500   2.47287e-36
      249.600   2.37528e-36
      249.700   2.28151e-36
      249.800   2.19138e-36
      249.900   2.10478e-36
      250.000   2.02158e-36
      250.100   1.94187e-36
      250.200   1.86533e-36
      250.300   1.79187e-36
      250.400   1.72125e-36
      250.500   1.65340e-36
      250.600   1.58823e-36
      250.700   1.52559e-36
      250.800   1.46541e-36
      250.900   1.40759e-36
      251.000   1.35204e-36
      251.100   1.29866e-36
      251.200   1.24744e-36
      251.300   1.19832e-36
      251.400   1.15113e-36
      251.500   1.10578e-36
      251.600   1.04254e-36
      251.700   9.46066e-37
      251.800   8.53420e-37
      251.900   7.69721e-37
      252.000   6.94111e-37
      252.100   6.25863e-37
      252.200   5.64213e-37
      252.300   5.08686e-37
      252.400   4.58782e-37
      252.500   4.13734e-37
      252.600   3.75234e-37
      252.700   3.53131e-37
      252.800   3.45461e-37
      252.900   3.37961e-37
      253.000   3.30623e-37
      253.100   3.23444e-37
      253.200   3.16423e-37
      253.300   3.09620e-37
      253.400   3.02992e-37
      253.500   2.96516e-37
      253.600   2.90181e-37
      253.700   2.83844e-37
      253.800   2.76987e-37
      253.900   2.70170e-37
      254.000   2.63519e-37
      254.100   2.57029e-37
      254.200   2.50698e-37
      254.300   2.44523e-37
      254.400   2.38501e-37
      254.500   2.32627e-37
      254.600   2.26894e-37
      254.700   2.21305e-37
      254.800   2.15859e-37
      254.900   2.10547e-37
      255.000   2.05365e-37
      255.100   2.00305e-37
      255.200   1.95373e-37
      255.300   1.90560e-37
      255.400   1.85865e-37
      255.500   1.81284e-37
      255.600   1.76816e-37
      255.700   1.72457e-37
      255.800   1.68203e-37
      255.900   1.64054e-37
      256.000   1.60005e-37
      256.100   1.56059e-37
      256.200   1.52211e-37
      256.300   1.48456e-37
      256.400   1.44797e-37
      256.500   1.41224e-37
      256.600   1.37738e-37
      256.700   1.34337e-37
      256.800   1.31020e-37
      256.900   1.26993e-37
      257.000   1.21840e-37
      257.100   1.16513e-37
      257.200   1.11418e-37
      257.300   1.06543e-37
      257.400   1.01893e-37
      257.500   9.74486e-38
      257.600   9.32054e-38
      257.700   8.91476e-38
      257.800   8.52632e-38
      257.900   8.15479e-38
      258.000   7.79932e-38
      258.100   7.45911e-38
      258.200   7.13368e-38
      258.300   6.82241e-38
      258.400   6.52441e-38
      258.500   6.23932e-38
      258.600   5.96666e-38
      258.700   5.70576e-38
      258.800   5.45614e-38
      258.900   5.21746e-38
      259.000   4.98903e-38
      259.100   4.77056e-38
      259.200   4.56172e-38
      259.300   4.36228e-38
      259.400   4.17139e-38
      259.500   3.98879e-38
      259.600   3.81414e-38
      259.700   3.64711e-38
      259.800   3.48729e-38
      259.900   3.33437e-38
      260.000   3.18814e-38
      260.100   3.03772e-38
      260.200   2.88134e-38
      260.300   2.73067e-38
      260.400   2.58784e-38
      260.500   2.45244e-38
      260.600   2.32401e-38
      260.700   2.20226e-38
      260.800   2.08691e-38
      260.900   1.97750e-38
      261.000   1.87388e-38
      261.100   1.77575e-38
      261.200   1.68219e-38
      261.300   1.59348e-38
      261.400   1.50943e-38
      261.500   1.42981e-38
      261.600   1.35447e-38
      261.700   1.28310e-38
      261.800   1.21547e-38
      261.900   1.15135e-38
      262.000   1.09061e-38
      262.100   1.03304e-38
      262.200   9.78519e-39
      262.300   9.26837e-39
      262.400   8.77874e-39
      262.500   8.31468e-39
      262.600   7.87497e-39
      262.700   7.45851e-39
      262.800   7.06395e-39
      262.900   6.68992e-39
      263.000   6.33592e-39
      263.100   6.00041e-39
      263.200   5.68311e-39
      263.300   5.38252e-39
      263.400   5.09769e-39
      263.500   4.82796e-39
      263.600   4.57241e-39
      263.700   4.33028e-39
      263.800   4.10087e-39
      263.900   3.88373e-39
      264.000   3.67792e-39
      264.100   3.48290e-39
      264.200   3.29816e-39
      264.300   3.12331e-39
      264.400   2.95765e-39
      264.500   2.80068e-39
      264.600   2.65199e-39
      264.700   2.51120e-39
      264.800   2.37779e-39
      264.900   2.25152e-39
      265.000   2.13191e-39
      265.100   2.01857e-39
      265.200   1.91125e-39
      265.300   1.80962e-39
      265.400   1.71201e-39
      265.500   1.61912e-39
      265.600   1.53128e-39
      265.700   1.44811e-39
      265.800   1.36955e-39
      265.900   1.29526e-39
      266.000   1.22503e-39
      266.100   1.15859e-39
      266.200   1.09575e-39
      266.300   1.03629e-39
      266.400   9.80061e-40
      266.500   9.26848e-40
      266.600   8.76528e-40
      266.700   8.28920e-40
      266.800   7.83919e-40
      266.900   7.41330e-40
      267.000   7.01044e-40
      267.100   6.62939e-40
      267.200   6.26928e-40
      267.300   5.92847e-40
      267.400   5.60606e-40
      267.500   5.30121e-40
      267.600   5.01289e-40
      267.700   4.74020e-40
      267.800   4.48224e-40
      267.900   4.23831e-40
      268.000   4.00770e-40
      268.100   3.78948e-40
      268.200   3.58327e-40
      268.300   3.38823e-40
      268.400   3.20372e-40
      268.500   3.02914e-40
      268.600   2.86416e-40
      268.700   2.70815e-40
      268.800   2.56056e-40
      268.900   2.42101e-40
      269.000   2.28916e-40
      269.100   2.16433e-40
      269.200   2.04640e-40
      269.300   1.93480e-40
      269.400   1.82931e-40
      269.500   1.72947e-40
      269.600   1.63518e-40
      269.700   1.53201e-40
      269.800   1.43214e-40
      269.900   1.33856e-40
      270.000   1.25115e-40
      270.100   1.16943e-40
      270.200   1.09305e-40
      270.300   1.02169e-40
      270.400   9.54943e-41
      270.500   8.92515e-41
      270.600   8.34137e-41
      270.700   7.79640e-41
      270.800   7.28577e-41
      270.900   6.80975e-41
      271.000   6.36372e-41
      271.100   5.94739e-41
      271.200   5.55727e-41
      271.300   5.19335e-41
      271.400   4.85340e-41
      271.500   4.53586e-41
      271.600   4.23809e-41
      271.700   3.95979e-41
      271.800   3.70041e-41
      271.900   3.45700e-41
      272.000   3.23041e-41
      272.100   3.01798e-41
      272.200   2.82053e-41
      272.300   2.63514e-41
      272.400   2.46166e-41
      272.500   2.29967e-41
      272.600   2.14833e-41
      272.700   2.00736e-41
      272.800   1.88124e-41
      272.900   1.78021e-41
      273.000   1.69207e-41
      273.100   1.60841e-41
      273.200   1.52882e-41
      273.300   1.45301e-41
      273.400   1.38084e-41
      273.500   1.31246e-41
      273.600   1.24758e-41
      273.700   1.18592e-41
      273.800   1.12720e-41
      273.900   1.06232e-41
      274.000   9.83151e-42
      274.100   9.09022e-42
      274.200   8.40639e-42
      274.300   7.77300e-42
      274.400   7.19146e-42
      274.500   6.64916e-42
      274.600   6.15030e-42
      274.700   5.68086e-42
      274.800   5.25627e-42
      274.900   4.85270e-42
      275.000   4.48556e-42
      275.100   4.15065e-42
      275.200   3.83395e-42
      275.300   3.54388e-42
      275.400   3.27483e-42
      275.500   3.02821e-42
      275.600   2.79279e-42
      275.700   2.58119e-42
      275.800   2.38641e-42
      275.900   2.20705e-42
      276.000   2.05150e-42
      276.100   1.93239e-42
      276.200   1.83710e-42
      276.300   1.73761e-42
      276.400   1.64512e-42
      276.500   1.55965e-42
      276.600   1.48257e-42
      276.700   1.40270e-42
      276.800   1.32843e-42
      276.900   1.25837e-42
      277.000   1.18830e-42
      277.100   1.12524e-42
      277.200   1.07339e-42
      277.300   1.01594e-42
      277.400   9.61291e-43
      277.500   9.08041e-43
      277.600   8.58996e-43
      277.700   8.11352e-43
      277.800   7.73517e-43
      277.900   7.28675e-43
      278.000   6.99248e-43
      278.100   6.61413e-43
      278.200   6.13769e-43
      278.300   5.68927e-43
      278.400   5.24086e-43
      278.500   4.86251e-43
      278.600   4.49817e-43
      278.700   4.18988e-43
      278.800   3.86758e-43
      278.900   3.51726e-43
      279.000   3.32108e-43
      279.100   3.06884e-43
      279.200   2.81661e-43
      279.300   2.64845e-43
      279.400   2.49431e-43
      279.500   2.32616e-43
      279.600   2.17201e-43
      279.700   2.10195e-43
      279.800   1.94780e-43
      279.900   1.82169e-43
      280.000   1.72360e-43
      280.100   1.59748e-43
      280.200   1.49939e-43
      280.300   1.40130e-43
      280.400   1.27518e-43
      280.500   1.21913e-43
      280.600   1.12104e-43
      280.700   1.05097e-43
      280.800   9.94922e-44
      280.900   9.94922e-44
      281.000   9.24857e-44
      281.100   8.68805e-44
      281.200   7.98740e-44
      281.300   7.70714e-44
      281.400   7.00649e-44
      281.500   7.00649e-44
      281.600   6.44597e-44
      281.700   6.02558e-44
      281.800   6.02558e-44
      281.900   5.46506e-44
      282.000   5.46506e-44
      282.100   5.04467e-44
      282.200   4.76441e-44
      282.300   4.76441e-44
      282.400   4.48416e-44
      282.500   4.20390e-44
      282.600   4.20390e-44
      282.700   3.78351e-44
      282.800   3.50325e-44
      282.900   3.50325e-44
      283.000   3.50325e-44
      283.100   3.22299e-44
      283.200   3.22299e-44
      283.300   2.94273e-44
      283.400   2.94273e-44
      283.500   2.52234e-44
      283.600   2.52234e-44
      283.700   2.24208e-44
      283.800   2.24208e-44
      283.900   2.24208e-44
      284.000   1.96182e-44
      284.100   1.96182e-44
      284.200   1.54143e-44
      284.300   1.54143e-44
      284.400   1.54143e-44
      284.500   1.26117e-44
      284.600   1.26117e-44
      284.700   1.26117e-44
      284.800   1.26117e-44
      284.900   1.26117e-44
      285.000   9.80909e-45
      285.100   9.80909e-45
      285.200   9.80909e-45
      285.300   9.80909e-45
      285.400   9.80909e-45
      285.500   9.80909e-45
      285.600   7.00649e-45
      285.700   7.00649e-45
      285.800   7.00649e-45
      285.900   7.00649e-45
      286.000   7.00649e-45
      286.100   7.00649e-45
      286.200   7.00649e-45
      286.300   2.80260e-45
      286.400   2.80260e-45
      286.500   2.80260e-45
      286.600   2.80260e-45
      286.700   2.80260e-45
      286.800   2.80260e-45
      286.900   2.80260e-45
      287.000   2.80260e-45
      287.100   2.80260e-45
      287.200   2.80260e-45
      287.300   2.80260e-45
      287.400   2.80260e-45
      287.500   2.80260e-45
      287.600   2.80260e-45
      287.700   2.80260e-45
      287.800       0.00000
      287.900       0.00000
      288.000       0.00000
      288.100       0.00000
      288.200       0.00000
      288.300       0.00000
      288.400       0.00000
      288.500       0.00000
      288.600       0.00000
      288.700       0.00000
      288.800       0.00000
      288.900       0.00000
      289.000       0.00000
      289.100       0.00000
      289.200       0.00000
      289.300       0.00000
      289.400       0.00000
      289.500       0.00000
      289.600       0.00000
      289.700       0.00000
      289.800       0.00000
      289.900       0.00000
      290.000       0.00000
      290.100       0.00000
      290.200       0.00000
      290.300       0.00000
      290.400       0.00000
      290.500       0.00000
      290.600       0.00000
      290.700       0.00000
      290.800       0.00000
      290.900       0.00000
      291.000       0.00000
      291.100       0.00000
      291.200       0.00000
      291.300       0.00000
      291.400       0.00000
      291.500       0.00000
      291.600       0.00000
      291.700       0.00000
      291.800       0.00000
      291.900       0.00000
      292.000       0.00000
      292.100       0.00000
      292.200       0.00000
      292.300       0.00000
      292.400       0.00000
      292.500       0.00000
      292.600       0.00000
      292.700       0.00000
      292.800       0.00000
      292.900       0.00000
      293.000       0.00000
      293.100       0.00000
      293.200       0.00000
      293.300       0.00000
      293.400       0.00000
      293.500       0.00000
      293.600       0.00000
      293.700       0.00000
      293.800       0.00000
      293.900       0.00000
      294.000       0.00000
      294.100       0.00000
      294.200       0.00000
      294.300       0.00000
      294.400       0.00000
      294.500       0.00000
      294.600       0.00000
      294.700       0.00000
      294.800       0.00000
      294.900       0.00000
      295.000       0.00000
      295.100       0.00000
      295.200       0.00000
      295.300       0.00000
      295.400       0.00000
      295.500       0.00000
      295.600       0.00000
      295.700       0.00000
      295.800       0.00000
      295.900       0.00000
      296.000       0.00000
      296.100       0.00000
      296.200       0.00000
      296.300       0.00000
      296.400       0.00000
      296.500       0.00000
      296.600       0.00000
      296.700       0.00000
      296.800       0.00000
      296.900       0.00000
      297.000       0.00000
      297.100       0.00000
      297.200       0.00000
      297.300       0.00000
      297.400       0.00000
      297.500       0.00000
      297.600       0.00000
      297.700       0.00000
      297.800       0.00000
      297.900       0.00000
      298.000       0.00000
      298.100       0.00000
      298.200       0.00000
      298.300       0.00000
      298.400       0.00000
      298.500       0.00000
      298.600       0.00000
      298.700       0.00000
      298.800       0.00000
      298.900       0.00000
      299.000       0.00000
      299.100       0.00000
      299.200       0.00000
      299.300       0.00000
      299.400       0.00000
      299.500       0.00000
      299.600       0.00000
      299.700       0.00000
      299.800       0.00000
      299.900       0.00000
      300.000       0.00000
      300.100       0.00000
      300.192       0.00000
      300.285       0.00000
      300.377       0.00000
      300.470       0.00000
      300.562       0.00000
      300.654       0.00000
      300.747       0.00000
      300.839       0.00000
      300.932       0.00000
      301.025       0.00000
      301.117       0.00000
      301.210       0.00000
      301.303       0.00000
      301.395       0.00000
      301.488       0.00000
      301.581       0.00000
      301.674       0.00000
      301.766       0.00000
      301.859       0.00000
      301.952       0.00000
      302.045       0.00000
      302.138       0.00000
      302.231       0.00000
      302.324       0.00000
      302.417       0.00000
      302.510       0.00000
      302.603       0.00000
      302.696       0.00000
      302.789       0.00000
      302.882       0.00000
      302.976       0.00000
      303.069       0.00000
      303.162       0.00000
      303.255       0.00000
      303.349       0.00000
      303.442       0.00000
      303.535       0.00000
      303.629       0.00000
      303.722       0.00000
      303.816       0.00000
      303.909       0.00000
      304.003       0.00000
      304.096       0.00000
      304.190       0.00000
      304.283       0.00000
      304.377       0.00000
      304.471       0.00000
      304.564       0.00000
      304.658       0.00000
      304.752       0.00000
      304.846       0.00000
      304.939       0.00000
      305.033       0.00000
      305.127       0.00000
      305.221       0.00000
      305.315       0.00000
      305.409       0.00000
      305.503       0.00000
      305.597       0.00000
      305.691       0.00000
      305.785       0.00000
      305.879       0.00000
      305.973       0.00000
      306.067       0.00000
      306.161       0.00000
      306.255       0.00000
      306.350       0.00000
      306.444       0.00000
      306.538       0.00000
      306.633       0.00000
      306.727       0.00000
      306.821       0.00000
      306.916       0.00000
      307.010       0.00000
      307.105       0.00000
      307.199       0.00000
      307.294       0.00000
      307.388       0.00000
      307.483       0.00000
      307.577       0.00000
      307.672       0.00000
      307.767       0.00000
      307.861       0.00000
      307.956       0.00000
      308.051       0.00000
      308.146       0.00000
      308.240       0.00000
      308.335       0.00000
      308.430       0.00000
      308.525       0.00000
      308.620       0.00000
      308.715       0.00000
      308.810       0.00000
      308.905       0.00000
      309.000       0.00000
      309.095       0.00000
      309.190       0.00000
      309.285       0.00000
      309.380       0.00000
      309.476       0.00000
      309.571       0.00000
      309.666       0.00000
      309.761       0.00000
      309.857       0.00000
      309.952       0.00000
      310.047       0.00000
      310.143       0.00000
      310.238       0.00000
      310.334       0.00000
      310.429       0.00000
      310.525       0.00000
      310.620       0.00000
      310.716       0.00000
      310.811       0.00000
      310.907       0.00000
      311.003       0.00000
      311.098       0.00000
      311.194       0.00000
      311.290       0.00000
      311.386       0.00000
      311.481       0.00000
      311.577       0.00000
      311.673       0.00000
      311.769       0.00000
      311.865       0.00000
      311.961       0.00000
      312.057       0.00000
      312.153       0.00000
      312.249       0.00000
      312.345       0.00000
      312.441       0.00000
      312.537       0.00000
      312.633       0.00000
      312.730       0.00000
      312.826       0.00000
      312.922       0.00000
      313.018       0.00000
      313.115       0.00000
      313.211       0.00000
      313.307       0.00000
      313.404       0.00000
      313.500       0.00000
      313.597       0.00000
      313.693       0.00000
      313.790       0.00000
      313.886       0.00000
      313.983       0.00000
      314.079       0.00000
      314.176       0.00000
      314.273       0.00000
      314.369       0.00000
      314.466       0.00000
      314.563       0.00000
      314.660       0.00000
      314.756       0.00000
      314.853       0.00000
      314.950       0.00000
      315.047       0.00000
      315.144       0.00000
      315.241       0.00000
      315.338       0.00000
      315.435       0.00000
      315.532       0.00000
      315.629       0.00000
      315.726       0.00000
      315.823       0.00000
      315.921       0.00000
      316.018       0.00000
      316.115       0.00000
      316.212       0.00000
      316.310       0.00000
      316.407       0.00000
      316.504       0.00000
      316.602       0.00000
      316.699       0.00000
      316.796       0.00000
      316.894       0.00000
      316.991       0.00000
      317.089       0.00000
      317.187       0.00000
      317.284       0.00000
      317.382       0.00000
      317.479       0.00000
      317.577       0.00000
      317.675       0.00000
      317.773       0.00000
      317.870       0.00000
      317.968       0.00000
      318.066       0.00000
      318.164       0.00000
      318.262       0.00000
      318.360       0.00000
      318.458       0.00000
      318.556       0.00000
      318.654       0.00000
      318.752       0.00000
      318.850       0.00000
      318.948       0.00000
      319.046       0.00000
      319.144       0.00000
      319.242       0.00000
      319.341       0.00000
      319.439       0.00000
      319.537       0.00000
      319.635       0.00000
      319.734       0.00000
      319.832       0.00000
      319.930       0.00000
      320.029       0.00000
      320.127       0.00000
      320.226       0.00000
      320.324       0.00000
      320.423       0.00000
      320.522       0.00000
      320.620       0.00000
      320.719       0.00000
      320.818       0.00000
      320.916       0.00000
      321.015       0.00000
      321.114       0.00000
      321.213       0.00000
      321.311       0.00000
      321.410       0.00000
      321.509       0.00000
      321.608       0.00000
      321.707       0.00000
      321.806       0.00000
      321.905       0.00000
      322.004       0.00000
      322.103       0.00000
      322.202       0.00000
      322.301       0.00000
      322.401       0.00000
      322.500       0.00000
      322.599       0.00000
      322.698       0.00000
      322.798       0.00000
      322.897       0.00000
      322.996       0.00000
      323.096       0.00000
      323.195       0.00000
      323.294       0.00000
      323.394       0.00000
      323.493       0.00000
      323.593       0.00000
      323.692       0.00000
      323.792       0.00000
      323.892       0.00000
      323.991       0.00000
      324.091       0.00000
      324.191       0.00000
      324.291       0.00000
      324.390       0.00000
      324.490       0.00000
      324.590       0.00000
      324.690       0.00000
      324.790       0.00000
      324.890       0.00000
      324.990       0.00000
      325.090       0.00000
      325.190       0.00000
      325.290       0.00000
      325.390       0.00000
      325.490       0.00000
      325.590       0.00000
      325.690       0.00000
      325.790       0.00000
      325.891       0.00000
      325.991       0.00000
      326.091       0.00000
      326.192       0.00000
      326.292       0.00000
      326.392       0.00000
      326.493       0.00000
      326.593       0.00000
      326.694       0.00000
      326.794       0.00000
      326.895       0.00000
      326.995       0.00000
      327.096       0.00000
      327.197       0.00000
      327.297       0.00000
      327.398       0.00000
      327.499       0.00000
      327.599       0.00000
      327.700       0.00000
      327.801       0.00000
      327.902       0.00000
      328.003       0.00000
      328.104       0.00000
      328.205       0.00000
      328.306       0.00000
      328.407       0.00000
      328.508       0.00000
      328.609       0.00000
      328.710       0.00000
      328.811       0.00000
      328.912       0.00000
      329.013       0.00000
      329.115       0.00000
      329.216       0.00000
      329.317       0.00000
      329.419       0.00000
      329.520       0.00000
      329.621       0.00000
      329.723       0.00000
      329.824       0.00000
      329.926       0.00000
      330.027       0.00000
      330.129       0.00000
      330.230       0.00000
      330.332       0.00000
      330.434       0.00000
      330.535       0.00000
      330.637       0.00000
      330.739       0.00000
      330.840       0.00000
      330.942       0.00000
      331.044       0.00000
      331.146       0.00000
      331.248       0.00000
      331.350       0.00000
      331.452       0.00000
      331.554       0.00000
      331.656       0.00000
      331.758       0.00000
      331.860       0.00000
      331.962       0.00000
      332.064       0.00000
      332.166       0.00000
      332.268       0.00000
      332.371       0.00000
      332.473       0.00000
      332.575       0.00000
      332.677       0.00000
      332.780       0.00000
      332.882       0.00000
      332.985       0.00000
      333.087       0.00000
      333.190       0.00000
      333.292       0.00000
      333.395       0.00000
      333.497       0.00000
      333.600       0.00000
      333.702       0.00000
      333.805       0.00000
      333.908       0.00000
      334.011       0.00000
      334.113       0.00000
      334.216       0.00000
      334.319       0.00000
      334.422       0.00000
      334.525       0.00000
      334.628       0.00000
      334.731       0.00000
      334.834       0.00000
      334.937       0.00000
      335.040       0.00000
      335.143       0.00000
      335.246       0.00000
      335.349       0.00000
      335.452       0.00000
      335.555       0.00000
      335.659       0.00000
      335.762       0.00000
      335.865       0.00000
      335.969       0.00000
      336.072       0.00000
      336.175       0.00000
      336.279       0.00000
      336.382       0.00000
      336.486       0.00000
      336.589       0.00000
      336.693       0.00000
      336.796       0.00000
      336.900       0.00000
      337.004       0.00000
      337.107       0.00000
      337.211       0.00000
      337.315       0.00000
      337.419       0.00000
      337.523       0.00000
      337.626       0.00000
      337.730       0.00000
      337.834       0.00000
      337.938       0.00000
      338.042       0.00000
      338.146       0.00000
      338.250       0.00000
      338.354       0.00000
      338.458       0.00000
      338.562       0.00000
      338.667       0.00000
      338.771       0.00000
      338.875       0.00000
      338.979       0.00000
      339.084       0.00000
      339.188       0.00000
      339.292       0.00000
      339.397       0.00000
      339.501       0.00000
      339.606       0.00000
      339.710       0.00000
      339.815       0.00000
      339.919       0.00000
      340.024       0.00000
      340.128       0.00000
      340.233       0.00000
      340.338       0.00000
      340.442       0.00000
      340.547       0.00000
      340.652       0.00000
      340.757       0.00000
      340.862       0.00000
      340.966       0.00000
      341.071       0.00000
      341.176       0.00000
      341.281       0.00000
      341.386       0.00000
      341.491       0.00000
      341.596       0.00000
      341.702       0.00000
      341.807       0.00000
      341.912       0.00000
      342.017       0.00000
      342.122       0.00000
      342.228       0.00000
      342.333       0.00000
      342.438       0.00000
      342.544       0.00000
      342.649       0.00000
      342.754       0.00000
      342.860       0.00000
      342.965       0.00000
      343.071       0.00000
      343.176       0.00000
      343.282       0.00000
      343.388       0.00000
      343.493       0.00000
      343.599       0.00000
      343.705       0.00000
      343.810       0.00000
      343.916       0.00000
      344.022       0.00000
      344.128       0.00000
      344.234       0.00000
      344.340       0.00000
      344.446       0.00000
      344.552       0.00000
      344.658       0.00000
      344.764       0.00000
      344.870       0.00000
      344.976       0.00000
      345.082       0.00000
      345.188       0.00000
      345.294       0.00000
      345.401       0.00000
      345.507       0.00000
      345.613       0.00000
      345.719       0.00000
      345.826       0.00000
      345.932       0.00000
      346.039       0.00000
      346.145       0.00000
      346.252       0.00000
      346.358       0.00000
      346.465       0.00000
      346.571       0.00000
      346.678       0.00000
      346.785       0.00000
      346.891       0.00000
      346.998       0.00000
      347.105       0.00000
      347.212       0.00000
      347.319       0.00000
      347.425       0.00000
      347.532       0.00000
      347.639       0.00000
      347.746       0.00000
      347.853       0.00000
      347.960       0.00000
      348.067       0.00000
      348.174       0.00000
      348.281       0.00000
      348.389       0.00000
      348.496       0.00000
      348.603       0.00000
      348.710       0.00000
      348.818       0.00000
      348.925       0.00000
      349.032       0.00000
      349.140       0.00000
      349.247       0.00000
      349.355       0.00000
      349.462       0.00000
      349.570       0.00000
      349.677       0.00000
      349.785       0.00000
      349.892       0.00000
      350.000       0.00000
      350.100       0.00000
      350.193       0.00000
      350.287       0.00000
      350.380       0.00000
      350.473       0.00000
      350.567       0.00000
      350.660       0.00000
      350.754       0.00000
      350.847       0.00000
      350.941       0.00000
      351.034       0.00000
      351.128       0.00000
      351.221       0.00000
      351.315       0.00000
      351.409       0.00000
      351.502       0.00000
      351.596       0.00000
      351.690       0.00000
      351.783       0.00000
      351.877       0.00000
      351.971       0.00000
      352.065       0.00000
      352.159       0.00000
      352.252       0.00000
      352.346       0.00000
      352.440       0.00000
      352.534       0.00000
      352.628       0.00000
      352.722       0.00000
      352.816       0.00000
      352.910       0.00000
      353.004       0.00000
      353.098       0.00000
      353.192       0.00000
      353.287       0.00000
      353.381       0.00000
      353.475       0.00000
      353.569       0.00000
      353.663       0.00000
      353.758       0.00000
      353.852       0.00000
      353.946       0.00000
      354.041       0.00000
      354.135       0.00000
      354.229       0.00000
      354.324       0.00000
      354.418       0.00000
      354.513       0.00000
      354.607       0.00000
      354.702       0.00000
      354.796       0.00000
      354.891       0.00000
      354.985       0.00000
      355.080       0.00000
      355.175       0.00000
      355.269       0.00000
      355.364       0.00000
      355.459       0.00000
      355.553       0.00000
      355.648       0.00000
      355.743       0.00000
      355.838       0.00000
      355.933       0.00000
      356.027       0.00000
      356.122       0.00000
      356.217       0.00000
      356.312       0.00000
      356.407       0.00000
      356.502       0.00000
      356.597       0.00000
      356.692       0.00000
      356.787       0.00000
      356.882       0.00000
      356.977       0.00000
      357.073       0.00000
      357.168       0.00000
      357.263       0.00000
      357.358       0.00000
      357.453       0.00000
      357.549       0.00000
      357.644       0.00000
      357.739       0.00000
      357.835       0.00000
      357.930       0.00000
      358.025       0.00000
      358.121       0.00000
      358.216       0.00000
      358.312       0.00000
      358.407       0.00000
      358.503       0.00000
      358.598       0.00000
      358.694       0.00000
      358.790       0.00000
      358.885       0.00000
      358.981       0.00000
      359.076       0.00000
      359.172       0.00000
      359.268       0.00000
      359.364       0.00000
      359.459       0.00000
      359.555       0.00000
      359.651       0.00000
      359.747       0.00000
      359.843       0.00000
      359.939       0.00000
      360.035       0.00000
      360.131       0.00000
      360.227       0.00000
      360.323       0.00000
      360.419       0.00000
      360.515       0.00000
      360.611       0.00000
      360.707       0.00000
      360.803       0.00000
      360.899       0.00000
      360.995       0.00000
      361.092       0.00000
      361.188       0.00000
      361.284       0.00000
      361.380       0.00000
      361.477       0.00000
      361.573       0.00000
      361.669       0.00000
      361.766       0.00000
      361.862       0.00000
      361.959       0.00000
      362.055       0.00000
      362.152       0.00000
      362.248       0.00000
      362.345       0.00000
      362.441       0.00000
      362.538       0.00000
      362.635       0.00000
      362.731       0.00000
      362.828       0.00000
      362.925       0.00000
      363.021       0.00000
      363.118       0.00000
      363.215       0.00000
      363.312       0.00000
      363.409       0.00000
      363.505       0.00000
      363.602       0.00000
      363.699       0.00000
      363.796       0.00000
      363.893       0.00000
      363.990       0.00000
      364.087       0.00000
      364.184       0.00000
      364.281       0.00000
      364.378       0.00000
      364.475       0.00000
      364.573       0.00000
      364.670       0.00000
      364.767       0.00000
      364.864       0.00000
      364.961       0.00000
      365.059       0.00000
      365.156       0.00000
      365.253       0.00000
      365.351       0.00000
      365.448       0.00000
      365.545       0.00000
      365.643       0.00000
      365.740       0.00000
      365.838       0.00000
      365.935       0.00000
      366.033       0.00000
      366.130       0.00000
      366.228       0.00000
      366.326       0.00000
      366.423       0.00000
      366.521       0.00000
      366.618       0.00000
      366.716       0.00000
      366.814       0.00000
      366.912       0.00000
      367.010       0.00000
      367.107       0.00000
      367.205       0.00000
      367.303       0.00000
      367.401       0.00000
      367.499       0.00000
      367.597       0.00000
      367.695       0.00000
      367.793       0.00000
      367.891       0.00000
      367.989       0.00000
      368.087       0.00000
      368.185       0.00000
      368.283       0.00000
      368.381       0.00000
      368.480       0.00000
      368.578       0.00000
      368.676       0.00000
      368.774       0.00000
      368.873       0.00000
      368.971       0.00000
      369.069       0.00000
      369.168       0.00000
      369.266       0.00000
      369.364       0.00000
      369.463       0.00000
      369.561       0.00000
      369.660       0.00000
      369.758       0.00000
      369.857       0.00000
      369.955       0.00000
      370.054       0.00000
      370.153       0.00000
      370.251       0.00000
      370.350       0.00000
      370.449       0.00000
      370.547       0.00000
      370.646       0.00000
      370.745       0.00000
      370.844       0.00000
      370.943       0.00000
      371.041       0.00000
      371.140       0.00000
      371.239       0.00000
      371.338       0.00000
      371.437       0.00000
      371.536       0.00000
      371.635       0.00000
      371.734       0.00000
      371.833       0.00000
      371.932       0.00000
      372.032       0.00000
      372.131       0.00000
      372.230       0.00000
      372.329       0.00000
      372.428       0.00000
      372.528       0.00000
      372.627       0.00000
      372.726       0.00000
      372.826       0.00000
      372.925       0.00000
      373.024       0.00000
      373.124       0.00000
      373.223       0.00000
      373.323       0.00000
      373.422       0.00000
      373.522       0.00000
      373.621       0.00000
      373.721       0.00000
      373.820       0.00000
      373.920       0.00000
      374.020       0.00000
      374.119       0.00000
      374.219       0.00000
      374.319       0.00000
      374.419       0.00000
      374.518       0.00000
      374.618       0.00000
      374.718       0.00000
      374.818       0.00000
      374.918       0.00000
      375.018       0.00000
      375.118       0.00000
      375.218       0.00000
      375.318       0.00000
      375.418       0.00000
      375.518       0.00000
      375.618       0.00000
      375.718       0.00000
      375.818       0.00000
      375.918       0.00000
      376.019       0.00000
      376.119       0.00000
      376.219       0.00000
      376.319       0.00000
      376.420       0.00000
      376.520       0.00000
      376.620       0.00000
      376.721       0.00000
      376.821       0.00000
      376.922       0.00000
      377.022       0.00000
      377.122       0.00000
      377.223       0.00000
      377.323       0.00000
      377.424       0.00000
      377.525       0.00000
      377.625       0.00000
      377.726       0.00000
      377.827       0.00000
      377.927       0.00000
      378.028       0.00000
      378.129       0.00000
      378.230       0.00000
      378.330       0.00000
      378.431       0.00000
      378.532       0.00000
      378.633       0.00000
      378.734       0.00000
      378.835       0.00000
      378.936       0.00000
      379.037       0.00000
      379.138       0.00000
      379.239       0.00000
      379.340       0.00000
      379.441       0.00000
      379.542       0.00000
      379.643       0.00000
      379.745       0.00000
      379.846       0.00000
      379.947       0.00000
      380.048       0.00000
      380.150       0.00000
      380.251       0.00000
      380.352       0.00000
      380.454       0.00000
      380.555       0.00000
      380.656       0.00000
      380.758       0.00000
      380.859       0.00000
      380.961       0.00000
      381.062       0.00000
      381.164       0.00000
      381.266       0.00000
      381.367       0.00000
      381.469       0.00000
      381.570       0.00000
      381.672       0.00000
      381.774       0.00000
      381.876       0.00000
      381.977       0.00000
      382.079       0.00000
      382.181       0.00000
      382.283       0.00000
      382.385       0.00000
      382.487       0.00000
      382.589       0.00000
      382.691       0.00000
      382.793       0.00000
      382.895       0.00000
      382.997       0.00000
      383.099       0.00000
      383.201       0.00000
      383.303       0.00000
      383.405       0.00000
      383.507       0.00000
      383.610       0.00000
      383.712       0.00000
      383.814       0.00000
      383.916       0.00000
      384.019       0.00000
      384.121       0.00000
      384.223       0.00000
      384.326       0.00000
      384.428       0.00000
      384.531       0.00000
      384.633       0.00000
      384.736       0.00000
      384.838       0.00000
      384.941       0.00000
      385.043       0.00000
      385.146       0.00000
      385.249       0.00000
      385.351       0.00000
      385.454       0.00000
      385.557       0.00000
      385.660       0.00000
      385.762       0.00000
      385.865       0.00000
      385.968       0.00000
      386.071       0.00000
      386.174       0.00000
      386.277       0.00000
      386.380       0.00000
      386.483       0.00000
      386.586       0.00000
      386.689       0.00000
      386.792       0.00000
      386.895       0.00000
      386.998       0.00000
      387.101       0.00000
      387.204       0.00000
      387.308       0.00000
      387.411       0.00000
      387.514       0.00000
      387.617       0.00000
      387.721       0.00000
      387.824       0.00000
      387.927       0.00000
      388.031       0.00000
      388.134       0.00000
      388.238       0.00000
      388.341       0.00000
      388.445       0.00000
      388.548       0.00000
      388.652       0.00000
      388.755       0.00000
      388.859       0.00000
      388.962       0.00000
      389.066       0.00000
      389.170       0.00000
      389.274       0.00000
      389.377       0.00000
      389.481       0.00000
      389.585       0.00000
      389.689       0.00000
      389.793       0.00000
      389.897       0.00000
      390.000       0.00000
      390.104       0.00000
      390.208       0.00000
      390.312       0.00000
      390.416       0.00000
      390.520       0.00000
      390.625       0.00000
      390.729       0.00000
      390.833       0.00000
      390.937       0.00000
      391.041       0.00000
      391.145       0.00000
      391.250       0.00000
      391.354       0.00000
      391.458       0.00000
      391.563       0.00000
      391.667       0.00000
      391.771       0.00000
      391.876       0.00000
      391.980       0.00000
      392.085       0.00000
      392.189       0.00000
      392.294       0.00000
      392.398       0.00000
      392.503       0.00000
      392.607       0.00000
      392.712       0.00000
      392.817       0.00000
      392.921       0.00000
      393.026       0.00000
      393.131       0.00000
      393.236       0.00000
      393.340       0.00000
      393.445       0.00000
      393.550       0.00000
      393.655       0.00000
      393.760       0.00000
      393.865       0.00000
      393.970       0.00000
      394.075       0.00000
      394.180       0.00000
      394.285       0.00000
      394.390       0.00000
      394.495       0.00000
      394.600       0.00000
      394.706       0.00000
      394.811       0.00000
      394.916       0.00000
      395.021       0.00000
      395.126       0.00000
      395.232       0.00000
      395.337       0.00000
      395.443       0.00000
      395.548       0.00000
      395.653       0.00000
      395.759       0.00000
      395.864       0.00000
      395.970       0.00000
      396.075       0.00000
      396.181       0.00000
      396.286       0.00000
      396.392       0.00000
      396.498       0.00000
      396.603       0.00000
      396.709       0.00000
      396.815       0.00000
      396.921       0.00000
      397.026       0.00000
      397.132       0.00000
      397.238       0.00000
      397.344       0.00000
      397.450       0.00000
      397.556       0.00000
      397.662       0.00000
      397.768       0.00000
      397.874       0.00000
      397.980       0.00000
      398.086       0.00000
      398.192       0.00000
      398.298       0.00000
      398.404       0.00000
      398.510       0.00000
      398.617       0.00000
      398.723       0.00000
      398.829       0.00000
      398.935       0.00000
      399.042       0.00000
      399.148       0.00000
      399.255       0.00000
      399.361       0.00000
      399.467       0.00000
      399.574       0.00000
      399.680       0.00000
      399.787       0.00000
      399.893       0.00000
      400.000       0.00000
