Filter C-poly
observation_date 22-Sept-2008 22:40:45
wavelength effective area
      1.00000   2.78571e-10
      1.10000   7.95344e-10
      1.20000   2.06792e-09
      1.30000   4.94569e-09
      1.40000   1.12244e-08
      1.50000   2.39518e-08
      1.60000   4.85008e-08
      1.70000   9.41861e-08
      1.80000   1.75408e-07
      1.90000   3.15380e-07
      2.00000   5.48511e-07
      2.10000   9.26881e-07
      2.20000   1.52909e-06
      2.30000   2.45934e-06
      2.40000   3.86327e-06
      2.50000   5.90778e-06
      2.60000   9.02185e-06
      2.70000   1.34604e-05
      2.80000   1.96994e-05
      2.90000   2.85358e-05
      3.00000   4.06927e-05
      3.10000   5.72861e-05
      3.20000   7.97701e-05
      3.30000   0.000109955
      3.40000   0.000149992
      3.50000   0.000202639
      3.60000   0.000272524
      3.70000   0.000362637
      3.80000   0.000480583
      3.90000   0.000633398
      4.00000   0.000829662
      4.10000    0.00108178
      4.20000    0.00140555
      4.30000    0.00182118
      4.40000    0.00235358
      4.50000    0.00303347
      4.60000    0.00389689
      4.70000    0.00500627
      4.80000    0.00642541
      4.90000    0.00814119
      5.00000     0.0105878
      5.10000     0.0135761
      5.20000     0.0174613
      5.30000     0.0222692
      5.40000     0.0283581
      5.50000     0.0361774
      5.60000     0.0447396
      5.70000     0.0582932
      5.80000     0.0685091
      5.90000      0.104865
      6.00000      0.141324
      6.10000      0.181097
      6.20000      0.222975
      6.30000      0.263175
      6.40000      0.297976
      6.50000      0.323979
      6.60000      0.336334
      6.70000      0.347880
      6.80000      0.349402
      6.90000      0.459820
      7.00000      0.501645
      7.10000      0.532257
      7.20000      0.557109
      7.30000      0.577867
      7.40000      0.594308
      7.50000      0.607921
      7.60000      0.618806
      7.70000      0.625295
      7.80000      0.626118
      7.90000      0.627735
      8.00000      0.911073
      8.10000       1.00083
      8.20000       1.02074
      8.30000       1.03615
      8.40000       1.04762
      8.50000       1.05752
      8.60000       1.06552
      8.70000       1.07231
      8.80000       1.07754
      8.90000       1.08172
      9.00000       1.08477
      9.10000       1.08673
      9.20000       1.08781
      9.30000       1.08791
      9.40000       1.08717
      9.50000       1.08565
      9.60000       1.08330
      9.70000       1.08022
      9.80000       1.07656
      9.90000       1.07235
      10.0000       1.06766
      10.1000       1.06248
      10.2000       1.05686
      10.3000       1.05071
      10.4000       1.04408
      10.5000       1.03700
      10.6000       1.02948
      10.7000       1.02157
      10.8000       1.01327
      10.9000       1.00460
      11.0000      0.995589
      11.1000      0.986262
      11.2000      0.976621
      11.3000      0.966707
      11.4000      0.956510
      11.5000      0.946023
      11.6000      0.935265
      11.7000      0.924155
      11.8000      0.912795
      11.9000      0.901042
      12.0000      0.887960
      12.1000      0.878002
      12.2000      0.883369
      12.3000      0.879443
      12.4000      0.868970
      12.5000      0.857844
      12.6000      0.846405
      12.7000      0.834787
      12.8000      0.823038
      12.9000      0.811172
      13.0000      0.799239
      13.1000      0.787270
      13.2000      0.775289
      13.3000      0.763311
      13.4000      0.751363
      13.5000      0.739574
      13.6000      0.727926
      13.7000      0.716323
      13.8000      0.704760
      13.9000      0.693267
      14.0000      0.681842
      14.1000      0.670462
      14.2000      0.659130
      14.3000      0.647842
      14.4000      0.636582
      14.5000      0.625362
      14.6000      0.614178
      14.7000      0.603033
      14.8000      0.591935
      14.9000      0.580889
      15.0000      0.569903
      15.1000      0.558991
      15.2000      0.548168
      15.3000      0.537431
      15.4000      0.526776
      15.5000      0.516214
      15.6000      0.505776
      15.7000      0.495441
      15.8000      0.485253
      15.9000      0.475190
      16.0000      0.465252
      16.1000      0.455445
      16.2000      0.445799
      16.3000      0.436274
      16.4000      0.426861
      16.5000      0.417556
      16.6000      0.408368
      16.7000      0.399300
      16.8000      0.390335
      16.9000      0.381472
      17.0000      0.372730
      17.1000      0.364109
      17.2000      0.355584
      17.3000      0.347171
      17.4000      0.339036
      17.5000      0.331162
      17.6000      0.323510
      17.7000      0.316119
      17.8000      0.309133
      17.9000      0.302257
      18.0000      0.295434
      18.1000      0.288712
      18.2000      0.282025
      18.3000      0.275360
      18.4000      0.268699
      18.5000      0.262060
      18.6000      0.255431
      18.7000      0.248785
      18.8000      0.242247
      18.9000      0.235794
      19.0000      0.229454
      19.1000      0.223239
      19.2000      0.217119
      19.3000      0.211141
      19.4000      0.205290
      19.5000      0.199537
      19.6000      0.193959
      19.7000      0.188484
      19.8000      0.183102
      19.9000      0.177883
      20.0000      0.172741
      20.1000      0.167703
      20.2000      0.162772
      20.3000      0.157909
      20.4000      0.153172
      20.5000      0.148509
      20.6000      0.143915
      20.7000      0.139443
      20.8000      0.135027
      20.9000      0.130702
      21.0000      0.126461
      21.1000      0.122292
      21.2000      0.118205
      21.3000      0.114167
      21.4000      0.110236
      21.5000      0.106349
      21.6000      0.102501
      21.7000     0.0987287
      21.8000     0.0949896
      21.9000     0.0912360
      22.0000     0.0874984
      22.1000     0.0837723
      22.2000     0.0799201
      22.3000     0.0759619
      22.4000     0.0708919
      22.5000     0.0654909
      22.6000     0.0553887
      22.7000     0.0494879
      22.8000     0.0648968
      22.9000     0.0838759
      23.0000      0.105750
      23.1000      0.119343
      23.2000      0.125083
      23.3000      0.125359
      23.4000      0.122891
      23.5000      0.120302
      23.6000      0.117693
      23.7000      0.114824
      23.8000      0.111948
      23.9000      0.109101
      24.0000      0.106264
      24.1000      0.103421
      24.2000      0.100603
      24.3000     0.0978475
      24.4000     0.0951169
      24.5000     0.0924336
      24.6000     0.0897880
      24.7000     0.0872096
      24.8000     0.0846686
      24.9000     0.0821874
      25.0000     0.0797487
      25.1000     0.0773765
      25.2000     0.0750445
      25.3000     0.0727752
      25.4000     0.0705484
      25.5000     0.0683932
      25.6000     0.0662813
      25.7000     0.0642522
      25.8000     0.0622544
      25.9000     0.0603276
      26.0000     0.0584254
      26.1000     0.0565957
      26.2000     0.0547839
      26.3000     0.0530513
      26.4000     0.0513283
      26.5000     0.0496859
      26.6000     0.0480520
      26.7000     0.0464933
      26.8000     0.0449525
      26.9000     0.0434700
      27.0000     0.0420105
      27.1000     0.0405917
      27.2000     0.0392015
      27.3000     0.0379303
      27.4000     0.0368051
      27.5000     0.0356682
      27.6000     0.0344879
      27.7000     0.0333156
      27.8000     0.0321843
      27.9000     0.0310588
      28.0000     0.0299894
      28.1000     0.0289355
      28.2000     0.0279220
      28.3000     0.0269372
      28.4000     0.0259769
      28.5000     0.0250584
      28.6000     0.0241487
      28.7000     0.0232969
      28.8000     0.0224495
      28.9000     0.0216454
      29.0000     0.0208566
      29.1000     0.0200941
      29.2000     0.0193608
      29.3000     0.0186376
      29.4000     0.0179571
      29.5000     0.0172803
      29.6000     0.0166409
      29.7000     0.0160139
      29.8000     0.0154075
      29.9000     0.0148277
      30.0000     0.0142525
      30.1000     0.0137170
      30.2000     0.0131843
      30.3000     0.0132674
      30.4000     0.0137007
      30.5000     0.0139298
      30.6000     0.0134091
      30.7000     0.0128912
      30.8000     0.0124032
      30.9000     0.0119261
      31.0000     0.0114617
      31.1000     0.0110228
      31.2000     0.0105864
      31.3000     0.0101779
      31.4000    0.00977713
      31.5000    0.00938797
      31.6000    0.00902068
      31.7000    0.00865545
      31.8000    0.00831399
      31.9000    0.00797992
      32.0000    0.00765422
      32.1000    0.00734919
      32.2000    0.00704588
      32.3000    0.00676091
      32.4000    0.00648487
      32.5000    0.00621366
      32.6000    0.00597036
      32.7000    0.00572853
      32.8000    0.00549785
      32.9000    0.00527796
      33.0000    0.00505931
      33.1000    0.00486646
      33.2000    0.00467811
      33.3000    0.00449428
      33.4000    0.00432251
      33.5000    0.00415176
      33.6000    0.00398971
      33.7000    0.00383436
      33.8000    0.00367986
      33.9000    0.00353721
      34.0000    0.00339684
      34.1000    0.00325967
      34.2000    0.00313257
      34.3000    0.00300613
      34.4000    0.00288499
      34.5000    0.00277047
      34.6000    0.00265655
      34.7000    0.00254923
      34.8000    0.00244528
      34.9000    0.00234187
      35.0000    0.00224730
      35.1000    0.00215409
      35.2000    0.00206227
      35.3000    0.00197840
      35.4000    0.00189497
      35.5000    0.00181419
      35.6000    0.00173928
      35.7000    0.00166476
      35.8000    0.00159374
      35.9000    0.00152697
      36.0000    0.00146055
      36.1000    0.00139816
      36.2000    0.00133877
      36.3000    0.00127970
      36.4000    0.00122490
      36.5000    0.00117218
      36.6000    0.00111974
      36.7000    0.00107162
      36.8000    0.00102493
      36.9000   0.000978483
      37.0000   0.000936245
      37.1000   0.000894981
      37.2000   0.000853935
      37.3000   0.000816857
      37.4000   0.000780474
      37.5000   0.000744288
      37.6000   0.000711728
      37.7000   0.000679724
      37.8000   0.000647893
      37.9000   0.000619288
      38.0000   0.000591204
      38.1000   0.000563272
      38.2000   0.000538120
      38.3000   0.000513526
      38.4000   0.000489065
      38.5000   0.000466936
      38.6000   0.000445453
      38.7000   0.000424086
      38.8000   0.000404600
      38.9000   0.000385881
      39.0000   0.000367264
      39.1000   0.000350091
      39.2000   0.000333822
      39.3000   0.000317642
      39.4000   0.000302493
      39.5000   0.000288389
      39.6000   0.000274363
      39.7000   0.000260985
      39.8000   0.000248792
      39.9000   0.000236666
      40.0000   0.000224844
      40.1000   0.000214330
      40.2000   0.000203874
      40.3000   0.000193476
      40.4000   0.000184374
      40.5000   0.000175381
      40.6000   0.000166437
      40.7000   0.000158364
      40.8000   0.000150648
      40.9000   0.000142974
      41.0000   0.000135806
      41.1000   0.000129204
      41.2000   0.000122640
      41.3000   0.000116273
      41.4000   0.000110647
      41.5000   0.000105052
      41.6000   9.94872e-05
      41.7000   9.46082e-05
      41.8000   8.98487e-05
      41.9000   8.51157e-05
      42.0000   8.07611e-05
      42.1000   7.67266e-05
      42.2000   7.27142e-05
      42.3000   6.88235e-05
      42.4000   6.54120e-05
      42.5000   6.20192e-05
      42.6000   5.86452e-05
      42.7000   5.56672e-05
      42.8000   5.28063e-05
      42.9000   4.99609e-05
      43.0000   4.72848e-05
      43.1000   4.48803e-05
      43.2000   4.24893e-05
      43.3000   4.01115e-05
      43.4000     0.0403534
      43.5000     0.0878259
      43.6000      0.144992
      43.7000      0.190378
      43.8000      0.206145
      43.9000      0.208003
      44.0000      0.204712
      44.1000      0.196530
      44.2000      0.193757
      44.3000      0.191460
      44.4000      0.189190
      44.5000      0.186953
      44.6000      0.184721
      44.7000      0.182495
      44.8000      0.180319
      44.9000      0.178155
      45.0000      0.175996
      45.1000      0.173857
      45.2000      0.171756
      45.3000      0.169662
      45.4000      0.167572
      45.5000      0.165521
      45.6000      0.163491
      45.7000      0.161466
      45.8000      0.159448
      45.9000      0.157482
      46.0000      0.155520
      46.1000      0.153563
      46.2000      0.151697
      46.3000      0.149984
      46.4000      0.148276
      46.5000      0.146571
      46.6000      0.144923
      46.7000      0.143304
      46.8000      0.141689
      46.9000      0.140078
      47.0000      0.138544
      47.1000      0.137020
      47.2000      0.135499
      47.3000      0.133989
      47.4000      0.132519
      47.5000      0.131053
      47.6000      0.129590
      47.7000      0.128144
      47.8000      0.126723
      47.9000      0.125306
      48.0000      0.123892
      48.1000      0.122501
      48.2000      0.121129
      48.3000      0.119760
      48.4000      0.118394
      48.5000      0.117055
      48.6000      0.115729
      48.7000      0.114406
      48.8000      0.113086
      48.9000      0.111798
      49.0000      0.110519
      49.1000      0.109243
      49.2000      0.107970
      49.3000      0.106732
      49.4000      0.105499
      49.5000      0.104269
      49.6000      0.103041
      49.7000      0.101850
      49.8000      0.100661
      49.9000     0.0994756
      50.0000     0.0982944
      50.1000     0.0971508
      50.2000     0.0960681
      50.3000     0.0949942
      50.4000     0.0939309
      50.5000     0.0928770
      50.6000     0.0918335
      50.7000     0.0908014
      50.8000     0.0897775
      50.9000     0.0887650
      51.0000     0.0877710
      51.1000     0.0867898
      51.2000     0.0858174
      51.3000     0.0848546
      51.4000     0.0839026
      51.5000     0.0829578
      51.6000     0.0820211
      51.7000     0.0810931
      51.8000     0.0801664
      51.9000     0.0792478
      52.0000     0.0783376
      52.1000     0.0774363
      52.2000     0.0765438
      52.3000     0.0756587
      52.4000     0.0747825
      52.5000     0.0739150
      52.6000     0.0730547
      52.7000     0.0722012
      52.8000     0.0713552
      52.9000     0.0705174
      53.0000     0.0696880
      53.1000     0.0688665
      53.2000     0.0680543
      53.3000     0.0672504
      53.4000     0.0664537
      53.5000     0.0656641
      53.6000     0.0648815
      53.7000     0.0641062
      53.8000     0.0633401
      53.9000     0.0625815
      54.0000     0.0618311
      54.1000     0.0610894
      54.2000     0.0603536
      54.3000     0.0596249
      54.4000     0.0589035
      54.5000     0.0581891
      54.6000     0.0574831
      54.7000     0.0567842
      54.8000     0.0560930
      54.9000     0.0554089
      55.0000     0.0547315
      55.1000     0.0540601
      55.2000     0.0533709
      55.3000     0.0526668
      55.4000     0.0519699
      55.5000     0.0512808
      55.6000     0.0505992
      55.7000     0.0499257
      55.8000     0.0492592
      55.9000     0.0485993
      56.0000     0.0479542
      56.1000     0.0473050
      56.2000     0.0466530
      56.3000     0.0460082
      56.4000     0.0453710
      56.5000     0.0447404
      56.6000     0.0441168
      56.7000     0.0435011
      56.8000     0.0428923
      56.9000     0.0422926
      57.0000     0.0416993
      57.1000     0.0411120
      57.2000     0.0405305
      57.3000     0.0399559
      57.4000     0.0393876
      57.5000     0.0388267
      57.6000     0.0382722
      57.7000     0.0377242
      57.8000     0.0371839
      57.9000     0.0366508
      58.0000     0.0361238
      58.1000     0.0356020
      58.2000     0.0350871
      58.3000     0.0345786
      58.4000     0.0340761
      58.5000     0.0335796
      58.6000     0.0330900
      58.7000     0.0326061
      58.8000     0.0321284
      58.9000     0.0316563
      59.0000     0.0311901
      59.1000     0.0307293
      59.2000     0.0302746
      59.3000     0.0298257
      59.4000     0.0293828
      59.5000     0.0289454
      59.6000     0.0285138
      59.7000     0.0280870
      59.8000     0.0276659
      59.9000     0.0272497
      60.0000     0.0268394
      60.1000     0.0264340
      60.2000     0.0260343
      60.3000     0.0256400
      60.4000     0.0252507
      60.5000     0.0248670
      60.6000     0.0244876
      60.7000     0.0241123
      60.8000     0.0237417
      60.9000     0.0233761
      61.0000     0.0230153
      61.1000     0.0226597
      61.2000     0.0223086
      61.3000     0.0219628
      61.4000     0.0216212
      61.5000     0.0212843
      61.6000     0.0209514
      61.7000     0.0206228
      61.8000     0.0202995
      61.9000     0.0199815
      62.0000     0.0196679
      62.1000     0.0193585
      62.2000     0.0190537
      62.3000     0.0187528
      62.4000     0.0184564
      62.5000     0.0181636
      62.6000     0.0178748
      62.7000     0.0175895
      62.8000     0.0173097
      62.9000     0.0170338
      63.0000     0.0167618
      63.1000     0.0164939
      63.2000     0.0162295
      63.3000     0.0159686
      63.4000     0.0157109
      63.5000     0.0154576
      63.6000     0.0152074
      63.7000     0.0149608
      63.8000     0.0147180
      63.9000     0.0144788
      64.0000     0.0142432
      64.1000     0.0140107
      64.2000     0.0137822
      64.3000     0.0135567
      64.4000     0.0133342
      64.5000     0.0131147
      64.6000     0.0128983
      64.7000     0.0126851
      64.8000     0.0124749
      64.9000     0.0122679
      65.0000     0.0120639
      65.1000     0.0118631
      65.2000     0.0116655
      65.3000     0.0114704
      65.4000     0.0112784
      65.5000     0.0110891
      65.6000     0.0109023
      65.7000     0.0107184
      65.8000     0.0105373
      65.9000     0.0103594
      66.0000     0.0101840
      66.1000     0.0100115
      66.2000    0.00984163
      66.3000    0.00967419
      66.4000    0.00950936
      66.5000    0.00934678
      66.6000    0.00918665
      66.7000    0.00902904
      66.8000    0.00887381
      66.9000    0.00872422
      67.0000    0.00857973
      67.1000    0.00843803
      67.2000    0.00829864
      67.3000    0.00816117
      67.4000    0.00802583
      67.5000    0.00789237
      67.6000    0.00776081
      67.7000    0.00763124
      67.8000    0.00750321
      67.9000    0.00737682
      68.0000    0.00725310
      68.1000    0.00713195
      68.2000    0.00701263
      68.3000    0.00689504
      68.4000    0.00677936
      68.5000    0.00666556
      68.6000    0.00655326
      68.7000    0.00644269
      68.8000    0.00633375
      68.9000    0.00622802
      69.0000    0.00613283
      69.1000    0.00604712
      69.2000    0.00596405
      69.3000    0.00588333
      69.4000    0.00580572
      69.5000    0.00572643
      69.6000    0.00564452
      69.7000    0.00556584
      69.8000    0.00549115
      69.9000    0.00541752
      70.0000    0.00534458
      70.1000    0.00527110
      70.2000    0.00520124
      70.3000    0.00513505
      70.4000    0.00506907
      70.5000    0.00500464
      70.6000    0.00494173
      70.7000    0.00487971
      70.8000    0.00481825
      70.9000    0.00475530
      71.0000    0.00469105
      71.1000    0.00462974
      71.2000    0.00457150
      71.3000    0.00450966
      71.4000    0.00444325
      71.5000    0.00438213
      71.6000    0.00432866
      71.7000    0.00427469
      71.8000    0.00421897
      71.9000    0.00416517
      72.0000    0.00411545
      72.1000    0.00406473
      72.2000    0.00400630
      72.3000    0.00394882
      72.4000    0.00389855
      72.5000    0.00384891
      72.6000    0.00379981
      72.7000    0.00375143
      72.8000    0.00370361
      72.9000    0.00365636
      73.0000    0.00361090
      73.1000    0.00356654
      73.2000    0.00352269
      73.3000    0.00347944
      73.4000    0.00343710
      73.5000    0.00339592
      73.6000    0.00335530
      73.7000    0.00331515
      73.8000    0.00327539
      73.9000    0.00323608
      74.0000    0.00319746
      74.1000    0.00316241
      74.2000    0.00312874
      74.3000    0.00309231
      74.4000    0.00305383
      74.5000    0.00301645
      74.6000    0.00298093
      74.7000    0.00294577
      74.8000    0.00291099
      74.9000    0.00287661
      75.0000    0.00284221
      75.1000    0.00280806
      75.2000    0.00277434
      75.3000    0.00274099
      75.4000    0.00270829
      75.5000    0.00267667
      75.6000    0.00264541
      75.7000    0.00261445
      75.8000    0.00258393
      75.9000    0.00255416
      76.0000    0.00252481
      76.1000    0.00249579
      76.2000    0.00246709
      76.3000    0.00243873
      76.4000    0.00241117
      76.5000    0.00238399
      76.6000    0.00235704
      76.7000    0.00233033
      76.8000    0.00230392
      76.9000    0.00227783
      77.0000    0.00225199
      77.1000    0.00222641
      77.2000    0.00220113
      77.3000    0.00217609
      77.4000    0.00215130
      77.5000    0.00212681
      77.6000    0.00210211
      77.7000    0.00207760
      77.8000    0.00205335
      77.9000    0.00202935
      78.0000    0.00200526
      78.1000    0.00198057
      78.2000    0.00195621
      78.3000    0.00193402
      78.4000    0.00191271
      78.5000    0.00189144
      78.6000    0.00186987
      78.7000    0.00184852
      78.8000    0.00182665
      78.9000    0.00180484
      79.0000    0.00178326
      79.1000    0.00176186
      79.2000    0.00174079
      79.3000    0.00172056
      79.4000    0.00170074
      79.5000    0.00168092
      79.6000    0.00166070
      79.7000    0.00164069
      79.8000    0.00162058
      79.9000    0.00160055
      80.0000    0.00158073
      80.1000    0.00156040
      80.2000    0.00154024
      80.3000    0.00151959
      80.4000    0.00149849
      80.5000    0.00147761
      80.6000    0.00145698
      80.7000    0.00143662
      80.8000    0.00141660
      80.9000    0.00139707
      81.0000    0.00137779
      81.1000    0.00135883
      81.2000    0.00134011
      81.3000    0.00132165
      81.4000    0.00130475
      81.5000    0.00128814
      81.6000    0.00127210
      81.7000    0.00125701
      81.8000    0.00124216
      81.9000    0.00122802
      82.0000    0.00121427
      82.1000    0.00120069
      82.2000    0.00118685
      82.3000    0.00117318
      82.4000    0.00115994
      82.5000    0.00114727
      82.6000    0.00113472
      82.7000    0.00112194
      82.8000    0.00110886
      82.9000    0.00109591
      83.0000    0.00108324
      83.1000    0.00107076
      83.2000    0.00105840
      83.3000    0.00104617
      83.4000    0.00103409
      83.5000    0.00102219
      83.6000    0.00101066
      83.7000   0.000999275
      83.8000   0.000987947
      83.9000   0.000976561
      84.0000   0.000965272
      84.1000   0.000954263
      84.2000   0.000943634
      84.3000   0.000933099
      84.4000   0.000922536
      84.5000   0.000911990
      84.6000   0.000901558
      84.7000   0.000891407
      84.8000   0.000881443
      84.9000   0.000871604
      85.0000   0.000861646
      85.1000   0.000851725
      85.2000   0.000841912
      85.3000   0.000832578
      85.4000   0.000823418
      85.5000   0.000814364
      85.6000   0.000805200
      85.7000   0.000796118
      85.8000   0.000787128
      85.9000   0.000778227
      86.0000   0.000769399
      86.1000   0.000760657
      86.2000   0.000752263
      86.3000   0.000743968
      86.4000   0.000735747
      86.5000   0.000727598
      86.6000   0.000719528
      86.7000   0.000711548
      86.8000   0.000703096
      86.9000   0.000694715
      87.0000   0.000686442
      87.1000   0.000678392
      87.2000   0.000670448
      87.3000   0.000662581
      87.4000   0.000654605
      87.5000   0.000646683
      87.6000   0.000638840
      87.7000   0.000631188
      87.8000   0.000623634
      87.9000   0.000616161
      88.0000   0.000608774
      88.1000   0.000601457
      88.2000   0.000594222
      88.3000   0.000587211
      88.4000   0.000580424
      88.5000   0.000573739
      88.6000   0.000567069
      88.7000   0.000560392
      88.8000   0.000553790
      88.9000   0.000547252
      89.0000   0.000540756
      89.1000   0.000534330
      89.2000   0.000527970
      89.3000   0.000521670
      89.4000   0.000515421
      89.5000   0.000509233
      89.6000   0.000503109
      89.7000   0.000497050
      89.8000   0.000491055
      89.9000   0.000485120
      90.0000   0.000479244
      90.1000   0.000473443
      90.2000   0.000467594
      90.3000   0.000461550
      90.4000   0.000455566
      90.5000   0.000449653
      90.6000   0.000443914
      90.7000   0.000438137
      90.8000   0.000432300
      90.9000   0.000426383
      91.0000   0.000420510
      91.1000   0.000414715
      91.2000   0.000408925
      91.3000   0.000403100
      91.4000   0.000397334
      91.5000   0.000391653
      91.6000   0.000386060
      91.7000   0.000380944
      91.8000   0.000376511
      91.9000   0.000372860
      92.0000   0.000368785
      92.1000   0.000364657
      92.2000   0.000360321
      92.3000   0.000355810
      92.4000   0.000351222
      92.5000   0.000346703
      92.6000   0.000342241
      92.7000   0.000337832
      92.8000   0.000333471
      92.9000   0.000329208
      93.0000   0.000325104
      93.1000   0.000321047
      93.2000   0.000317042
      93.3000   0.000313208
      93.4000   0.000309460
      93.5000   0.000305751
      93.6000   0.000302081
      93.7000   0.000298451
      93.8000   0.000294879
      93.9000   0.000291346
      94.0000   0.000287852
      94.1000   0.000284399
      94.2000   0.000280991
      94.3000   0.000277643
      94.4000   0.000274412
      94.5000   0.000271224
      94.6000   0.000268074
      94.7000   0.000264965
      94.8000   0.000261886
      94.9000   0.000258838
      95.0000   0.000255825
      95.1000   0.000252856
      95.2000   0.000249908
      95.3000   0.000246984
      95.4000   0.000244094
      95.5000   0.000241279
      95.6000   0.000238493
      95.7000   0.000235737
      95.8000   0.000232977
      95.9000   0.000230234
      96.0000   0.000227518
      96.1000   0.000224828
      96.2000   0.000222163
      96.3000   0.000219532
      96.4000   0.000216927
      96.5000   0.000214353
      96.6000   0.000211817
      96.7000   0.000209322
      96.8000   0.000206846
      96.9000   0.000204391
      97.0000   0.000201960
      97.1000   0.000199568
      97.2000   0.000197197
      97.3000   0.000194822
      97.4000   0.000192445
      97.5000   0.000190102
      97.6000   0.000187787
      97.7000   0.000185510
      97.8000   0.000183269
      97.9000   0.000181054
      98.0000   0.000178861
      98.1000   0.000176688
      98.2000   0.000174543
      98.3000   0.000172557
      98.4000   0.000170654
      98.5000   0.000168811
      98.6000   0.000166988
      98.7000   0.000165183
      98.8000   0.000163394
      98.9000   0.000161622
      99.0000   0.000159871
      99.1000   0.000158136
      99.2000   0.000156408
      99.3000   0.000154651
      99.4000   0.000152917
      99.5000   0.000151200
      99.6000   0.000149510
      99.7000   0.000147908
      99.8000   0.000146355
      99.9000   0.000145095
      100.000   0.000144274
      100.100   0.000143408
      100.200   0.000142543
      100.300   0.000141681
      100.400   0.000140823
      100.500   0.000139990
      100.600   0.000139158
      100.700   0.000138328
      100.800   0.000137499
      100.900   0.000136673
      101.000   0.000135852
      101.100   0.000135036
      101.200   0.000134223
      101.300   0.000133414
      101.400   0.000132606
      101.500   0.000131804
      101.600   0.000131006
      101.700   0.000130225
      101.800   0.000129452
      101.900   0.000128680
      102.000   0.000127915
      102.100   0.000127174
      102.200   0.000126447
      102.300   0.000125724
      102.400   0.000125004
      102.500   0.000124284
      102.600   0.000123566
      102.700   0.000122850
      102.800   0.000122136
      102.900   0.000121424
      103.000   0.000120714
      103.100   0.000120005
      103.200   0.000119298
      103.300   0.000118594
      103.400   0.000117893
      103.500   0.000117195
      103.600   0.000116498
      103.700   0.000115802
      103.800   0.000115081
      103.900   0.000114332
      104.000   0.000113587
      104.100   0.000112848
      104.200   0.000112126
      104.300   0.000111489
      104.400   0.000110856
      104.500   0.000110227
      104.600   0.000109599
      104.700   0.000108948
      104.800   0.000108288
      104.900   0.000107629
      105.000   0.000106973
      105.100   0.000106339
      105.200   0.000105752
      105.300   0.000105169
      105.400   0.000104587
      105.500   0.000104006
      105.600   0.000103435
      105.700   0.000102868
      105.800   0.000102302
      105.900   0.000101739
      106.000   0.000101193
      106.100   0.000100680
      106.200   0.000100170
      106.300   9.96619e-05
      106.400   9.91554e-05
      106.500   9.86508e-05
      106.600   9.81481e-05
      106.700   9.76465e-05
      106.800   9.71456e-05
      106.900   9.66465e-05
      107.000   9.61498e-05
      107.100   9.56557e-05
      107.200   9.51642e-05
      107.300   9.46748e-05
      107.400   9.41847e-05
      107.500   9.36939e-05
      107.600   9.32044e-05
      107.700   9.27161e-05
      107.800   9.22299e-05
      107.900   9.17389e-05
      108.000   9.12487e-05
      108.100   9.07590e-05
      108.200   9.02700e-05
      108.300   8.97817e-05
      108.400   8.92885e-05
      108.500   8.87972e-05
      108.600   8.83074e-05
      108.700   8.78176e-05
      108.800   8.73067e-05
      108.900   8.67658e-05
      109.000   8.62264e-05
      109.100   8.56895e-05
      109.200   8.51548e-05
      109.300   8.46226e-05
      109.400   8.40925e-05
      109.500   8.35647e-05
      109.600   8.30396e-05
      109.700   8.25173e-05
      109.800   8.19983e-05
      109.900   8.14821e-05
      110.000   8.09680e-05
      110.100   8.04559e-05
      110.200   7.99456e-05
      110.300   7.94508e-05
      110.400   7.89597e-05
      110.500   7.84715e-05
      110.600   7.79856e-05
      110.700   7.75014e-05
      110.800   7.70185e-05
      110.900   7.65370e-05
      111.000   7.60568e-05
      111.100   7.55781e-05
      111.200   7.51023e-05
      111.300   7.46537e-05
      111.400   7.42066e-05
      111.500   7.37604e-05
      111.600   7.33159e-05
      111.700   7.28743e-05
      111.800   7.24511e-05
      111.900   7.20306e-05
      112.000   7.16121e-05
      112.100   7.11950e-05
      112.200   7.07791e-05
      112.300   7.03486e-05
      112.400   6.99190e-05
      112.500   6.94918e-05
      112.600   6.90667e-05
      112.700   6.86463e-05
      112.800   6.82429e-05
      112.900   6.78037e-05
      113.000   6.73793e-05
      113.100   6.69623e-05
      113.200   6.65401e-05
      113.300   6.61283e-05
      113.400   6.56342e-05
      113.500   6.51217e-05
      113.600   6.46839e-05
      113.700   6.42259e-05
      113.800   6.37212e-05
      113.900   6.32901e-05
      114.000   6.28611e-05
      114.100   6.23842e-05
      114.200   6.19348e-05
      114.300   6.15274e-05
      114.400   6.11110e-05
      114.500   6.06854e-05
      114.600   6.03131e-05
      114.700   5.99035e-05
      114.800   5.95215e-05
      114.900   5.92010e-05
      115.000   5.88377e-05
      115.100   5.84499e-05
      115.200   5.80609e-05
      115.300   5.77277e-05
      115.400   5.73446e-05
      115.500   5.69889e-05
      115.600   5.66136e-05
      115.700   5.62080e-05
      115.800   5.58472e-05
      115.900   5.54652e-05
      116.000   5.51218e-05
      116.100   5.48366e-05
      116.200   5.45478e-05
      116.300   5.42498e-05
      116.400   5.39346e-05
      116.500   5.36604e-05
      116.600   5.33742e-05
      116.700   5.30988e-05
      116.800   5.28122e-05
      116.900   5.24780e-05
      117.000   5.21999e-05
      117.100   5.20793e-05
      117.200   5.20686e-05
      117.300   5.19487e-05
      117.400   5.18209e-05
      117.500   5.16944e-05
      117.600   5.15048e-05
      117.700   5.12911e-05
      117.800   5.10452e-05
      117.900   5.07834e-05
      118.000   5.04911e-05
      118.100   5.01698e-05
      118.200   4.98734e-05
      118.300   4.95881e-05
      118.400   4.91869e-05
      118.500   4.87973e-05
      118.600   4.84631e-05
      118.700   4.81115e-05
      118.800   4.77359e-05
      118.900   4.73797e-05
      119.000   4.69629e-05
      119.100   4.64774e-05
      119.200   4.60546e-05
      119.300   4.56845e-05
      119.400   4.53452e-05
      119.500   4.50205e-05
      119.600   4.46570e-05
      119.700   4.42482e-05
      119.800   4.37483e-05
      119.900   4.31283e-05
      120.000   4.25519e-05
      120.100   4.20108e-05
      120.200   4.16242e-05
      120.300   4.13264e-05
      120.400   4.10288e-05
      120.500   4.06106e-05
      120.600   4.01023e-05
      120.700   3.95678e-05
      120.800   3.90563e-05
      120.900   3.87055e-05
      121.000   3.86016e-05
      121.100   3.84541e-05
      121.200   3.81847e-05
      121.300   3.78298e-05
      121.400   3.74111e-05
      121.500   3.69454e-05
      121.600   3.62911e-05
      121.700   3.57182e-05
      121.800   3.50824e-05
      121.900   3.44430e-05
      122.000   3.37632e-05
      122.100   3.31230e-05
      122.200   3.24939e-05
      122.300   3.20288e-05
      122.400   3.17390e-05
      122.500   3.14872e-05
      122.600   3.12148e-05
      122.700   3.09423e-05
      122.800   3.06325e-05
      122.900   3.03466e-05
      123.000   3.02600e-05
      123.100   3.05163e-05
      123.200   3.07940e-05
      123.300   3.12459e-05
      123.400   3.18408e-05
      123.500   3.26402e-05
      123.600   3.33177e-05
      123.700   3.36436e-05
      123.800   3.38687e-05
      123.900   3.41919e-05
      124.000   3.46739e-05
      124.100   3.56758e-05
      124.200   3.77840e-05
      124.300   4.09640e-05
      124.400   4.40182e-05
      124.500   4.48501e-05
      124.600   4.46565e-05
      124.700   4.43461e-05
      124.800   4.40492e-05
      124.900   4.37529e-05
      125.000   4.34566e-05
      125.100   4.31516e-05
      125.200   4.28471e-05
      125.300   4.25439e-05
      125.400   4.22423e-05
      125.500   4.19423e-05
      125.600   4.16437e-05
      125.700   4.13467e-05
      125.800   4.10513e-05
      125.900   4.07577e-05
      126.000   4.04659e-05
      126.100   4.01760e-05
      126.200   3.98880e-05
      126.300   3.96016e-05
      126.400   3.93169e-05
      126.500   3.90338e-05
      126.600   3.87522e-05
      126.700   3.84722e-05
      126.800   3.81937e-05
      126.900   3.79166e-05
      127.000   3.76401e-05
      127.100   3.73616e-05
      127.200   3.70830e-05
      127.300   3.68054e-05
      127.400   3.65293e-05
      127.500   3.62548e-05
      127.600   3.59820e-05
      127.700   3.57108e-05
      127.800   3.54412e-05
      127.900   3.51733e-05
      128.000   3.49070e-05
      128.100   3.46422e-05
      128.200   3.43789e-05
      128.300   3.41170e-05
      128.400   3.38566e-05
      128.500   3.35976e-05
      128.600   3.33399e-05
      128.700   3.30838e-05
      128.800   3.28292e-05
      128.900   3.25760e-05
      129.000   3.23245e-05
      129.100   3.20739e-05
      129.200   3.18228e-05
      129.300   3.15731e-05
      129.400   3.13250e-05
      129.500   3.10786e-05
      129.600   3.08338e-05
      129.700   3.05907e-05
      129.800   3.03492e-05
      129.900   3.01094e-05
      130.000   2.98712e-05
      130.100   2.96346e-05
      130.200   2.93996e-05
      130.300   2.91663e-05
      130.400   2.89347e-05
      130.500   2.87046e-05
      130.600   2.84763e-05
      130.700   2.82496e-05
      130.800   2.80246e-05
      130.900   2.78012e-05
      131.000   2.75793e-05
      131.100   2.73589e-05
      131.200   2.71397e-05
      131.300   2.69214e-05
      131.400   2.67044e-05
      131.500   2.64888e-05
      131.600   2.62746e-05
      131.700   2.60617e-05
      131.800   2.58501e-05
      131.900   2.56398e-05
      132.000   2.54308e-05
      132.100   2.52231e-05
      132.200   2.50167e-05
      132.300   2.48117e-05
      132.400   2.46080e-05
      132.500   2.44057e-05
      132.600   2.42049e-05
      132.700   2.40055e-05
      132.800   2.38075e-05
      132.900   2.36108e-05
      133.000   2.34153e-05
      133.100   2.32212e-05
      133.200   2.30284e-05
      133.300   2.28368e-05
      133.400   2.26463e-05
      133.500   2.24571e-05
      133.600   2.22692e-05
      133.700   2.20827e-05
      133.800   2.18975e-05
      133.900   2.17138e-05
      134.000   2.15315e-05
      134.100   2.13505e-05
      134.200   2.11708e-05
      134.300   2.09924e-05
      134.400   2.08154e-05
      134.500   2.06397e-05
      134.600   2.04653e-05
      134.700   2.02922e-05
      134.800   2.01204e-05
      134.900   1.99499e-05
      135.000   1.97806e-05
      135.100   1.96126e-05
      135.200   1.94458e-05
      135.300   1.92803e-05
      135.400   1.91160e-05
      135.500   1.89524e-05
      135.600   1.87896e-05
      135.700   1.86280e-05
      135.800   1.84676e-05
      135.900   1.83083e-05
      136.000   1.81502e-05
      136.100   1.79932e-05
      136.200   1.78373e-05
      136.300   1.76825e-05
      136.400   1.75288e-05
      136.500   1.73762e-05
      136.600   1.72245e-05
      136.700   1.70739e-05
      136.800   1.69244e-05
      136.900   1.67760e-05
      137.000   1.66285e-05
      137.100   1.64821e-05
      137.200   1.63368e-05
      137.300   1.61926e-05
      137.400   1.60496e-05
      137.500   1.59076e-05
      137.600   1.57666e-05
      137.700   1.56265e-05
      137.800   1.54874e-05
      137.900   1.53493e-05
      138.000   1.52124e-05
      138.100   1.50765e-05
      138.200   1.49417e-05
      138.300   1.48080e-05
      138.400   1.46754e-05
      138.500   1.45438e-05
      138.600   1.44133e-05
      138.700   1.42838e-05
      138.800   1.41554e-05
      138.900   1.40280e-05
      139.000   1.39017e-05
      139.100   1.37764e-05
      139.200   1.36521e-05
      139.300   1.35288e-05
      139.400   1.34066e-05
      139.500   1.32853e-05
      139.600   1.31649e-05
      139.700   1.30455e-05
      139.800   1.29270e-05
      139.900   1.28094e-05
      140.000   1.26927e-05
      140.100   1.25769e-05
      140.200   1.24620e-05
      140.300   1.23480e-05
      140.400   1.22348e-05
      140.500   1.21225e-05
      140.600   1.20111e-05
      140.700   1.19006e-05
      140.800   1.17910e-05
      140.900   1.16823e-05
      141.000   1.15744e-05
      141.100   1.14674e-05
      141.200   1.13613e-05
      141.300   1.12559e-05
      141.400   1.11514e-05
      141.500   1.10477e-05
      141.600   1.09448e-05
      141.700   1.08428e-05
      141.800   1.07416e-05
      141.900   1.06411e-05
      142.000   1.05414e-05
      142.100   1.04467e-05
      142.200   1.03646e-05
      142.300   1.02934e-05
      142.400   1.02225e-05
      142.500   1.01519e-05
      142.600   1.00816e-05
      142.700   1.00117e-05
      142.800   9.94206e-06
      142.900   9.87282e-06
      143.000   9.80393e-06
      143.100   9.73540e-06
      143.200   9.66729e-06
      143.300   9.59950e-06
      143.400   9.53209e-06
      143.500   9.46504e-06
      143.600   9.39832e-06
      143.700   9.33191e-06
      143.800   9.26590e-06
      143.900   9.20024e-06
      144.000   9.13490e-06
      144.100   9.06990e-06
      144.200   9.00525e-06
      144.300   8.94089e-06
      144.400   8.87785e-06
      144.500   8.82838e-06
      144.600   8.78320e-06
      144.700   8.73853e-06
      144.800   8.69389e-06
      144.900   8.64926e-06
      145.000   8.60465e-06
      145.100   8.56008e-06
      145.200   8.51551e-06
      145.300   8.47098e-06
      145.400   8.42647e-06
      145.500   8.38198e-06
      145.600   8.33751e-06
      145.700   8.29306e-06
      145.800   8.24865e-06
      145.900   8.20428e-06
      146.000   8.15992e-06
      146.100   8.11560e-06
      146.200   8.07133e-06
      146.300   8.02710e-06
      146.400   7.98291e-06
      146.500   7.93881e-06
      146.600   7.89476e-06
      146.700   7.85080e-06
      146.800   7.80641e-06
      146.900   7.76143e-06
      147.000   7.71653e-06
      147.100   7.67173e-06
      147.200   7.62703e-06
      147.300   7.58241e-06
      147.400   7.53790e-06
      147.500   7.49349e-06
      147.600   7.44916e-06
      147.700   7.40495e-06
      147.800   7.36086e-06
      147.900   7.31686e-06
      148.000   7.27298e-06
      148.100   7.22922e-06
      148.200   7.18559e-06
      148.300   7.14209e-06
      148.400   7.09872e-06
      148.500   7.05548e-06
      148.600   7.01238e-06
      148.700   6.96941e-06
      148.800   6.92656e-06
      148.900   6.88388e-06
      149.000   6.84135e-06
      149.100   6.79896e-06
      149.200   6.75666e-06
      149.300   6.71448e-06
      149.400   6.67243e-06
      149.500   6.63053e-06
      149.600   6.58876e-06
      149.700   6.54712e-06
      149.800   6.50561e-06
      149.900   6.46423e-06
      150.000   6.42296e-06
      150.100   6.38184e-06
      150.200   6.34082e-06
      150.300   6.29996e-06
      150.400   6.25921e-06
      150.500   6.21859e-06
      150.600   6.17809e-06
      150.700   6.13770e-06
      150.800   6.09746e-06
      150.900   6.05734e-06
      151.000   6.01733e-06
      151.100   5.97745e-06
      151.200   5.93770e-06
      151.300   5.89807e-06
      151.400   5.85856e-06
      151.500   5.81920e-06
      151.600   5.78005e-06
      151.700   5.74113e-06
      151.800   5.70233e-06
      151.900   5.66365e-06
      152.000   5.62512e-06
      152.100   5.58674e-06
      152.200   5.54851e-06
      152.300   5.51041e-06
      152.400   5.47247e-06
      152.500   5.43467e-06
      152.600   5.39703e-06
      152.700   5.35956e-06
      152.800   5.32223e-06
      152.900   5.28510e-06
      153.000   5.24811e-06
      153.100   5.21131e-06
      153.200   5.17465e-06
      153.300   5.13817e-06
      153.400   5.10186e-06
      153.500   5.06570e-06
      153.600   5.02971e-06
      153.700   4.99390e-06
      153.800   4.95824e-06
      153.900   4.92275e-06
      154.000   4.88800e-06
      154.100   4.85469e-06
      154.200   4.82196e-06
      154.300   4.78935e-06
      154.400   4.75687e-06
      154.500   4.72452e-06
      154.600   4.69231e-06
      154.700   4.66022e-06
      154.800   4.62825e-06
      154.900   4.59641e-06
      155.000   4.56469e-06
      155.100   4.53311e-06
      155.200   4.50165e-06
      155.300   4.47033e-06
      155.400   4.43914e-06
      155.500   4.40808e-06
      155.600   4.37713e-06
      155.700   4.34632e-06
      155.800   4.31563e-06
      155.900   4.28507e-06
      156.000   4.25463e-06
      156.100   4.22432e-06
      156.200   4.19413e-06
      156.300   4.16406e-06
      156.400   4.13410e-06
      156.500   4.10412e-06
      156.600   4.07332e-06
      156.700   4.04265e-06
      156.800   4.01211e-06
      156.900   3.98172e-06
      157.000   3.95148e-06
      157.100   3.92136e-06
      157.200   3.89140e-06
      157.300   3.86157e-06
      157.400   3.83190e-06
      157.500   3.80235e-06
      157.600   3.77295e-06
      157.700   3.74370e-06
      157.800   3.71460e-06
      157.900   3.68563e-06
      158.000   3.65682e-06
      158.100   3.62816e-06
      158.200   3.59965e-06
      158.300   3.57129e-06
      158.400   3.54308e-06
      158.500   3.51503e-06
      158.600   3.48713e-06
      158.700   3.45937e-06
      158.800   3.43178e-06
      158.900   3.40433e-06
      159.000   3.37706e-06
      159.100   3.34992e-06
      159.200   3.32293e-06
      159.300   3.29610e-06
      159.400   3.26942e-06
      159.500   3.24291e-06
      159.600   3.21655e-06
      159.700   3.19036e-06
      159.800   3.16432e-06
      159.900   3.13844e-06
      160.000   3.11271e-06
      160.100   3.08715e-06
      160.200   3.06174e-06
      160.300   3.03647e-06
      160.400   3.01137e-06
      160.500   2.98640e-06
      160.600   2.96160e-06
      160.700   2.93694e-06
      160.800   2.91243e-06
      160.900   2.88806e-06
      161.000   2.86384e-06
      161.100   2.83976e-06
      161.200   2.81584e-06
      161.300   2.79206e-06
      161.400   2.76843e-06
      161.500   2.74494e-06
      161.600   2.72158e-06
      161.700   2.69834e-06
      161.800   2.67524e-06
      161.900   2.65229e-06
      162.000   2.62947e-06
      162.100   2.60680e-06
      162.200   2.58427e-06
      162.300   2.56188e-06
      162.400   2.53963e-06
      162.500   2.51752e-06
      162.600   2.49556e-06
      162.700   2.47374e-06
      162.800   2.45206e-06
      162.900   2.43052e-06
      163.000   2.40911e-06
      163.100   2.38785e-06
      163.200   2.36673e-06
      163.300   2.34574e-06
      163.400   2.32489e-06
      163.500   2.30418e-06
      163.600   2.28360e-06
      163.700   2.26316e-06
      163.800   2.24287e-06
      163.900   2.22272e-06
      164.000   2.20270e-06
      164.100   2.18282e-06
      164.200   2.16309e-06
      164.300   2.14362e-06
      164.400   2.12430e-06
      164.500   2.10511e-06
      164.600   2.08606e-06
      164.700   2.06714e-06
      164.800   2.04836e-06
      164.900   2.02971e-06
      165.000   2.01120e-06
      165.100   1.99283e-06
      165.200   1.97459e-06
      165.300   1.95649e-06
      165.400   1.93852e-06
      165.500   1.92069e-06
      165.600   1.90300e-06
      165.700   1.88542e-06
      165.800   1.86800e-06
      165.900   1.85069e-06
      166.000   1.83354e-06
      166.100   1.81650e-06
      166.200   1.79960e-06
      166.300   1.78284e-06
      166.400   1.76620e-06
      166.500   1.74968e-06
      166.600   1.73330e-06
      166.700   1.71704e-06
      166.800   1.70090e-06
      166.900   1.68488e-06
      167.000   1.66902e-06
      167.100   1.65325e-06
      167.200   1.63761e-06
      167.300   1.62208e-06
      167.400   1.60668e-06
      167.500   1.59140e-06
      167.600   1.57623e-06
      167.700   1.56119e-06
      167.800   1.54626e-06
      167.900   1.53144e-06
      168.000   1.51674e-06
      168.100   1.50215e-06
      168.200   1.48767e-06
      168.300   1.47330e-06
      168.400   1.45905e-06
      168.500   1.44491e-06
      168.600   1.43088e-06
      168.700   1.41695e-06
      168.800   1.40314e-06
      168.900   1.38943e-06
      169.000   1.37583e-06
      169.100   1.36234e-06
      169.200   1.34896e-06
      169.300   1.33567e-06
      169.400   1.32250e-06
      169.500   1.30936e-06
      169.600   1.29602e-06
      169.700   1.28244e-06
      169.800   1.26888e-06
      169.900   1.25543e-06
      170.000   1.24208e-06
      170.100   1.22884e-06
      170.200   1.21572e-06
      170.300   1.59519e-06
      170.400   3.44926e-06
      170.500   6.57243e-06
      170.600   9.72844e-06
      170.700   1.22858e-05
      170.800   1.35142e-05
      170.900   1.36169e-05
      171.000   1.34409e-05
      171.100   1.32662e-05
      171.200   1.30929e-05
      171.300   1.29208e-05
      171.400   1.27502e-05
      171.500   1.25810e-05
      171.600   1.24133e-05
      171.700   1.22470e-05
      171.800   1.20824e-05
      171.900   1.19196e-05
      172.000   1.17587e-05
      172.100   1.15996e-05
      172.200   1.14426e-05
      172.300   1.12873e-05
      172.400   1.11318e-05
      172.500   1.09780e-05
      172.600   1.08263e-05
      172.700   1.06767e-05
      172.800   1.05293e-05
      172.900   1.03840e-05
      173.000   1.02408e-05
      173.100   1.00996e-05
      173.200   9.96050e-06
      173.300   9.82343e-06
      173.400   9.68827e-06
      173.500   9.55511e-06
      173.600   9.42391e-06
      173.700   9.29456e-06
      173.800   9.16703e-06
      173.900   9.04138e-06
      174.000   8.91748e-06
      174.100   8.79527e-06
      174.200   8.67482e-06
      174.300   8.55603e-06
      174.400   8.43887e-06
      174.500   8.32331e-06
      174.600   8.20923e-06
      174.700   8.09673e-06
      174.800   7.98575e-06
      174.900   7.87620e-06
      175.000   7.76799e-06
      175.100   7.66121e-06
      175.200   7.55611e-06
      175.300   7.45231e-06
      175.400   7.34981e-06
      175.500   7.24867e-06
      175.600   7.14881e-06
      175.700   7.05024e-06
      175.800   6.95292e-06
      175.900   6.85686e-06
      176.000   6.76203e-06
      176.100   6.66846e-06
      176.200   6.57608e-06
      176.300   6.48486e-06
      176.400   6.39488e-06
      176.500   6.30603e-06
      176.600   6.21832e-06
      176.700   6.13175e-06
      176.800   6.04632e-06
      176.900   5.96200e-06
      177.000   5.87877e-06
      177.100   5.79659e-06
      177.200   5.71552e-06
      177.300   5.63550e-06
      177.400   5.55647e-06
      177.500   5.47846e-06
      177.600   5.40147e-06
      177.700   5.32548e-06
      177.800   5.25047e-06
      177.900   5.17636e-06
      178.000   5.10355e-06
      178.100   5.03172e-06
      178.200   4.96078e-06
      178.300   4.89076e-06
      178.400   4.82166e-06
      178.500   4.75345e-06
      178.600   4.68610e-06
      178.700   4.61961e-06
      178.800   4.55400e-06
      178.900   4.48926e-06
      179.000   4.42535e-06
      179.100   4.36225e-06
      179.200   4.30001e-06
      179.300   4.23860e-06
      179.400   4.17800e-06
      179.500   4.11825e-06
      179.600   4.05929e-06
      179.700   4.00117e-06
      179.800   3.94383e-06
      179.900   3.88728e-06
      180.000   3.83150e-06
      180.100   3.77652e-06
      180.200   3.72232e-06
      180.300   3.66889e-06
      180.400   3.61621e-06
      180.500   3.56430e-06
      180.600   3.51312e-06
      180.700   3.46269e-06
      180.800   3.41299e-06
      180.900   3.36399e-06
      181.000   3.31569e-06
      181.100   3.26811e-06
      181.200   3.22121e-06
      181.300   3.17498e-06
      181.400   3.12944e-06
      181.500   3.08455e-06
      181.600   3.04030e-06
      181.700   2.99669e-06
      181.800   2.95370e-06
      181.900   2.91132e-06
      182.000   2.86957e-06
      182.100   2.82840e-06
      182.200   2.78784e-06
      182.300   2.74784e-06
      182.400   2.70842e-06
      182.500   2.66954e-06
      182.600   2.63120e-06
      182.700   2.59340e-06
      182.800   2.55613e-06
      182.900   2.51937e-06
      183.000   2.48313e-06
      183.100   2.44740e-06
      183.200   2.41215e-06
      183.300   2.37739e-06
      183.400   2.34311e-06
      183.500   2.30931e-06
      183.600   2.27597e-06
      183.700   2.24310e-06
      183.800   2.21071e-06
      183.900   2.17878e-06
      184.000   2.14729e-06
      184.100   2.11625e-06
      184.200   2.08565e-06
      184.300   2.05546e-06
      184.400   2.02571e-06
      184.500   1.99637e-06
      184.600   1.96743e-06
      184.700   1.93890e-06
      184.800   1.91077e-06
      184.900   1.88303e-06
      185.000   1.85567e-06
      185.100   1.82869e-06
      185.200   1.80208e-06
      185.300   1.77586e-06
      185.400   1.74999e-06
      185.500   1.72448e-06
      185.600   1.69932e-06
      185.700   1.67450e-06
      185.800   1.65004e-06
      185.900   1.62593e-06
      186.000   1.60214e-06
      186.100   1.57868e-06
      186.200   1.55554e-06
      186.300   1.53271e-06
      186.400   1.51019e-06
      186.500   1.48798e-06
      186.600   1.46606e-06
      186.700   1.44444e-06
      186.800   1.42311e-06
      186.900   1.40206e-06
      187.000   1.38130e-06
      187.100   1.36081e-06
      187.200   1.34060e-06
      187.300   1.32068e-06
      187.400   1.30103e-06
      187.500   1.28165e-06
      187.600   1.26253e-06
      187.700   1.24367e-06
      187.800   1.22507e-06
      187.900   1.20672e-06
      188.000   1.18863e-06
      188.100   1.17079e-06
      188.200   1.15318e-06
      188.300   1.13583e-06
      188.400   1.11871e-06
      188.500   1.10184e-06
      188.600   1.08522e-06
      188.700   1.06884e-06
      188.800   1.05269e-06
      188.900   1.03678e-06
      189.000   1.02110e-06
      189.100   1.00564e-06
      189.200   9.90407e-07
      189.300   9.75397e-07
      189.400   9.60610e-07
      189.500   9.46037e-07
      189.600   9.31672e-07
      189.700   9.17526e-07
      189.800   9.03666e-07
      189.900   8.90032e-07
      190.000   8.76595e-07
      190.100   8.63362e-07
      190.200   8.50324e-07
      190.300   8.37480e-07
      190.400   8.24821e-07
      190.500   8.12351e-07
      190.600   8.00072e-07
      190.700   7.87969e-07
      190.800   7.76047e-07
      190.900   7.64304e-07
      191.000   7.52737e-07
      191.100   7.41355e-07
      191.200   7.30136e-07
      191.300   7.19083e-07
      191.400   7.08195e-07
      191.500   6.97465e-07
      191.600   6.86894e-07
      191.700   6.76480e-07
      191.800   6.66213e-07
      191.900   6.56101e-07
      192.000   6.46142e-07
      192.100   6.36335e-07
      192.200   6.26681e-07
      192.300   6.17166e-07
      192.400   6.07789e-07
      192.500   5.98550e-07
      192.600   5.89449e-07
      192.700   5.80482e-07
      192.800   5.71646e-07
      192.900   5.62934e-07
      193.000   5.54354e-07
      193.100   5.45905e-07
      193.200   5.37587e-07
      193.300   5.29393e-07
      193.400   5.21325e-07
      193.500   5.13375e-07
      193.600   5.05541e-07
      193.700   4.97824e-07
      193.800   4.90225e-07
      193.900   4.82741e-07
      194.000   4.75366e-07
      194.100   4.68107e-07
      194.200   4.60965e-07
      194.300   4.53928e-07
      194.400   4.46996e-07
      194.500   4.40167e-07
      194.600   4.33438e-07
      194.700   4.26811e-07
      194.800   4.20285e-07
      194.900   4.13853e-07
      195.000   4.07516e-07
      195.100   4.01280e-07
      195.200   3.95139e-07
      195.300   3.89089e-07
      195.400   3.83126e-07
      195.500   3.77249e-07
      195.600   3.71457e-07
      195.700   3.65751e-07
      195.800   3.60126e-07
      195.900   3.54581e-07
      196.000   3.49055e-07
      196.100   3.43609e-07
      196.200   3.38242e-07
      196.300   3.32953e-07
      196.400   3.27740e-07
      196.500   3.22601e-07
      196.600   3.17538e-07
      196.700   3.12547e-07
      196.800   3.07633e-07
      196.900   3.02792e-07
      197.000   2.98022e-07
      197.100   2.93321e-07
      197.200   2.88688e-07
      197.300   2.84120e-07
      197.400   2.79617e-07
      197.500   2.75180e-07
      197.600   2.70808e-07
      197.700   2.66507e-07
      197.800   2.62269e-07
      197.900   2.58091e-07
      198.000   2.53975e-07
      198.100   2.49919e-07
      198.200   2.45923e-07
      198.300   2.41983e-07
      198.400   2.38104e-07
      198.500   2.34288e-07
      198.600   2.30530e-07
      198.700   2.26829e-07
      198.800   2.23182e-07
      198.900   2.19591e-07
      199.000   2.16052e-07
      199.100   2.12567e-07
      199.200   2.09136e-07
      199.300   2.05761e-07
      199.400   2.02440e-07
      199.500   1.99170e-07
      199.600   1.95949e-07
      199.700   1.92778e-07
      199.800   1.89655e-07
      199.900   1.86580e-07
      200.000   1.83553e-07
      200.100   1.80586e-07
      200.200   1.77656e-07
      200.300   1.74774e-07
      200.400   1.71937e-07
      200.500   1.69143e-07
      200.600   1.66394e-07
      200.700   1.63688e-07
      200.800   1.61024e-07
      200.900   1.58402e-07
      201.000   1.55823e-07
      201.100   1.53286e-07
      201.200   1.50788e-07
      201.300   1.48330e-07
      201.400   1.45912e-07
      201.500   1.43530e-07
      201.600   1.41187e-07
      201.700   1.38881e-07
      201.800   1.36610e-07
      201.900   1.34377e-07
      202.000   1.32183e-07
      202.100   1.30021e-07
      202.200   1.27894e-07
      202.300   1.25876e-07
      202.400   1.24025e-07
      202.500   1.22239e-07
      202.600   1.20478e-07
      202.700   1.18742e-07
      202.800   1.17032e-07
      202.900   1.15347e-07
      203.000   1.13686e-07
      203.100   1.12050e-07
      203.200   1.10436e-07
      203.300   1.08845e-07
      203.400   1.07277e-07
      203.500   1.05732e-07
      203.600   1.04209e-07
      203.700   1.02708e-07
      203.800   1.01230e-07
      203.900   9.97744e-08
      204.000   9.83391e-08
      204.100   9.69250e-08
      204.200   9.55319e-08
      204.300   9.41583e-08
      204.400   9.28051e-08
      204.500   9.14716e-08
      204.600   9.01572e-08
      204.700   8.88620e-08
      204.800   8.75870e-08
      204.900   8.63305e-08
      205.000   8.50923e-08
      205.100   8.38724e-08
      205.200   8.26696e-08
      205.300   8.14849e-08
      205.400   8.03171e-08
      205.500   7.91658e-08
      205.600   7.80614e-08
      205.700   7.69999e-08
      205.800   7.59562e-08
      205.900   7.49275e-08
      206.000   7.39134e-08
      206.100   7.29125e-08
      206.200   7.19248e-08
      206.300   7.09508e-08
      206.400   6.99900e-08
      206.500   6.90413e-08
      206.600   6.81056e-08
      206.700   6.71823e-08
      206.800   6.62706e-08
      206.900   6.53711e-08
      207.000   6.44837e-08
      207.100   6.36078e-08
      207.200   6.27439e-08
      207.300   6.18911e-08
      207.400   6.10491e-08
      207.500   6.02179e-08
      207.600   5.93976e-08
      207.700   5.85875e-08
      207.800   5.77879e-08
      207.900   5.69985e-08
      208.000   5.62192e-08
      208.100   5.54498e-08
      208.200   5.46905e-08
      208.300   5.39407e-08
      208.400   5.32008e-08
      208.500   5.24707e-08
      208.600   5.17495e-08
      208.700   5.10374e-08
      208.800   5.03346e-08
      208.900   4.96398e-08
      209.000   4.89493e-08
      209.100   4.82677e-08
      209.200   4.75949e-08
      209.300   4.69306e-08
      209.400   4.62753e-08
      209.500   4.56284e-08
      209.600   4.49900e-08
      209.700   4.43601e-08
      209.800   4.37391e-08
      209.900   4.31258e-08
      210.000   4.25209e-08
      210.100   4.19239e-08
      210.200   4.13348e-08
      210.300   4.07536e-08
      210.400   4.01802e-08
      210.500   3.96143e-08
      210.600   3.90560e-08
      210.700   3.85053e-08
      210.800   3.79619e-08
      210.900   3.74258e-08
      211.000   3.68968e-08
      211.100   3.63751e-08
      211.200   3.58604e-08
      211.300   3.53530e-08
      211.400   3.48526e-08
      211.500   3.43588e-08
      211.600   3.38718e-08
      211.700   3.33915e-08
      211.800   3.29174e-08
      211.900   3.24498e-08
      212.000   3.19889e-08
      212.100   3.15340e-08
      212.200   3.10853e-08
      212.300   3.06430e-08
      212.400   3.02068e-08
      212.500   2.97765e-08
      212.600   2.93523e-08
      212.700   2.89337e-08
      212.800   2.85210e-08
      212.900   2.81140e-08
      213.000   2.77125e-08
      213.100   2.73168e-08
      213.200   2.69266e-08
      213.300   2.65417e-08
      213.400   2.61621e-08
      213.500   2.57878e-08
      213.600   2.54187e-08
      213.700   2.50547e-08
      213.800   2.46957e-08
      213.900   2.43420e-08
      214.000   2.39930e-08
      214.100   2.36490e-08
      214.200   2.33099e-08
      214.300   2.29756e-08
      214.400   2.26458e-08
      214.500   2.23209e-08
      214.600   2.20006e-08
      214.700   2.16848e-08
      214.800   2.13735e-08
      214.900   2.10668e-08
      215.000   2.07643e-08
      215.100   2.04663e-08
      215.200   2.01726e-08
      215.300   1.98833e-08
      215.400   1.95981e-08
      215.500   1.93171e-08
      215.600   1.90403e-08
      215.700   1.87673e-08
      215.800   1.84982e-08
      215.900   1.82332e-08
      216.000   1.79719e-08
      216.100   1.77145e-08
      216.200   1.74608e-08
      216.300   1.72109e-08
      216.400   1.69647e-08
      216.500   1.67220e-08
      216.600   1.64829e-08
      216.700   1.62474e-08
      216.800   1.60153e-08
      216.900   1.57866e-08
      217.000   1.55613e-08
      217.100   1.53392e-08
      217.200   1.51204e-08
      217.300   1.49048e-08
      217.400   1.46923e-08
      217.500   1.44830e-08
      217.600   1.42766e-08
      217.700   1.40732e-08
      217.800   1.38728e-08
      217.900   1.36754e-08
      218.000   1.34808e-08
      218.100   1.32890e-08
      218.200   1.31000e-08
      218.300   1.29137e-08
      218.400   1.27301e-08
      218.500   1.25490e-08
      218.600   1.23705e-08
      218.700   1.21946e-08
      218.800   1.20211e-08
      218.900   1.18502e-08
      219.000   1.16816e-08
      219.100   1.15154e-08
      219.200   1.13515e-08
      219.300   1.11899e-08
      219.400   1.10305e-08
      219.500   1.08733e-08
      219.600   1.07184e-08
      219.700   1.05656e-08
      219.800   1.04149e-08
      219.900   1.02664e-08
      220.000   1.01198e-08
      220.100   9.97527e-09
      220.200   9.83273e-09
      220.300   9.69220e-09
      220.400   9.55358e-09
      220.500   9.41691e-09
      220.600   9.28213e-09
      220.700   9.14915e-09
      220.800   9.01798e-09
      220.900   8.88870e-09
      221.000   8.76115e-09
      221.100   8.63533e-09
      221.200   8.51130e-09
      221.300   8.38897e-09
      221.400   8.26831e-09
      221.500   8.14932e-09
      221.600   8.03198e-09
      221.700   7.91623e-09
      221.800   7.80205e-09
      221.900   7.68947e-09
      222.000   7.57850e-09
      222.100   7.46900e-09
      222.200   7.36106e-09
      222.300   7.25457e-09
      222.400   7.14958e-09
      222.500   7.04599e-09
      222.600   6.94391e-09
      222.700   6.84320e-09
      222.800   6.74386e-09
      222.900   6.64591e-09
      223.000   6.54931e-09
      223.100   6.45402e-09
      223.200   6.36008e-09
      223.300   6.26743e-09
      223.400   6.17610e-09
      223.500   6.08598e-09
      223.600   5.99718e-09
      223.700   5.90958e-09
      223.800   5.82318e-09
      223.900   5.73806e-09
      224.000   5.65406e-09
      224.100   5.57123e-09
      224.200   5.48956e-09
      224.300   5.40904e-09
      224.400   5.32962e-09
      224.500   5.25133e-09
      224.600   5.17409e-09
      224.700   5.09800e-09
      224.800   5.02294e-09
      224.900   4.94890e-09
      225.000   4.87592e-09
      225.100   4.80395e-09
      225.200   4.73298e-09
      225.300   4.66305e-09
      225.400   4.59405e-09
      225.500   4.52603e-09
      225.600   4.45896e-09
      225.700   4.39286e-09
      225.800   4.32766e-09
      225.900   4.26339e-09
      226.000   4.20004e-09
      226.100   4.13758e-09
      226.200   4.07602e-09
      226.300   4.01561e-09
      226.400   3.95632e-09
      226.500   3.89780e-09
      226.600   3.84003e-09
      226.700   3.78305e-09
      226.800   3.72682e-09
      226.900   3.67137e-09
      227.000   3.61672e-09
      227.100   3.56283e-09
      227.200   3.50973e-09
      227.300   3.45739e-09
      227.400   3.40582e-09
      227.500   3.35498e-09
      227.600   3.30489e-09
      227.700   3.25552e-09
      227.800   3.20689e-09
      227.900   3.15896e-09
      228.000   3.11173e-09
      228.100   3.06520e-09
      228.200   3.01935e-09
      228.300   2.97417e-09
      228.400   2.92968e-09
      228.500   2.88583e-09
      228.600   2.84264e-09
      228.700   2.80010e-09
      228.800   2.75817e-09
      228.900   2.71690e-09
      229.000   2.67623e-09
      229.100   2.63617e-09
      229.200   2.59671e-09
      229.300   2.55784e-09
      229.400   2.51957e-09
      229.500   2.48187e-09
      229.600   2.44473e-09
      229.700   2.40816e-09
      229.800   2.37214e-09
      229.900   2.33666e-09
      230.000   2.30155e-09
      230.100   2.26571e-09
      230.200   2.23039e-09
      230.300   2.19565e-09
      230.400   2.16144e-09
      230.500   2.12777e-09
      230.600   2.09464e-09
      230.700   2.06203e-09
      230.800   2.02993e-09
      230.900   1.99834e-09
      231.000   1.96724e-09
      231.100   1.93662e-09
      231.200   1.90649e-09
      231.300   1.87683e-09
      231.400   1.84765e-09
      231.500   1.81891e-09
      231.600   1.79061e-09
      231.700   1.76277e-09
      231.800   1.73536e-09
      231.900   1.70838e-09
      232.000   1.68181e-09
      232.100   1.65566e-09
      232.200   1.62992e-09
      232.300   1.60458e-09
      232.400   1.57963e-09
      232.500   1.55506e-09
      232.600   1.53088e-09
      232.700   1.50707e-09
      232.800   1.48363e-09
      232.900   1.46056e-09
      233.000   1.43784e-09
      233.100   1.41547e-09
      233.200   1.39345e-09
      233.300   1.37176e-09
      233.400   1.35042e-09
      233.500   1.32940e-09
      233.600   1.30872e-09
      233.700   1.28835e-09
      233.800   1.26613e-09
      233.900   1.24401e-09
      234.000   1.22226e-09
      234.100   1.20088e-09
      234.200   1.17988e-09
      234.300   1.15924e-09
      234.400   1.13895e-09
      234.500   1.11901e-09
      234.600   1.09941e-09
      234.700   1.08015e-09
      234.800   1.06123e-09
      234.900   1.04262e-09
      235.000   1.02433e-09
      235.100   1.00636e-09
      235.200   9.88693e-10
      235.300   9.71332e-10
      235.400   9.54268e-10
      235.500   9.37498e-10
      235.600   9.21020e-10
      235.700   9.04820e-10
      235.800   8.88913e-10
      235.900   8.73278e-10
      236.000   8.57912e-10
      236.100   8.42806e-10
      236.200   8.27960e-10
      236.300   8.13367e-10
      236.400   7.99030e-10
      236.500   7.84935e-10
      236.600   7.71082e-10
      236.700   7.57466e-10
      236.800   7.44083e-10
      236.900   7.30930e-10
      237.000   7.18001e-10
      237.100   7.05293e-10
      237.200   6.92804e-10
      237.300   6.80529e-10
      237.400   6.68464e-10
      237.500   6.56602e-10
      237.600   6.44938e-10
      237.700   6.33482e-10
      237.800   6.22222e-10
      237.900   6.11154e-10
      238.000   6.00279e-10
      238.100   5.89585e-10
      238.200   5.79076e-10
      238.300   5.68745e-10
      238.400   5.58590e-10
      238.500   5.48608e-10
      238.600   5.38798e-10
      238.700   5.29158e-10
      238.800   5.19680e-10
      238.900   5.10365e-10
      239.000   5.01207e-10
      239.100   4.92206e-10
      239.200   4.83363e-10
      239.300   4.74670e-10
      239.400   4.66135e-10
      239.500   4.57745e-10
      239.600   4.49496e-10
      239.700   4.41393e-10
      239.800   4.33425e-10
      239.900   4.25595e-10
      240.000   4.17900e-10
      240.100   4.10335e-10
      240.200   4.02900e-10
      240.300   3.95594e-10
      240.400   3.88411e-10
      240.500   3.81356e-10
      240.600   3.74422e-10
      240.700   3.67607e-10
      240.800   3.60913e-10
      240.900   3.54339e-10
      241.000   3.47879e-10
      241.100   3.41531e-10
      241.200   3.35293e-10
      241.300   3.29163e-10
      241.400   3.23141e-10
      241.500   3.17223e-10
      241.600   3.11408e-10
      241.700   3.05695e-10
      241.800   3.00082e-10
      241.900   2.94566e-10
      242.000   2.89149e-10
      242.100   2.83827e-10
      242.200   2.78603e-10
      242.300   2.73475e-10
      242.400   2.68435e-10
      242.500   2.63486e-10
      242.600   2.58624e-10
      242.700   2.53848e-10
      242.800   2.49158e-10
      242.900   2.44551e-10
      243.000   2.40026e-10
      243.100   2.35582e-10
      243.200   2.31217e-10
      243.300   2.26930e-10
      243.400   2.22722e-10
      243.500   2.18591e-10
      243.600   2.14539e-10
      243.700   2.10558e-10
      243.800   2.06649e-10
      243.900   2.02812e-10
      244.000   1.99043e-10
      244.100   1.95343e-10
      244.200   1.91710e-10
      244.300   1.88142e-10
      244.400   1.84639e-10
      244.500   1.81200e-10
      244.600   1.77824e-10
      244.700   1.74511e-10
      244.800   1.71262e-10
      244.900   1.68072e-10
      245.000   1.64939e-10
      245.100   1.61864e-10
      245.200   1.58846e-10
      245.300   1.55883e-10
      245.400   1.52973e-10
      245.500   1.50118e-10
      245.600   1.47315e-10
      245.700   1.44563e-10
      245.800   1.41861e-10
      245.900   1.39212e-10
      246.000   1.36614e-10
      246.100   1.34062e-10
      246.200   1.31558e-10
      246.300   1.29100e-10
      246.400   1.26687e-10
      246.500   1.24319e-10
      246.600   1.21994e-10
      246.700   1.19712e-10
      246.800   1.17471e-10
      246.900   1.15272e-10
      247.000   1.13117e-10
      247.100   1.11001e-10
      247.200   1.08926e-10
      247.300   1.06888e-10
      247.400   1.04888e-10
      247.500   1.02925e-10
      247.600   1.00998e-10
      247.700   9.91065e-11
      247.800   9.72499e-11
      247.900   9.54273e-11
      248.000   9.36386e-11
      248.100   9.18872e-11
      248.200   9.01675e-11
      248.300   8.84793e-11
      248.400   8.68223e-11
      248.500   8.51955e-11
      248.600   8.35989e-11
      248.700   8.20320e-11
      248.800   8.04940e-11
      248.900   7.89846e-11
      249.000   7.75030e-11
      249.100   7.60508e-11
      249.200   7.46265e-11
      249.300   7.32279e-11
      249.400   7.18551e-11
      249.500   7.05080e-11
      249.600   6.91854e-11
      249.700   6.78872e-11
      249.800   6.66131e-11
      249.900   6.53624e-11
      250.000   6.41352e-11
      250.100   6.29322e-11
      250.200   6.17513e-11
      250.300   6.05934e-11
      250.400   5.94565e-11
      250.500   5.83410e-11
      250.600   5.72462e-11
      250.700   5.61715e-11
      250.800   5.51168e-11
      250.900   5.40817e-11
      251.000   5.30656e-11
      251.100   5.20685e-11
      251.200   5.10905e-11
      251.300   5.01315e-11
      251.400   4.91903e-11
      251.500   4.82662e-11
      251.600   4.73593e-11
      251.700   4.64697e-11
      251.800   4.55963e-11
      251.900   4.47390e-11
      252.000   4.38974e-11
      252.100   4.30719e-11
      252.200   4.22612e-11
      252.300   4.14665e-11
      252.400   4.06863e-11
      252.500   3.99212e-11
      252.600   3.91699e-11
      252.700   3.84326e-11
      252.800   3.77090e-11
      252.900   3.69987e-11
      253.000   3.63015e-11
      253.100   3.56173e-11
      253.200   3.49457e-11
      253.300   3.42993e-11
      253.400   3.36703e-11
      253.500   3.30531e-11
      253.600   3.24474e-11
      253.700   3.18524e-11
      253.800   3.12682e-11
      253.900   3.06946e-11
      254.000   3.01311e-11
      254.100   2.95776e-11
      254.200   2.90339e-11
      254.300   2.85001e-11
      254.400   2.79758e-11
      254.500   2.74609e-11
      254.600   2.69550e-11
      254.700   2.64585e-11
      254.800   2.59712e-11
      254.900   2.54926e-11
      255.000   2.50226e-11
      255.100   2.45607e-11
      255.200   2.41071e-11
      255.300   2.36617e-11
      255.400   2.32242e-11
      255.500   2.27946e-11
      255.600   2.23727e-11
      255.700   2.19582e-11
      255.800   2.15512e-11
      255.900   2.11513e-11
      256.000   2.07586e-11
      256.100   2.03731e-11
      256.200   1.99946e-11
      256.300   1.96229e-11
      256.400   1.92581e-11
      256.500   1.88994e-11
      256.600   1.85474e-11
      256.700   1.82016e-11
      256.800   1.78620e-11
      256.900   1.75284e-11
      257.000   1.72009e-11
      257.100   1.68791e-11
      257.200   1.65633e-11
      257.300   1.62531e-11
      257.400   1.59519e-11
      257.500   1.56572e-11
      257.600   1.53682e-11
      257.700   1.50842e-11
      257.800   1.48053e-11
      257.900   1.45314e-11
      258.000   1.42624e-11
      258.100   1.39980e-11
      258.200   1.37384e-11
      258.300   1.34835e-11
      258.400   1.32331e-11
      258.500   1.29870e-11
      258.600   1.27455e-11
      258.700   1.25082e-11
      258.800   1.22751e-11
      258.900   1.20464e-11
      259.000   1.18215e-11
      259.100   1.16009e-11
      259.200   1.13841e-11
      259.300   1.11715e-11
      259.400   1.09626e-11
      259.500   1.07575e-11
      259.600   1.05561e-11
      259.700   1.03584e-11
      259.800   1.01641e-11
      259.900   9.97336e-12
      260.000   9.78613e-12
      260.100   9.60231e-12
      260.200   9.42179e-12
      260.300   9.24455e-12
      260.400   9.07056e-12
      260.500   8.89978e-12
      260.600   8.73202e-12
      260.700   8.56733e-12
      260.800   8.40577e-12
      260.900   8.24704e-12
      261.000   8.09132e-12
      261.100   7.93851e-12
      261.200   7.78846e-12
      261.300   7.64116e-12
      261.400   7.49665e-12
      261.500   7.35496e-12
      261.600   7.21645e-12
      261.700   7.08058e-12
      261.800   6.94723e-12
      261.900   6.81626e-12
      262.000   6.68772e-12
      262.100   6.56153e-12
      262.200   6.43774e-12
      262.300   6.31616e-12
      262.400   6.19685e-12
      262.500   6.07973e-12
      262.600   5.96475e-12
      262.700   5.85191e-12
      262.800   5.74118e-12
      262.900   5.63244e-12
      263.000   5.52582e-12
      263.100   5.42112e-12
      263.200   5.31843e-12
      263.300   5.21763e-12
      263.400   5.11870e-12
      263.500   5.02164e-12
      263.600   4.92639e-12
      263.700   4.83290e-12
      263.800   4.74113e-12
      263.900   4.65114e-12
      264.000   4.56280e-12
      264.100   4.47608e-12
      264.200   4.39097e-12
      264.300   4.30752e-12
      264.400   4.22562e-12
      264.500   4.14523e-12
      264.600   4.06634e-12
      264.700   3.98896e-12
      264.800   3.91299e-12
      264.900   3.83849e-12
      265.000   3.76539e-12
      265.100   3.69364e-12
      265.200   3.62325e-12
      265.300   3.55418e-12
      265.400   3.48644e-12
      265.500   3.41994e-12
      265.600   3.35474e-12
      265.700   3.29073e-12
      265.800   3.22804e-12
      265.900   3.16653e-12
      266.000   3.10622e-12
      266.100   3.04703e-12
      266.200   2.98898e-12
      266.300   2.93200e-12
      266.400   2.87612e-12
      266.500   2.82127e-12
      266.600   2.76749e-12
      266.700   2.71472e-12
      266.800   2.66297e-12
      266.900   2.61219e-12
      267.000   2.56235e-12
      267.100   2.51347e-12
      267.200   2.46555e-12
      267.300   2.41852e-12
      267.400   2.37238e-12
      267.500   2.32711e-12
      267.600   2.28272e-12
      267.700   2.23917e-12
      267.800   2.19643e-12
      267.900   2.15451e-12
      268.000   2.11341e-12
      268.100   2.07307e-12
      268.200   2.03352e-12
      268.300   1.99473e-12
      268.400   1.95666e-12
      268.500   1.91932e-12
      268.600   1.88268e-12
      268.700   1.84676e-12
      268.800   1.81151e-12
      268.900   1.77695e-12
      269.000   1.74305e-12
      269.100   1.70978e-12
      269.200   1.67717e-12
      269.300   1.64517e-12
      269.400   1.61376e-12
      269.500   1.58296e-12
      269.600   1.55276e-12
      269.700   1.52314e-12
      269.800   1.49408e-12
      269.900   1.46557e-12
      270.000   1.43761e-12
      270.100   1.41023e-12
      270.200   1.38340e-12
      270.300   1.35707e-12
      270.400   1.33125e-12
      270.500   1.30591e-12
      270.600   1.28106e-12
      270.700   1.25668e-12
      270.800   1.23277e-12
      270.900   1.20930e-12
      271.000   1.18629e-12
      271.100   1.16371e-12
      271.200   1.14155e-12
      271.300   1.11982e-12
      271.400   1.09850e-12
      271.500   1.07759e-12
      271.600   1.05706e-12
      271.700   1.03693e-12
      271.800   1.01718e-12
      271.900   9.97809e-13
      272.000   9.78806e-13
      272.100   9.60154e-13
      272.200   9.41861e-13
      272.300   9.23907e-13
      272.400   9.06292e-13
      272.500   8.89017e-13
      272.600   8.72062e-13
      272.700   8.55428e-13
      272.800   8.39108e-13
      272.900   8.23098e-13
      273.000   8.07393e-13
      273.100   7.91979e-13
      273.200   7.76854e-13
      273.300   7.62022e-13
      273.400   7.47463e-13
      273.500   7.33179e-13
      273.600   7.19165e-13
      273.700   7.05412e-13
      273.800   6.91918e-13
      273.900   6.78686e-13
      274.000   6.65697e-13
      274.100   6.52950e-13
      274.200   6.40444e-13
      274.300   6.28175e-13
      274.400   6.15628e-13
      274.500   6.02202e-13
      274.600   5.88828e-13
      274.700   5.75750e-13
      274.800   5.62950e-13
      274.900   5.50426e-13
      275.000   5.38176e-13
      275.100   5.26194e-13
      275.200   5.14472e-13
      275.300   5.03002e-13
      275.400   4.91785e-13
      275.500   4.80813e-13
      275.600   4.70073e-13
      275.700   4.59572e-13
      275.800   4.49303e-13
      275.900   4.39253e-13
      276.000   4.29422e-13
      276.100   4.19806e-13
      276.200   4.10399e-13
      276.300   4.01195e-13
      276.400   3.92195e-13
      276.500   3.83387e-13
      276.600   3.74776e-13
      276.700   3.66350e-13
      276.800   3.58112e-13
      276.900   3.50051e-13
      277.000   3.42167e-13
      277.100   3.34454e-13
      277.200   3.26910e-13
      277.300   3.19533e-13
      277.400   3.12317e-13
      277.500   3.05258e-13
      277.600   2.98356e-13
      277.700   2.91603e-13
      277.800   2.84999e-13
      277.900   2.78540e-13
      278.000   2.72225e-13
      278.100   2.66049e-13
      278.200   2.60006e-13
      278.300   2.54100e-13
      278.400   2.48323e-13
      278.500   2.42671e-13
      278.600   2.37144e-13
      278.700   2.31742e-13
      278.800   2.26458e-13
      278.900   2.21239e-13
      279.000   2.16121e-13
      279.100   2.11119e-13
      279.200   2.06227e-13
      279.300   2.01447e-13
      279.400   1.96772e-13
      279.500   1.92205e-13
      279.600   1.87739e-13
      279.700   1.83376e-13
      279.800   1.79110e-13
      279.900   1.74938e-13
      280.000   1.70863e-13
      280.100   1.66878e-13
      280.200   1.62985e-13
      280.300   1.59179e-13
      280.400   1.55458e-13
      280.500   1.51825e-13
      280.600   1.48273e-13
      280.700   1.44801e-13
      280.800   1.41409e-13
      280.900   1.38093e-13
      281.000   1.34853e-13
      281.100   1.31686e-13
      281.200   1.28591e-13
      281.300   1.25567e-13
      281.400   1.22613e-13
      281.500   1.19726e-13
      281.600   1.16904e-13
      281.700   1.14147e-13
      281.800   1.11455e-13
      281.900   1.08823e-13
      282.000   1.06251e-13
      282.100   1.03738e-13
      282.200   1.01285e-13
      282.300   9.88868e-14
      282.400   9.65436e-14
      282.500   9.42541e-14
      282.600   9.20184e-14
      282.700   8.98336e-14
      282.800   8.76984e-14
      282.900   8.56150e-14
      283.000   8.35784e-14
      283.100   8.15904e-14
      283.200   7.96482e-14
      283.300   7.77516e-14
      283.400   7.58986e-14
      283.500   7.40889e-14
      283.600   7.23205e-14
      283.700   7.05928e-14
      283.800   6.89060e-14
      283.900   6.72591e-14
      284.000   6.56499e-14
      284.100   6.40783e-14
      284.200   6.25433e-14
      284.300   6.10446e-14
      284.400   5.95807e-14
      284.500   5.81511e-14
      284.600   5.67549e-14
      284.700   5.53921e-14
      284.800   5.40610e-14
      284.900   5.27610e-14
      285.000   5.14912e-14
      285.100   5.02515e-14
      285.200   4.90414e-14
      285.300   4.78594e-14
      285.400   4.67051e-14
      285.500   4.55783e-14
      285.600   4.44785e-14
      285.700   4.34042e-14
      285.800   4.23561e-14
      285.900   4.13326e-14
      286.000   4.03339e-14
      286.100   3.93591e-14
      286.200   3.84069e-14
      286.300   3.74777e-14
      286.400   3.65708e-14
      286.500   3.56849e-14
      286.600   3.48203e-14
      286.700   3.39761e-14
      286.800   3.31522e-14
      286.900   3.23479e-14
      287.000   3.15627e-14
      287.100   3.07963e-14
      287.200   3.00484e-14
      287.300   2.93182e-14
      287.400   2.86053e-14
      287.500   2.79095e-14
      287.600   2.72305e-14
      287.700   2.65675e-14
      287.800   2.59207e-14
      287.900   2.52894e-14
      288.000   2.46734e-14
      288.100   2.40721e-14
      288.200   2.34859e-14
      288.300   2.29139e-14
      288.400   2.23553e-14
      288.500   2.18104e-14
      288.600   2.12783e-14
      288.700   2.07592e-14
      288.800   2.02525e-14
      288.900   1.97583e-14
      289.000   1.92758e-14
      289.100   1.88048e-14
      289.200   1.83454e-14
      289.300   1.78970e-14
      289.400   1.74593e-14
      289.500   1.70324e-14
      289.600   1.66156e-14
      289.700   1.62092e-14
      289.800   1.58123e-14
      289.900   1.54250e-14
      290.000   1.50472e-14
      290.100   1.46788e-14
      290.200   1.43195e-14
      290.300   1.39689e-14
      290.400   1.36267e-14
      290.500   1.32930e-14
      290.600   1.29672e-14
      290.700   1.26494e-14
      290.800   1.23394e-14
      290.900   1.20368e-14
      291.000   1.17414e-14
      291.100   1.14532e-14
      291.200   1.11720e-14
      291.300   1.08977e-14
      291.400   1.06301e-14
      291.500   1.03689e-14
      291.600   1.01140e-14
      291.700   9.86552e-15
      291.800   9.62299e-15
      291.900   9.38668e-15
      292.000   9.15610e-15
      292.100   8.93107e-15
      292.200   8.71162e-15
      292.300   8.49738e-15
      292.400   8.28837e-15
      292.500   8.08437e-15
      292.600   7.88537e-15
      292.700   7.69127e-15
      292.800   7.50190e-15
      292.900   7.31716e-15
      293.000   7.13689e-15
      293.100   6.96094e-15
      293.200   6.78930e-15
      293.300   6.62187e-15
      293.400   6.45862e-15
      293.500   6.29944e-15
      293.600   6.14416e-15
      293.700   5.99264e-15
      293.800   5.84481e-15
      293.900   5.70063e-15
      294.000   5.55991e-15
      294.100   5.42262e-15
      294.200   5.28871e-15
      294.300   5.15807e-15
      294.400   5.03052e-15
      294.500   4.90614e-15
      294.600   4.78476e-15
      294.700   4.66635e-15
      294.800   4.55083e-15
      294.900   4.43821e-15
      295.000   4.32840e-15
      295.100   4.22133e-15
      295.200   4.11683e-15
      295.300   4.01486e-15
      295.400   3.91541e-15
      295.500   3.81840e-15
      295.600   3.72372e-15
      295.700   3.63136e-15
      295.800   3.54126e-15
      295.900   3.45331e-15
      296.000   3.36752e-15
      296.100   3.28381e-15
      296.200   3.20218e-15
      296.300   3.12259e-15
      296.400   3.04507e-15
      296.500   2.96937e-15
      296.600   2.89553e-15
      296.700   2.82350e-15
      296.800   2.75324e-15
      296.900   2.68466e-15
      297.000   2.61777e-15
      297.100   2.55252e-15
      297.200   2.48886e-15
      297.300   2.42674e-15
      297.400   2.36615e-15
      297.500   2.30702e-15
      297.600   2.24940e-15
      297.700   2.19321e-15
      297.800   2.13842e-15
      297.900   2.08497e-15
      298.000   2.03285e-15
      298.100   1.98198e-15
      298.200   1.93236e-15
      298.300   1.88396e-15
      298.400   1.83673e-15
      298.500   1.79065e-15
      298.600   1.74570e-15
      298.700   1.70186e-15
      298.800   1.65907e-15
      298.900   1.61744e-15
      299.000   1.57683e-15
      299.100   1.53722e-15
      299.200   1.49856e-15
      299.300   1.46086e-15
      299.400   1.42407e-15
      299.500   1.38819e-15
      299.600   1.35319e-15
      299.700   1.31906e-15
      299.800   1.28574e-15
      299.900   1.25326e-15
      300.000   1.22158e-15
      300.100   1.19070e-15
      300.192   1.16298e-15
      300.285   1.13558e-15
      300.377   1.10911e-15
      300.470   1.08298e-15
      300.562   1.05772e-15
      300.654   1.03302e-15
      300.747   1.00863e-15
      300.839   9.85070e-16
      300.932   9.61781e-16
      301.025   9.39038e-16
      301.117   9.17063e-16
      301.210   8.95351e-16
      301.303   8.74146e-16
      301.395   8.53672e-16
      301.488   8.33413e-16
      301.581   8.13658e-16
      301.674   7.94339e-16
      301.766   7.75678e-16
      301.859   7.57242e-16
      301.952   7.39244e-16
      302.045   7.21651e-16
      302.138   7.04487e-16
      302.231   6.87733e-16
      302.324   6.71374e-16
      302.417   6.55389e-16
      302.510   6.39768e-16
      302.603   6.24533e-16
      302.696   6.09638e-16
      302.789   5.95087e-16
      302.882   5.80874e-16
      302.976   5.66853e-16
      303.069   5.53303e-16
      303.162   5.40071e-16
      303.255   5.27141e-16
      303.349   5.14382e-16
      303.442   5.02049e-16
      303.535   4.90019e-16
      303.629   4.78139e-16
      303.722   4.66664e-16
      303.816   4.55335e-16
      303.909   4.44391e-16
      304.003   4.33591e-16
      304.096   4.23154e-16
      304.190   4.12854e-16
      304.283   4.02906e-16
      304.377   3.93095e-16
      304.471   3.83508e-16
      304.564   3.74251e-16
      304.658   3.65120e-16
      304.752   3.56195e-16
      304.846   3.47491e-16
      304.939   3.39084e-16
      305.033   3.30784e-16
      305.127   3.22685e-16
      305.221   3.14779e-16
      305.315   3.07063e-16
      305.409   2.99530e-16
      305.503   2.92179e-16
      305.597   2.85004e-16
      305.691   2.77999e-16
      305.785   2.71161e-16
      305.879   2.64488e-16
      305.973   2.57978e-16
      306.067   2.51619e-16
      306.161   2.45419e-16
      306.255   2.39365e-16
      306.350   2.33394e-16
      306.444   2.27630e-16
      306.538   2.22003e-16
      306.633   2.16458e-16
      306.727   2.11101e-16
      306.821   2.05874e-16
      306.916   2.00721e-16
      307.010   1.95747e-16
      307.105   1.90843e-16
      307.199   1.86110e-16
      307.294   1.81440e-16
      307.388   1.76934e-16
      307.483   1.72492e-16
      307.577   1.68203e-16
      307.672   1.63975e-16
      307.767   1.59850e-16
      307.861   1.55870e-16
      307.956   1.51943e-16
      308.051   1.48114e-16
      308.146   1.44381e-16
      308.240   1.40777e-16
      308.335   1.37224e-16
      308.430   1.33757e-16
      308.525   1.30377e-16
      308.620   1.27081e-16
      308.715   1.23866e-16
      308.810   1.20731e-16
      308.905   1.17674e-16
      309.000   1.14692e-16
      309.095   1.11785e-16
      309.190   1.08951e-16
      309.285   1.06186e-16
      309.380   1.03489e-16
      309.476   1.00834e-16
      309.571   9.82712e-17
      309.666   9.57714e-17
      309.761   9.33350e-17
      309.857   9.09348e-17
      309.952   8.86188e-17
      310.047   8.63617e-17
      310.143   8.41371e-17
      310.238   8.19915e-17
      310.334   7.98777e-17
      310.429   7.78378e-17
      310.525   7.58295e-17
      310.620   7.38921e-17
      310.716   7.19830e-17
      310.811   7.01422e-17
      310.907   6.83295e-17
      311.003   6.65625e-17
      311.098   6.48577e-17
      311.194   6.31784e-17
      311.290   6.15424e-17
      311.386   5.99482e-17
      311.481   5.84102e-17
      311.577   5.68962e-17
      311.673   5.54202e-17
      311.769   5.39817e-17
      311.865   5.25808e-17
      311.961   5.12249e-17
      312.057   4.99444e-17
      312.153   4.87091e-17
      312.249   4.75037e-17
      312.345   4.63278e-17
      312.441   4.51801e-17
      312.537   4.40609e-17
      312.633   4.29694e-17
      312.730   4.18926e-17
      312.826   4.08540e-17
      312.922   3.98408e-17
      313.018   3.88524e-17
      313.115   3.78781e-17
      313.211   3.69374e-17
      313.307   3.60200e-17
      313.404   3.51160e-17
      313.500   3.42431e-17
      313.597   3.33835e-17
      313.693   3.25538e-17
      313.790   3.17359e-17
      313.886   3.09464e-17
      313.983   3.01682e-17
      314.079   2.94171e-17
      314.176   2.86774e-17
      314.273   2.79557e-17
      314.369   2.72596e-17
      314.466   2.65735e-17
      314.563   2.59044e-17
      314.660   2.52522e-17
      314.756   2.46225e-17
      314.853   2.40021e-17
      314.950   2.33972e-17
      315.047   2.28076e-17
      315.144   2.22325e-17
      315.241   2.16718e-17
      315.338   2.11252e-17
      315.435   2.05922e-17
      315.532   2.00727e-17
      315.629   1.95661e-17
      315.726   1.90723e-17
      315.823   1.85905e-17
      315.921   1.81163e-17
      316.018   1.76587e-17
      316.115   1.72127e-17
      316.212   1.67776e-17
      316.310   1.63493e-17
      316.407   1.59361e-17
      316.504   1.55330e-17
      316.602   1.51362e-17
      316.699   1.47535e-17
      316.796   1.43804e-17
      316.894   1.40129e-17
      316.991   1.36603e-17
      317.089   1.33246e-17
      317.187   1.30030e-17
      317.284   1.26923e-17
      317.382   1.23858e-17
      317.479   1.20897e-17
      317.577   1.17977e-17
      317.675   1.15129e-17
      317.773   1.12348e-17
      317.870   1.09662e-17
      317.968   1.07012e-17
      318.066   1.04426e-17
      318.164   1.01902e-17
      318.262   9.94392e-18
      318.360   9.70350e-18
      318.458   9.46898e-18
      318.556   9.24018e-18
      318.654   9.01681e-18
      318.752   8.79879e-18
      318.850   8.58605e-18
      318.948   8.37839e-18
      319.046   8.17574e-18
      319.144   7.97792e-18
      319.242   7.78494e-18
      319.341   7.59469e-18
      319.439   7.41092e-18
      319.537   7.23162e-18
      319.635   7.05661e-18
      319.734   6.88411e-18
      319.832   6.71749e-18
      319.930   6.55484e-18
      320.029   6.39456e-18
      320.127   6.23975e-18
      320.226   6.08714e-18
      320.324   5.93966e-18
      320.423   5.79427e-18
      320.522   5.65256e-18
      320.620   5.51565e-18
      320.719   5.38065e-18
      320.818   5.24896e-18
      320.916   5.12175e-18
      321.015   4.99633e-18
      321.114   4.87397e-18
      321.213   4.75460e-18
      321.311   4.63933e-18
      321.410   4.52573e-18
      321.509   4.41483e-18
      321.608   4.30670e-18
      321.707   4.20117e-18
      321.806   4.09818e-18
      321.905   3.99776e-18
      322.004   3.89973e-18
      322.103   3.80415e-18
      322.202   3.71086e-18
      322.301   3.61987e-18
      322.401   3.53022e-18
      322.500   3.44363e-18
      322.599   3.35917e-18
      322.698   3.27677e-18
      322.798   3.19556e-18
      322.897   3.11712e-18
      322.996   3.04061e-18
      323.096   2.96519e-18
      323.195   2.89237e-18
      323.294   2.82133e-18
      323.394   2.75135e-18
      323.493   2.68375e-18
      323.593   2.61714e-18
      323.692   2.55281e-18
      323.792   2.48944e-18
      323.892   2.42762e-18
      323.991   2.36789e-18
      324.091   2.30908e-18
      324.191   2.25170e-18
      324.291   2.19573e-18
      324.390   2.14171e-18
      324.490   2.08843e-18
      324.590   2.03650e-18
      324.690   1.98586e-18
      324.790   1.93644e-18
      324.890   1.88826e-18
      324.990   1.84125e-18
      325.090   1.79538e-18
      325.190   1.75067e-18
      325.290   1.70708e-18
      325.390   1.66451e-18
      325.490   1.62304e-18
      325.590   1.58259e-18
      325.690   1.54310e-18
      325.790   1.50461e-18
      325.891   1.46669e-18
      325.991   1.43008e-18
      326.091   1.39437e-18
      326.192   1.35920e-18
      326.292   1.32524e-18
      326.392   1.29212e-18
      326.493   1.25950e-18
      326.593   1.22800e-18
      326.694   1.19699e-18
      326.794   1.16704e-18
      326.895   1.13753e-18
      326.995   1.10904e-18
      327.096   1.08100e-18
      327.197   1.05364e-18
      327.297   1.02723e-18
      327.398   1.00121e-18
      327.499   9.75851e-19
      327.599   9.51356e-19
      327.700   9.27229e-19
      327.801   9.03709e-19
      327.902   8.80791e-19
      328.003   8.58429e-19
      328.104   8.36630e-19
      328.205   8.15376e-19
      328.306   7.94655e-19
      328.407   7.74454e-19
      328.508   7.54751e-19
      328.609   7.35544e-19
      328.710   7.16823e-19
      328.811   6.98567e-19
      328.912   6.80771e-19
      329.013   6.63417e-19
      329.115   6.46339e-19
      329.216   6.29850e-19
      329.317   6.13773e-19
      329.419   5.97957e-19
      329.520   5.82679e-19
      329.621   5.67782e-19
      329.723   5.53118e-19
      329.824   5.38979e-19
      329.926   5.25054e-19
      330.027   5.11608e-19
      330.129   4.98373e-19
      330.230   4.85607e-19
      330.332   4.73032e-19
      330.434   4.60781e-19
      330.535   4.48953e-19
      330.637   4.37311e-19
      330.739   4.25971e-19
      330.840   4.15022e-19
      330.942   4.04244e-19
      331.044   3.93743e-19
      331.146   3.83509e-19
      331.248   3.73536e-19
      331.350   3.63819e-19
      331.452   3.54359e-19
      331.554   3.45361e-19
      331.656   3.36929e-19
      331.758   3.28701e-19
      331.860   3.20664e-19
      331.962   3.12822e-19
      332.064   3.05166e-19
      332.166   2.97699e-19
      332.268   2.90403e-19
      332.371   2.83221e-19
      332.473   2.76273e-19
      332.575   2.69489e-19
      332.677   2.62874e-19
      332.780   2.56356e-19
      332.882   2.50055e-19
      332.985   2.43847e-19
      333.087   2.37844e-19
      333.190   2.31931e-19
      333.292   2.26136e-19
      333.395   2.20219e-19
      333.497   2.14429e-19
      333.600   2.08734e-19
      333.702   2.03239e-19
      333.805   1.97839e-19
      333.908   1.92572e-19
      334.011   1.87447e-19
      334.113   1.82502e-19
      334.216   1.77637e-19
      334.319   1.72901e-19
      334.422   1.68288e-19
      334.525   1.63795e-19
      334.628   1.59419e-19
      334.731   1.55161e-19
      334.834   1.51012e-19
      334.937   1.46972e-19
      335.040   1.43036e-19
      335.143   1.39206e-19
      335.246   1.35475e-19
      335.349   1.31843e-19
      335.452   1.28306e-19
      335.555   1.24862e-19
      335.659   1.21476e-19
      335.762   1.18211e-19
      335.865   1.15034e-19
      335.969   1.11909e-19
      336.072   1.08896e-19
      336.175   1.05964e-19
      336.279   1.03082e-19
      336.382   1.00303e-19
      336.486   9.75712e-20
      336.589   9.49371e-20
      336.693   9.23503e-20
      336.796   8.98558e-20
      336.900   8.74035e-20
      337.004   8.50158e-20
      337.107   8.27165e-20
      337.211   8.04550e-20
      337.315   7.82563e-20
      337.419   7.61148e-20
      337.523   7.40306e-20
      337.626   7.20224e-20
      337.730   7.00494e-20
      337.834   6.81288e-20
      337.938   6.62607e-20
      338.042   6.44456e-20
      338.146   6.26927e-20
      338.250   6.09883e-20
      338.354   5.93293e-20
      338.458   5.77139e-20
      338.562   5.61420e-20
      338.667   5.45983e-20
      338.771   5.31097e-20
      338.875   5.16613e-20
      338.979   5.02512e-20
      339.084   4.88673e-20
      339.188   4.75327e-20
      339.292   4.62344e-20
      339.397   4.49585e-20
      339.501   4.37295e-20
      339.606   4.25212e-20
      339.710   4.13575e-20
      339.815   4.02142e-20
      339.919   3.91129e-20
      340.024   3.80305e-20
      340.128   3.69884e-20
      340.233   3.59639e-20
      340.338   3.49682e-20
      340.442   3.40080e-20
      340.547   3.30654e-20
      340.652   3.21482e-20
      340.757   3.12564e-20
      340.862   3.03888e-20
      340.966   2.95530e-20
      341.071   2.87322e-20
      341.176   2.79338e-20
      341.281   2.71573e-20
      341.386   2.64024e-20
      341.491   2.56676e-20
      341.596   2.49536e-20
      341.702   2.42525e-20
      341.807   2.35771e-20
      341.912   2.29203e-20
      342.017   2.22815e-20
      342.122   2.16601e-20
      342.228   2.10508e-20
      342.333   2.04635e-20
      342.438   1.98925e-20
      342.544   1.93322e-20
      342.649   1.87923e-20
      342.754   1.82677e-20
      342.860   1.77524e-20
      342.965   1.72560e-20
      343.071   1.67694e-20
      343.176   1.63005e-20
      343.282   1.58401e-20
      343.388   1.53929e-20
      343.493   1.49637e-20
      343.599   1.45556e-20
      343.705   1.41600e-20
      343.810   1.37784e-20
      343.916   1.34037e-20
      344.022   1.30391e-20
      344.128   1.26844e-20
      344.234   1.23390e-20
      344.340   1.20031e-20
      344.446   1.16761e-20
      344.552   1.13579e-20
      344.658   1.10485e-20
      344.764   1.07476e-20
      344.870   1.04545e-20
      344.976   1.01695e-20
      345.082   9.89211e-21
      345.188   9.62242e-21
      345.294   9.35975e-21
      345.401   9.10198e-21
      345.507   8.85353e-21
      345.613   8.61187e-21
      345.719   8.37670e-21
      345.826   8.14582e-21
      345.932   7.92326e-21
      346.039   7.70480e-21
      346.145   7.49422e-21
      346.252   7.28753e-21
      346.358   7.08829e-21
      346.465   6.89279e-21
      346.571   6.70429e-21
      346.678   6.51919e-21
      346.785   6.33916e-21
      346.891   6.16575e-21
      346.998   5.99555e-21
      347.105   5.82997e-21
      347.212   5.66891e-21
      347.319   5.51226e-21
      347.425   5.36126e-21
      347.532   5.21307e-21
      347.639   5.06900e-21
      347.746   4.92885e-21
      347.853   4.79249e-21
      347.960   4.65997e-21
      348.067   4.53112e-21
      348.174   4.40581e-21
      348.281   4.28391e-21
      348.389   4.16430e-21
      348.496   4.04900e-21
      348.603   3.93704e-21
      348.710   3.82805e-21
      348.818   3.72111e-21
      348.925   3.61805e-21
      349.032   3.51788e-21
      349.140   3.41907e-21
      349.247   3.32382e-21
      349.355   3.23044e-21
      349.462   3.14043e-21
      349.570   3.05206e-21
      349.677   2.96702e-21
      349.785   2.88353e-21
      349.892   2.80316e-21
      350.000   2.72430e-21
      350.100   2.65326e-21
      350.193   2.58885e-21
      350.287   2.52528e-21
      350.380   2.46398e-21
      350.473   2.40414e-21
      350.567   2.34508e-21
      350.660   2.28812e-21
      350.754   2.23194e-21
      350.847   2.17773e-21
      350.941   2.12425e-21
      351.034   2.07264e-21
      351.128   2.02172e-21
      351.221   1.97262e-21
      351.315   1.92414e-21
      351.409   1.87684e-21
      351.502   1.83122e-21
      351.596   1.78624e-21
      351.690   1.74231e-21
      351.783   1.69996e-21
      351.877   1.65818e-21
      351.971   1.61741e-21
      352.065   1.57765e-21
      352.159   1.53886e-21
      352.252   1.50141e-21
      352.346   1.46448e-21
      352.440   1.42846e-21
      352.534   1.39335e-21
      352.628   1.35906e-21
      352.722   1.32561e-21
      352.816   1.29300e-21
      352.910   1.26120e-21
      353.004   1.23017e-21
      353.098   1.19989e-21
      353.192   1.17035e-21
      353.287   1.14123e-21
      353.381   1.11312e-21
      353.475   1.08573e-21
      353.569   1.05898e-21
      353.663   1.03291e-21
      353.758   1.00721e-21
      353.852   9.82400e-22
      353.946   9.58195e-22
      354.041   9.34337e-22
      354.135   9.11315e-22
      354.229   8.88848e-22
      354.324   8.66710e-22
      354.418   8.45345e-22
      354.513   8.24279e-22
      354.607   8.03970e-22
      354.702   7.83809e-22
      354.796   7.63880e-22
      354.891   7.44201e-22
      354.985   7.25234e-22
      355.080   7.06552e-22
      355.175   6.88337e-22
      355.269   6.70783e-22
      355.364   6.53487e-22
      355.459   6.36643e-22
      355.553   6.20391e-22
      355.648   6.04395e-22
      355.743   5.88812e-22
      355.838   5.73606e-22
      355.933   5.58812e-22
      356.027   5.44540e-22
      356.122   5.30476e-22
      356.217   5.16779e-22
      356.312   5.03442e-22
      356.407   4.90435e-22
      356.502   4.77766e-22
      356.597   4.65418e-22
      356.692   4.53390e-22
      356.787   4.41672e-22
      356.882   4.30245e-22
      356.977   4.19125e-22
      357.073   4.08173e-22
      357.168   3.97606e-22
      357.263   3.87319e-22
      357.358   3.77293e-22
      357.453   3.67527e-22
      357.549   3.57912e-22
      357.644   3.48642e-22
      357.739   3.39616e-22
      357.835   3.30719e-22
      357.930   3.22148e-22
      358.025   3.13796e-22
      358.121   3.05576e-22
      358.216   2.97650e-22
      358.312   2.89846e-22
      358.407   2.82326e-22
      358.503   2.74922e-22
      358.598   2.67788e-22
      358.694   2.60763e-22
      358.790   2.53916e-22
      358.885   2.47318e-22
      358.981   2.40823e-22
      359.076   2.34566e-22
      359.172   2.28406e-22
      359.268   2.22399e-22
      359.364   2.16551e-22
      359.459   2.10920e-22
      359.555   2.05372e-22
      359.651   1.99967e-22
      359.747   1.94705e-22
      359.843   1.89579e-22
      359.939   1.84586e-22
      360.035   1.79725e-22
      360.131   1.74992e-22
      360.227   1.70376e-22
      360.323   1.65886e-22
      360.419   1.61512e-22
      360.515   1.57253e-22
      360.611   1.53102e-22
      360.707   1.49057e-22
      360.803   1.45124e-22
      360.899   1.41289e-22
      360.995   1.37557e-22
      361.092   1.33884e-22
      361.188   1.30343e-22
      361.284   1.26895e-22
      361.380   1.23538e-22
      361.477   1.20234e-22
      361.573   1.17050e-22
      361.669   1.13950e-22
      361.766   1.10899e-22
      361.862   1.07960e-22
      361.959   1.05069e-22
      362.055   1.02279e-22
      362.152   9.95386e-23
      362.248   9.68964e-23
      362.345   9.42951e-23
      362.441   9.17915e-23
      362.538   8.93276e-23
      362.635   8.69288e-23
      362.731   8.46162e-23
      362.828   8.23415e-23
      362.925   8.01276e-23
      363.021   7.79938e-23
      363.118   7.58960e-23
      363.215   7.38521e-23
      363.312   7.18625e-23
      363.409   6.99270e-23
      363.505   6.80614e-23
      363.602   6.62255e-23
      363.699   6.44394e-23
      363.796   6.27004e-23
      363.893   6.10074e-23
      363.990   5.93597e-23
      364.087   5.77559e-23
      364.184   5.61948e-23
      364.281   5.46746e-23
      364.378   5.31956e-23
      364.475   5.17558e-23
      364.573   5.03398e-23
      364.670   4.89761e-23
      364.767   4.76488e-23
      364.864   4.63565e-23
      364.961   4.50991e-23
      365.059   4.38628e-23
      365.156   4.26724e-23
      365.253   4.15131e-23
      365.351   4.03734e-23
      365.448   3.92756e-23
      365.545   3.82076e-23
      365.643   3.71572e-23
      365.740   3.61453e-23
      365.838   3.51508e-23
      365.935   3.41933e-23
      366.033   3.32518e-23
      366.130   3.23447e-23
      366.228   3.14534e-23
      366.326   3.05863e-23
      366.423   2.97511e-23
      366.521   2.89301e-23
      366.618   2.81390e-23
      366.716   2.73616e-23
      366.814   2.66057e-23
      366.912   2.58704e-23
      367.010   2.51544e-23
      367.107   2.44653e-23
      367.205   2.37876e-23
      367.303   2.31286e-23
      367.401   2.24876e-23
      367.499   2.18639e-23
      367.597   2.12573e-23
      367.695   2.06674e-23
      367.793   2.00936e-23
      367.891   1.95355e-23
      367.989   1.89922e-23
      368.087   1.84641e-23
      368.185   1.79505e-23
      368.283   1.74507e-23
      368.381   1.69644e-23
      368.480   1.64870e-23
      368.578   1.60273e-23
      368.676   1.55804e-23
      368.774   1.51457e-23
      368.873   1.47186e-23
      368.971   1.43075e-23
      369.069   1.39076e-23
      369.168   1.35146e-23
      369.266   1.31365e-23
      369.364   1.27688e-23
      369.463   1.24076e-23
      369.561   1.20600e-23
      369.660   1.17186e-23
      369.758   1.13899e-23
      369.857   1.10672e-23
      369.955   1.07566e-23
      370.054   1.04513e-23
      370.153   1.01546e-23
      370.251   9.86918e-24
      370.350   9.58883e-24
      370.449   9.31638e-24
      370.547   9.05408e-24
      370.646   8.79630e-24
      370.745   8.54601e-24
      370.844   8.30261e-24
      370.943   8.06604e-24
      371.041   7.83842e-24
      371.140   7.61478e-24
      371.239   7.39742e-24
      371.338   7.18626e-24
      371.437   6.98103e-24
      371.536   6.78158e-24
      371.635   6.58760e-24
      371.734   6.39919e-24
      371.833   6.21607e-24
      371.932   6.03810e-24
      372.032   5.86339e-24
      372.131   5.69529e-24
      372.230   5.53204e-24
      372.329   5.37336e-24
      372.428   5.21911e-24
      372.528   5.06778e-24
      372.627   4.92226e-24
      372.726   4.78081e-24
      372.826   4.64200e-24
      372.925   4.50845e-24
      373.024   4.37867e-24
      373.124   4.25129e-24
      373.223   4.12888e-24
      373.323   4.00873e-24
      373.422   3.89313e-24
      373.522   3.77969e-24
      373.621   3.67067e-24
      373.721   3.56363e-24
      373.820   3.46072e-24
      373.920   3.35973e-24
      374.020   3.26156e-24
      374.119   3.16727e-24
      374.219   3.07467e-24
      374.319   2.98481e-24
      374.419   2.89756e-24
      374.518   2.81359e-24
      374.618   2.73122e-24
      374.718   2.65117e-24
      374.818   2.57352e-24
      374.918   2.49813e-24
      375.018   2.42486e-24
      375.118   2.35374e-24
      375.218   2.28463e-24
      375.318   2.21756e-24
      375.418   2.15239e-24
      375.518   2.08917e-24
      375.618   2.02777e-24
      375.718   1.96812e-24
      375.818   1.91021e-24
      375.918   1.85399e-24
      376.019   1.79888e-24
      376.119   1.74588e-24
      376.219   1.69443e-24
      376.319   1.64446e-24
      376.420   1.59550e-24
      376.520   1.54843e-24
      376.620   1.50274e-24
      376.721   1.45793e-24
      376.821   1.41487e-24
      376.922   1.37265e-24
      377.022   1.33207e-24
      377.122   1.29269e-24
      377.223   1.25408e-24
      377.323   1.21698e-24
      377.424   1.18059e-24
      377.525   1.14530e-24
      377.625   1.11137e-24
      377.726   1.07812e-24
      377.827   1.04585e-24
      377.927   1.01483e-24
      378.028   9.84441e-25
      378.129   9.54937e-25
      378.230   9.26302e-25
      378.330   8.98791e-25
      378.431   8.71830e-25
      378.532   8.45685e-25
      378.633   8.20292e-25
      378.734   7.95655e-25
      378.835   7.71758e-25
      378.936   7.48573e-25
      379.037   7.26077e-25
      379.138   7.04242e-25
      379.239   6.83056e-25
      379.340   6.62519e-25
      379.441   6.42582e-25
      379.542   6.23233e-25
      379.643   6.04471e-25
      379.745   5.86089e-25
      379.846   5.68425e-25
      379.947   5.51289e-25
      380.048   5.34674e-25
      380.150   5.18390e-25
      380.251   5.02749e-25
      380.352   4.87583e-25
      380.454   4.72727e-25
      380.555   4.58453e-25
      380.656   4.44604e-25
      380.758   4.31041e-25
      380.859   4.18017e-25
      380.961   4.05265e-25
      381.062   3.93014e-25
      381.164   3.81011e-25
      381.266   3.69374e-25
      381.367   3.58198e-25
      381.469   3.47253e-25
      381.570   3.36744e-25
      381.672   3.26450e-25
      381.774   3.16465e-25
      381.876   3.06784e-25
      381.977   2.97490e-25
      382.079   2.88386e-25
      382.181   2.79557e-25
      382.283   2.71003e-25
      382.385   2.62704e-25
      382.487   2.54652e-25
      382.589   2.46852e-25
      382.691   2.39288e-25
      382.793   2.31955e-25
      382.895   2.24843e-25
      382.997   2.17947e-25
      383.099   2.11262e-25
      383.201   2.04782e-25
      383.303   1.98498e-25
      383.405   1.92404e-25
      383.507   1.86497e-25
      383.610   1.80717e-25
      383.712   1.75166e-25
      383.814   1.69788e-25
      383.916   1.64573e-25
      384.019   1.59467e-25
      384.121   1.54564e-25
      384.223   1.49813e-25
      384.326   1.45164e-25
      384.428   1.40697e-25
      384.531   1.36324e-25
      384.633   1.32127e-25
      384.736   1.28018e-25
      384.838   1.24074e-25
      384.941   1.20214e-25
      385.043   1.16509e-25
      385.146   1.12884e-25
      385.249   1.09372e-25
      385.351   1.05999e-25
      385.454   1.02699e-25
      385.557   9.95020e-26
      385.660   9.64026e-26
      385.762   9.34294e-26
      385.865   9.05191e-26
      385.968   8.76980e-26
      386.071   8.49641e-26
      386.174   8.23157e-26
      386.277   7.97504e-26
      386.380   7.72640e-26
      386.483   7.48543e-26
      386.586   7.25209e-26
      386.689   7.02588e-26
      386.792   6.80667e-26
      386.895   6.59429e-26
      386.998   6.38851e-26
      387.101   6.18918e-26
      387.204   5.99586e-26
      387.308   5.80689e-26
      387.411   5.62554e-26
      387.514   5.44985e-26
      387.617   5.27965e-26
      387.721   5.11320e-26
      387.824   4.95345e-26
      387.927   4.79856e-26
      388.031   4.64717e-26
      388.134   4.50191e-26
      388.238   4.35991e-26
      388.341   4.22355e-26
      388.445   4.09023e-26
      388.548   3.96225e-26
      388.652   3.83716e-26
      388.755   3.71715e-26
      388.859   3.59974e-26
      388.962   3.48711e-26
      389.066   3.37690e-26
      389.170   3.27026e-26
      389.274   3.16690e-26
      389.377   3.06774e-26
      389.481   2.97072e-26
      389.585   2.87682e-26
      389.689   2.78586e-26
      389.793   2.69772e-26
      389.897   2.61243e-26
      390.000   2.53054e-26
      390.104   2.45051e-26
      390.208   2.37295e-26
      390.312   2.29786e-26
      390.416   2.22513e-26
      390.520   2.15465e-26
      390.625   2.08573e-26
      390.729   2.01969e-26
      390.833   1.95569e-26
      390.937   1.89371e-26
      391.041   1.83372e-26
      391.145   1.77562e-26
      391.250   1.71878e-26
      391.354   1.66431e-26
      391.458   1.61155e-26
      391.563   1.55995e-26
      391.667   1.51048e-26
      391.771   1.46258e-26
      391.876   1.41574e-26
      391.980   1.37080e-26
      392.085   1.32689e-26
      392.189   1.28478e-26
      392.294   1.24361e-26
      392.398   1.20413e-26
      392.503   1.16554e-26
      392.607   1.12852e-26
      392.712   1.09235e-26
      392.817   1.05730e-26
      392.921   1.02372e-26
      393.026   9.90881e-27
      393.131   9.59103e-27
      393.236   9.28308e-27
      393.340   8.98800e-27
      393.445   8.69959e-27
      393.550   8.42033e-27
      393.655   8.14992e-27
      393.760   7.88827e-27
      393.865   7.63486e-27
      393.970   7.38976e-27
      394.075   7.15224e-27
      394.180   6.92250e-27
      394.285   6.70001e-27
      394.390   6.48471e-27
      394.495   6.27615e-27
      394.600   6.07437e-27
      394.706   5.87722e-27
      394.811   5.68823e-27
      394.916   5.50512e-27
      395.021   5.32796e-27
      395.126   5.15660e-27
      395.232   4.98900e-27
      395.337   4.82835e-27
      395.443   4.67144e-27
      395.548   4.52100e-27
      395.653   4.37541e-27
      395.759   4.23307e-27
      395.864   4.09670e-27
      395.970   3.96343e-27
      396.075   3.83567e-27
      396.181   3.71081e-27
      396.286   3.59109e-27
      396.392   3.47424e-27
      396.498   3.36113e-27
      396.603   3.25260e-27
      396.709   3.14667e-27
      396.815   3.04413e-27
      396.921   2.94487e-27
      397.026   2.84976e-27
      397.132   2.75679e-27
      397.238   2.66691e-27
      397.344   2.57983e-27
      397.450   2.49574e-27
      397.556   2.41422e-27
      397.662   2.33539e-27
      397.768   2.25916e-27
      397.874   2.18536e-27
      397.980   2.11397e-27
      398.086   2.04486e-27
      398.192   1.97804e-27
      398.298   1.91336e-27
      398.404   1.85078e-27
      398.510   1.79023e-27
      398.617   1.73115e-27
      398.723   1.67450e-27
      398.829   1.61966e-27
      398.935   1.56662e-27
      399.042   1.51485e-27
      399.148   1.46520e-27
      399.255   1.41677e-27
      399.361   1.37033e-27
      399.467   1.32537e-27
      399.574   1.28152e-27
      399.680   1.23947e-27
      399.787   1.19841e-27
      399.893       0.00000
      400.000       0.00000
