Filter C-poly
observation_date 22-Sept-2022 22:45:45
wavelength effective area
      1.00000   2.78569e-10
      1.10000   7.95339e-10
      1.20000   2.06790e-09
      1.30000   4.94564e-09
      1.40000   1.12243e-08
      1.50000   2.39514e-08
      1.60000   4.84997e-08
      1.70000   9.41836e-08
      1.80000   1.75403e-07
      1.90000   3.15368e-07
      2.00000   5.48488e-07
      2.10000   9.26835e-07
      2.20000   1.52900e-06
      2.30000   2.45917e-06
      2.40000   3.86298e-06
      2.50000   5.90727e-06
      2.60000   9.02099e-06
      2.70000   1.34590e-05
      2.80000   1.96971e-05
      2.90000   2.85320e-05
      3.00000   4.06867e-05
      3.10000   5.72767e-05
      3.20000   7.97557e-05
      3.30000   0.000109934
      3.40000   0.000149960
      3.50000   0.000202591
      3.60000   0.000272454
      3.70000   0.000362536
      3.80000   0.000480438
      3.90000   0.000633191
      4.00000   0.000829370
      4.10000    0.00108137
      4.20000    0.00140498
      4.30000    0.00182039
      4.40000    0.00235248
      4.50000    0.00303196
      4.60000    0.00389482
      4.70000    0.00500343
      4.80000    0.00642153
      4.90000    0.00813597
      5.00000     0.0105806
      5.10000     0.0135663
      5.20000     0.0174480
      5.30000     0.0222512
      5.40000     0.0283339
      5.50000     0.0361449
      5.60000     0.0446972
      5.70000     0.0582350
      5.80000     0.0684372
      5.90000      0.104749
      6.00000      0.141161
      6.10000      0.180877
      6.20000      0.222691
      6.30000      0.262824
      6.40000      0.297560
      6.50000      0.323506
      6.60000      0.335822
      6.70000      0.347327
      6.80000      0.348822
      6.90000      0.459023
      7.00000      0.500739
      7.10000      0.531255
      7.20000      0.556018
      7.30000      0.576690
      7.40000      0.593049
      7.50000      0.606583
      7.60000      0.617392
      7.70000      0.623812
      7.80000      0.624577
      7.90000      0.626133
      8.00000      0.908663
      8.10000      0.998083
      8.20000       1.01784
      8.30000       1.03311
      8.40000       1.04443
      8.50000       1.05419
      8.60000       1.06206
      8.70000       1.06871
      8.80000       1.07380
      8.90000       1.07785
      9.00000       1.08076
      9.10000       1.08259
      9.20000       1.08354
      9.30000       1.08350
      9.40000       1.08263
      9.50000       1.08099
      9.60000       1.07850
      9.70000       1.07529
      9.80000       1.07151
      9.90000       1.06718
      10.0000       1.06236
      10.1000       1.05706
      10.2000       1.05131
      10.3000       1.04505
      10.4000       1.03831
      10.5000       1.03110
      10.6000       1.02348
      10.7000       1.01546
      10.8000       1.00705
      10.9000      0.998276
      11.0000      0.989157
      11.1000      0.979728
      11.2000      0.969989
      11.3000      0.959979
      11.4000      0.949690
      11.5000      0.939112
      11.6000      0.928268
      11.7000      0.917075
      11.8000      0.905635
      11.9000      0.893809
      12.0000      0.880668
      12.1000      0.870627
      12.2000      0.875783
      12.3000      0.871721
      12.4000      0.861170
      12.5000      0.849974
      12.6000      0.838469
      12.7000      0.826789
      12.8000      0.814983
      12.9000      0.803063
      13.0000      0.791080
      13.1000      0.779064
      13.2000      0.767040
      13.3000      0.755023
      13.4000      0.743037
      13.5000      0.731215
      13.6000      0.719535
      13.7000      0.707905
      13.8000      0.696316
      13.9000      0.684801
      14.0000      0.673355
      14.1000      0.661959
      14.2000      0.650612
      14.3000      0.639313
      14.4000      0.628044
      14.5000      0.616819
      14.6000      0.605633
      14.7000      0.594488
      14.8000      0.583395
      14.9000      0.572355
      15.0000      0.561379
      15.1000      0.550481
      15.2000      0.539674
      15.3000      0.528955
      15.4000      0.518323
      15.5000      0.507785
      15.6000      0.497374
      15.7000      0.487070
      15.8000      0.476913
      15.9000      0.466885
      16.0000      0.456984
      16.1000      0.447216
      16.2000      0.437612
      16.3000      0.428131
      16.4000      0.418764
      16.5000      0.409508
      16.6000      0.400370
      16.7000      0.391355
      16.8000      0.382446
      16.9000      0.373640
      17.0000      0.364958
      17.1000      0.356398
      17.2000      0.347938
      17.3000      0.339591
      17.4000      0.331522
      17.5000      0.323716
      17.6000      0.316132
      17.7000      0.308809
      17.8000      0.301891
      17.9000      0.295082
      18.0000      0.288330
      18.1000      0.281678
      18.2000      0.275064
      18.3000      0.268474
      18.4000      0.261890
      18.5000      0.255331
      18.6000      0.248783
      18.7000      0.242222
      18.8000      0.235770
      18.9000      0.229404
      19.0000      0.223153
      19.1000      0.217027
      19.2000      0.210998
      19.3000      0.205111
      19.4000      0.199350
      19.5000      0.193690
      19.6000      0.188203
      19.7000      0.182819
      19.8000      0.177530
      19.9000      0.172402
      20.0000      0.167353
      20.1000      0.162408
      20.2000      0.157570
      20.3000      0.152801
      20.4000      0.148157
      20.5000      0.143588
      20.6000      0.139089
      20.7000      0.134711
      20.8000      0.130391
      20.9000      0.126161
      21.0000      0.122016
      21.1000      0.117943
      21.2000      0.113953
      21.3000      0.110013
      21.4000      0.106179
      21.5000      0.102389
      21.6000     0.0986416
      21.7000     0.0949688
      21.8000     0.0913310
      21.9000     0.0876823
      22.0000     0.0840519
      22.1000     0.0804355
      22.2000     0.0767012
      22.3000     0.0728684
      22.4000     0.0679730
      22.5000     0.0627647
      22.6000     0.0530578
      22.7000     0.0474699
      22.8000     0.0626067
      22.9000     0.0812247
      23.0000      0.102409
      23.1000      0.115551
      23.2000      0.121035
      23.3000      0.121258
      23.4000      0.118827
      23.5000      0.116282
      23.6000      0.113718
      23.7000      0.110905
      23.8000      0.108087
      23.9000      0.105299
      24.0000      0.102522
      24.1000     0.0997412
      24.2000     0.0969870
      24.3000     0.0942939
      24.4000     0.0916271
      24.5000     0.0890077
      24.6000     0.0864263
      24.7000     0.0839114
      24.8000     0.0814343
      24.9000     0.0790164
      25.0000     0.0766410
      25.1000     0.0743313
      25.2000     0.0720618
      25.3000     0.0698543
      25.4000     0.0676890
      25.5000     0.0655940
      25.6000     0.0635425
      25.7000     0.0615719
      25.8000     0.0596328
      25.9000     0.0577631
      26.0000     0.0559185
      26.1000     0.0541447
      26.2000     0.0523892
      26.3000     0.0507108
      26.4000     0.0490429
      26.5000     0.0474533
      26.6000     0.0458730
      26.7000     0.0443657
      26.8000     0.0428767
      26.9000     0.0414445
      27.0000     0.0400354
      27.1000     0.0386661
      27.2000     0.0373252
      27.3000     0.0360987
      27.4000     0.0350120
      27.5000     0.0339151
      27.6000     0.0327778
      27.7000     0.0316492
      27.8000     0.0305604
      27.9000     0.0294780
      28.0000     0.0284499
      28.1000     0.0274372
      28.2000     0.0264637
      28.3000     0.0255183
      28.4000     0.0245969
      28.5000     0.0237158
      28.6000     0.0228439
      28.7000     0.0220274
      28.8000     0.0212159
      28.9000     0.0204461
      29.0000     0.0196913
      29.1000     0.0189621
      29.2000     0.0182610
      29.3000     0.0175701
      29.4000     0.0169202
      29.5000     0.0162743
      29.6000     0.0156642
      29.7000     0.0150663
      29.8000     0.0144884
      29.9000     0.0139360
      30.0000     0.0133885
      30.1000     0.0128788
      30.2000     0.0123722
      30.3000     0.0124437
      30.4000     0.0128433
      30.5000     0.0130511
      30.6000     0.0125566
      30.7000     0.0120652
      30.8000     0.0116023
      30.9000     0.0111500
      31.0000     0.0107100
      31.1000     0.0102943
      31.2000    0.00988127
      31.3000    0.00949478
      31.4000    0.00911591
      31.5000    0.00874822
      31.6000    0.00840128
      31.7000    0.00805661
      31.8000    0.00773443
      31.9000    0.00741945
      32.0000    0.00711259
      32.1000    0.00682526
      32.2000    0.00653981
      32.3000    0.00627170
      32.4000    0.00601217
      32.5000    0.00575741
      32.6000    0.00552885
      32.7000    0.00530193
      32.8000    0.00508559
      32.9000    0.00487941
      33.0000    0.00467461
      33.1000    0.00449397
      33.2000    0.00431772
      33.3000    0.00414585
      33.4000    0.00398525
      33.5000    0.00382574
      33.6000    0.00367441
      33.7000    0.00352941
      33.8000    0.00338534
      33.9000    0.00325231
      34.0000    0.00312153
      34.1000    0.00299382
      34.2000    0.00287548
      34.3000    0.00275788
      34.4000    0.00264526
      34.5000    0.00253882
      34.6000    0.00243305
      34.7000    0.00233344
      34.8000    0.00223702
      34.9000    0.00214119
      35.0000    0.00205355
      35.1000    0.00196724
      35.2000    0.00188230
      35.3000    0.00180471
      35.4000    0.00172760
      35.5000    0.00165299
      35.6000    0.00158381
      35.7000    0.00151506
      35.8000    0.00144958
      35.9000    0.00138803
      36.0000    0.00132686
      36.1000    0.00126943
      36.2000    0.00121478
      36.3000    0.00116049
      36.4000    0.00111013
      36.5000    0.00106170
      36.6000    0.00101359
      36.7000   0.000969448
      36.8000   0.000926639
      36.9000   0.000884107
      37.0000   0.000845425
      37.1000   0.000807667
      37.2000   0.000770151
      37.3000   0.000736255
      37.4000   0.000703026
      37.5000   0.000670014
      37.6000   0.000640302
      37.7000   0.000611125
      37.8000   0.000582140
      37.9000   0.000556087
      38.0000   0.000530533
      38.1000   0.000505145
      38.2000   0.000482282
      38.3000   0.000459946
      38.4000   0.000437755
      38.5000   0.000417679
      38.6000   0.000398204
      38.7000   0.000378859
      38.8000   0.000361216
      38.9000   0.000344279
      39.0000   0.000327455
      39.1000   0.000311939
      39.2000   0.000297248
      39.3000   0.000282654
      39.4000   0.000268995
      39.5000   0.000256283
      39.6000   0.000243655
      39.7000   0.000231620
      39.8000   0.000220651
      39.9000   0.000209755
      40.0000   0.000199143
      40.1000   0.000189702
      40.2000   0.000180325
      40.3000   0.000171012
      40.4000   0.000162855
      40.5000   0.000154806
      40.6000   0.000146810
      40.7000   0.000139593
      40.8000   0.000132699
      40.9000   0.000125852
      41.0000   0.000119460
      41.1000   0.000113573
      41.2000   0.000107728
      41.3000   0.000102064
      41.4000   9.70570e-05
      41.5000   9.20836e-05
      41.6000   8.71444e-05
      41.7000   8.28118e-05
      41.8000   7.85897e-05
      41.9000   7.43966e-05
      42.0000   7.05397e-05
      42.1000   6.69677e-05
      42.2000   6.34199e-05
      42.3000   5.99831e-05
      42.4000   5.69686e-05
      42.5000   5.39745e-05
      42.6000   5.10010e-05
      42.7000   4.83757e-05
      42.8000   4.58558e-05
      42.9000   4.33530e-05
      43.0000   4.10006e-05
      43.1000   3.88869e-05
      43.2000   3.67879e-05
      43.3000   3.47034e-05
      43.4000     0.0348867
      43.5000     0.0777216
      43.6000      0.133340
      43.7000      0.183202
      43.8000      0.205492
      43.9000      0.208932
      44.0000      0.205303
      44.1000      0.194957
      44.2000      0.192020
      44.3000      0.189732
      44.4000      0.187471
      44.5000      0.185242
      44.6000      0.183020
      44.7000      0.180803
      44.8000      0.178636
      44.9000      0.176481
      45.0000      0.174331
      45.1000      0.172201
      45.2000      0.170110
      45.3000      0.168025
      45.4000      0.165944
      45.5000      0.163903
      45.6000      0.161882
      45.7000      0.159867
      45.8000      0.157858
      45.9000      0.155901
      46.0000      0.153949
      46.1000      0.152002
      46.2000      0.150145
      46.3000      0.148439
      46.4000      0.146739
      46.5000      0.145042
      46.6000      0.143401
      46.7000      0.141790
      46.8000      0.140182
      46.9000      0.138579
      47.0000      0.137052
      47.1000      0.135535
      47.2000      0.134021
      47.3000      0.132518
      47.4000      0.131055
      47.5000      0.129596
      47.6000      0.128140
      47.7000      0.126702
      47.8000      0.125288
      47.9000      0.123878
      48.0000      0.122471
      48.1000      0.121087
      48.2000      0.119722
      48.3000      0.118360
      48.4000      0.117002
      48.5000      0.115670
      48.6000      0.114351
      48.7000      0.113035
      48.8000      0.111723
      48.9000      0.110442
      49.0000      0.109170
      49.1000      0.107902
      49.2000      0.106637
      49.3000      0.105406
      49.4000      0.104180
      49.5000      0.102958
      49.6000      0.101738
      49.7000      0.100554
      49.8000     0.0993726
      49.9000     0.0981945
      50.0000     0.0970208
      50.1000     0.0958845
      50.2000     0.0948092
      50.3000     0.0937428
      50.4000     0.0926869
      50.5000     0.0916406
      50.6000     0.0906046
      50.7000     0.0895799
      50.8000     0.0885635
      50.9000     0.0875586
      51.0000     0.0865722
      51.1000     0.0855985
      51.2000     0.0846336
      51.3000     0.0836782
      51.4000     0.0827336
      51.5000     0.0817962
      51.6000     0.0808669
      51.7000     0.0799462
      51.8000     0.0790267
      51.9000     0.0781153
      52.0000     0.0772124
      52.1000     0.0763184
      52.2000     0.0754331
      52.3000     0.0745554
      52.4000     0.0736866
      52.5000     0.0728265
      52.6000     0.0719735
      52.7000     0.0711273
      52.8000     0.0702886
      52.9000     0.0694580
      53.0000     0.0686358
      53.1000     0.0678214
      53.2000     0.0670163
      53.3000     0.0662195
      53.4000     0.0654298
      53.5000     0.0646471
      53.6000     0.0638715
      53.7000     0.0631032
      53.8000     0.0623441
      53.9000     0.0615925
      54.0000     0.0608491
      54.1000     0.0601143
      54.2000     0.0593854
      54.3000     0.0586637
      54.4000     0.0579493
      54.5000     0.0572419
      54.6000     0.0565428
      54.7000     0.0558508
      54.8000     0.0551664
      54.9000     0.0544891
      55.0000     0.0538185
      55.1000     0.0531538
      55.2000     0.0524717
      55.3000     0.0517751
      55.4000     0.0510857
      55.5000     0.0504040
      55.6000     0.0497298
      55.7000     0.0490637
      55.8000     0.0484046
      55.9000     0.0477522
      56.0000     0.0471143
      56.1000     0.0464725
      56.2000     0.0458280
      56.3000     0.0451908
      56.4000     0.0445611
      56.5000     0.0439379
      56.6000     0.0433218
      56.7000     0.0427135
      56.8000     0.0421120
      56.9000     0.0415196
      57.0000     0.0409333
      57.1000     0.0403531
      57.2000     0.0397787
      57.3000     0.0392111
      57.4000     0.0386498
      57.5000     0.0380958
      57.6000     0.0375482
      57.7000     0.0370071
      57.8000     0.0364736
      57.9000     0.0359473
      58.0000     0.0354270
      58.1000     0.0349120
      58.2000     0.0344039
      58.3000     0.0339020
      58.4000     0.0334063
      58.5000     0.0329164
      58.6000     0.0324334
      58.7000     0.0319561
      58.8000     0.0314849
      58.9000     0.0310193
      59.0000     0.0305594
      59.1000     0.0301050
      59.2000     0.0296567
      59.3000     0.0292140
      59.4000     0.0287774
      59.5000     0.0283462
      59.6000     0.0279207
      59.7000     0.0275000
      59.8000     0.0270850
      59.9000     0.0266749
      60.0000     0.0262706
      60.1000     0.0258712
      60.2000     0.0254775
      60.3000     0.0250890
      60.4000     0.0247057
      60.5000     0.0243278
      60.6000     0.0239543
      60.7000     0.0235849
      60.8000     0.0232200
      60.9000     0.0228602
      61.0000     0.0225051
      61.1000     0.0221552
      61.2000     0.0218097
      61.3000     0.0214694
      61.4000     0.0211333
      61.5000     0.0208019
      61.6000     0.0204743
      61.7000     0.0201511
      61.8000     0.0198331
      61.9000     0.0195203
      62.0000     0.0192119
      62.1000     0.0189076
      62.2000     0.0186079
      62.3000     0.0183121
      62.4000     0.0180206
      62.5000     0.0177328
      62.6000     0.0174490
      62.7000     0.0171686
      62.8000     0.0168937
      62.9000     0.0166226
      63.0000     0.0163554
      63.1000     0.0160922
      63.2000     0.0158325
      63.3000     0.0155763
      63.4000     0.0153233
      63.5000     0.0150746
      63.6000     0.0148290
      63.7000     0.0145869
      63.8000     0.0143486
      63.9000     0.0141138
      64.0000     0.0138826
      64.1000     0.0136544
      64.2000     0.0134302
      64.3000     0.0132089
      64.4000     0.0129906
      64.5000     0.0127753
      64.6000     0.0125630
      64.7000     0.0123540
      64.8000     0.0121479
      64.9000     0.0119449
      65.0000     0.0117448
      65.1000     0.0115481
      65.2000     0.0113544
      65.3000     0.0111632
      65.4000     0.0109751
      65.5000     0.0107896
      65.6000     0.0106067
      65.7000     0.0104265
      65.8000     0.0102492
      65.9000     0.0100750
      66.0000    0.00990334
      66.1000    0.00973446
      66.2000    0.00956818
      66.3000    0.00940431
      66.4000    0.00924299
      66.5000    0.00908390
      66.6000    0.00892722
      66.7000    0.00877300
      66.8000    0.00862114
      66.9000    0.00847482
      67.0000    0.00833353
      67.1000    0.00819500
      67.2000    0.00805872
      67.3000    0.00792433
      67.4000    0.00779204
      67.5000    0.00766160
      67.6000    0.00753304
      67.7000    0.00740642
      67.8000    0.00728133
      67.9000    0.00715787
      68.0000    0.00703706
      68.1000    0.00691879
      68.2000    0.00680234
      68.3000    0.00668757
      68.4000    0.00657469
      68.5000    0.00646366
      68.6000    0.00635410
      68.7000    0.00624625
      68.8000    0.00613999
      68.9000    0.00603687
      69.0000    0.00594399
      69.1000    0.00586032
      69.2000    0.00577924
      69.3000    0.00570045
      69.4000    0.00562468
      69.5000    0.00554730
      69.6000    0.00546739
      69.7000    0.00539062
      69.8000    0.00531774
      69.9000    0.00524588
      70.0000    0.00517471
      70.1000    0.00510303
      70.2000    0.00503487
      70.3000    0.00497027
      70.4000    0.00490589
      70.5000    0.00484301
      70.6000    0.00478163
      70.7000    0.00472111
      70.8000    0.00466116
      70.9000    0.00459978
      71.0000    0.00453715
      71.1000    0.00447738
      71.2000    0.00442060
      71.3000    0.00436035
      71.4000    0.00429569
      71.5000    0.00423617
      71.6000    0.00418405
      71.7000    0.00413146
      71.8000    0.00407718
      71.9000    0.00402479
      72.0000    0.00397634
      72.1000    0.00392692
      72.2000    0.00387008
      72.3000    0.00381417
      72.4000    0.00376522
      72.5000    0.00371689
      72.6000    0.00366909
      72.7000    0.00362199
      72.8000    0.00357544
      72.9000    0.00352945
      73.0000    0.00348520
      73.1000    0.00344200
      73.2000    0.00339932
      73.3000    0.00335721
      73.4000    0.00331598
      73.5000    0.00327590
      73.6000    0.00323635
      73.7000    0.00319726
      73.8000    0.00315856
      73.9000    0.00312029
      74.0000    0.00308270
      74.1000    0.00304857
      74.2000    0.00301577
      74.3000    0.00298031
      74.4000    0.00294289
      74.5000    0.00290654
      74.6000    0.00287198
      74.7000    0.00283779
      74.8000    0.00280397
      74.9000    0.00277054
      75.0000    0.00273710
      75.1000    0.00270391
      75.2000    0.00267115
      75.3000    0.00263875
      75.4000    0.00260697
      75.5000    0.00257625
      75.6000    0.00254588
      75.7000    0.00251580
      75.8000    0.00248616
      75.9000    0.00245724
      76.0000    0.00242872
      76.1000    0.00240054
      76.2000    0.00237267
      76.3000    0.00234513
      76.4000    0.00231836
      76.5000    0.00229196
      76.6000    0.00226579
      76.7000    0.00223985
      76.8000    0.00221421
      76.9000    0.00218887
      77.0000    0.00216378
      77.1000    0.00213895
      77.2000    0.00211441
      77.3000    0.00209011
      77.4000    0.00206606
      77.5000    0.00204229
      77.6000    0.00201833
      77.7000    0.00199456
      77.8000    0.00197105
      77.9000    0.00194777
      78.0000    0.00192443
      78.1000    0.00190050
      78.2000    0.00187691
      78.3000    0.00185540
      78.4000    0.00183474
      78.5000    0.00181413
      78.6000    0.00179323
      78.7000    0.00177255
      78.8000    0.00175137
      78.9000    0.00173027
      79.0000    0.00170937
      79.1000    0.00168867
      79.2000    0.00166828
      79.3000    0.00164871
      79.4000    0.00162953
      79.5000    0.00161035
      79.6000    0.00159080
      79.7000    0.00157145
      79.8000    0.00155201
      79.9000    0.00153265
      80.0000    0.00151349
      80.1000    0.00149385
      80.2000    0.00147438
      80.3000    0.00145443
      80.4000    0.00143407
      80.5000    0.00141391
      80.6000    0.00139400
      80.7000    0.00137435
      80.8000    0.00135503
      80.9000    0.00133618
      81.0000    0.00131758
      81.1000    0.00129928
      81.2000    0.00128122
      81.3000    0.00126341
      81.4000    0.00124710
      81.5000    0.00123106
      81.6000    0.00121557
      81.7000    0.00120100
      81.8000    0.00118666
      81.9000    0.00117299
      82.0000    0.00115971
      82.1000    0.00114660
      82.2000    0.00113324
      82.3000    0.00112004
      82.4000    0.00110725
      82.5000    0.00109502
      82.6000    0.00108290
      82.7000    0.00107057
      82.8000    0.00105796
      82.9000    0.00104547
      83.0000    0.00103325
      83.1000    0.00102121
      83.2000    0.00100930
      83.3000   0.000997504
      83.4000   0.000985867
      83.5000   0.000974393
      83.6000   0.000963289
      83.7000   0.000952312
      83.8000   0.000941397
      83.9000   0.000930429
      84.0000   0.000919557
      84.1000   0.000908954
      84.2000   0.000898714
      84.3000   0.000888567
      84.4000   0.000878396
      84.5000   0.000868241
      84.6000   0.000858199
      84.7000   0.000848426
      84.8000   0.000838832
      84.9000   0.000829360
      85.0000   0.000819775
      85.1000   0.000810228
      85.2000   0.000800787
      85.3000   0.000791803
      85.4000   0.000782986
      85.5000   0.000774273
      85.6000   0.000765456
      85.7000   0.000756719
      85.8000   0.000748073
      85.9000   0.000739512
      86.0000   0.000731025
      86.1000   0.000722620
      86.2000   0.000714548
      86.3000   0.000706572
      86.4000   0.000698670
      86.5000   0.000690837
      86.6000   0.000683082
      86.7000   0.000675415
      86.8000   0.000667303
      86.9000   0.000659259
      87.0000   0.000651321
      87.1000   0.000643597
      87.2000   0.000635976
      87.3000   0.000628430
      87.4000   0.000620782
      87.5000   0.000613189
      87.6000   0.000605672
      87.7000   0.000598338
      87.8000   0.000591100
      87.9000   0.000583940
      88.0000   0.000576864
      88.1000   0.000569856
      88.2000   0.000562928
      88.3000   0.000556213
      88.4000   0.000549713
      88.5000   0.000543310
      88.6000   0.000536924
      88.7000   0.000530532
      88.8000   0.000524213
      88.9000   0.000517955
      89.0000   0.000511738
      89.1000   0.000505589
      89.2000   0.000499505
      89.3000   0.000493477
      89.4000   0.000487500
      89.5000   0.000481582
      89.6000   0.000475725
      89.7000   0.000469931
      89.8000   0.000464198
      89.9000   0.000458523
      90.0000   0.000452906
      90.1000   0.000447360
      90.2000   0.000441770
      90.3000   0.000435997
      90.4000   0.000430282
      90.5000   0.000424636
      90.6000   0.000419155
      90.7000   0.000413639
      90.8000   0.000408069
      90.9000   0.000402425
      91.0000   0.000396822
      91.1000   0.000391296
      91.2000   0.000385775
      91.3000   0.000380224
      91.4000   0.000374729
      91.5000   0.000369317
      91.6000   0.000363988
      91.7000   0.000359111
      91.8000   0.000354879
      91.9000   0.000351385
      92.0000   0.000347494
      92.1000   0.000343553
      92.2000   0.000339418
      92.3000   0.000335117
      92.4000   0.000330747
      92.5000   0.000326443
      92.6000   0.000322194
      92.7000   0.000317996
      92.8000   0.000313845
      92.9000   0.000309786
      93.0000   0.000305878
      93.1000   0.000302017
      93.2000   0.000298206
      93.3000   0.000294556
      93.4000   0.000290988
      93.5000   0.000287458
      93.6000   0.000283966
      93.7000   0.000280513
      93.8000   0.000277117
      93.9000   0.000273758
      94.0000   0.000270437
      94.1000   0.000267155
      94.2000   0.000263915
      94.3000   0.000260734
      94.4000   0.000257663
      94.5000   0.000254633
      94.6000   0.000251640
      94.7000   0.000248685
      94.8000   0.000245760
      94.9000   0.000242865
      95.0000   0.000240002
      95.1000   0.000237182
      95.2000   0.000234382
      95.3000   0.000231606
      95.4000   0.000228861
      95.5000   0.000226189
      95.6000   0.000223544
      95.7000   0.000220927
      95.8000   0.000218307
      95.9000   0.000215705
      96.0000   0.000213128
      96.1000   0.000210576
      96.2000   0.000208048
      96.3000   0.000205553
      96.4000   0.000203083
      96.5000   0.000200642
      96.6000   0.000198238
      96.7000   0.000195873
      96.8000   0.000193526
      96.9000   0.000191200
      97.0000   0.000188898
      97.1000   0.000186631
      97.2000   0.000184386
      97.3000   0.000182137
      97.4000   0.000179888
      97.5000   0.000177671
      97.6000   0.000175480
      97.7000   0.000173327
      97.8000   0.000171206
      97.9000   0.000169113
      98.0000   0.000167039
      98.1000   0.000164985
      98.2000   0.000162957
      98.3000   0.000161079
      98.4000   0.000159279
      98.5000   0.000157536
      98.6000   0.000155811
      98.7000   0.000154105
      98.8000   0.000152414
      98.9000   0.000150738
      99.0000   0.000149083
      99.1000   0.000147444
      99.2000   0.000145811
      99.3000   0.000144152
      99.4000   0.000142516
      99.5000   0.000140895
      99.6000   0.000139300
      99.7000   0.000137786
      99.8000   0.000136320
      99.9000   0.000135126
      100.000   0.000134342
      100.100   0.000133516
      100.200   0.000132691
      100.300   0.000131869
      100.400   0.000131051
      100.500   0.000130256
      100.600   0.000129463
      100.700   0.000128671
      100.800   0.000127881
      100.900   0.000127093
      101.000   0.000126310
      101.100   0.000125532
      101.200   0.000124758
      101.300   0.000123986
      101.400   0.000123216
      101.500   0.000122451
      101.600   0.000121691
      101.700   0.000120946
      101.800   0.000120208
      101.900   0.000119473
      102.000   0.000118743
      102.100   0.000118036
      102.200   0.000117343
      102.300   0.000116653
      102.400   0.000115965
      102.500   0.000115279
      102.600   0.000114593
      102.700   0.000113910
      102.800   0.000113229
      102.900   0.000112551
      103.000   0.000111874
      103.100   0.000111198
      103.200   0.000110524
      103.300   0.000109853
      103.400   0.000109185
      103.500   0.000108521
      103.600   0.000107857
      103.700   0.000107195
      103.800   0.000106509
      103.900   0.000105798
      104.000   0.000105091
      104.100   0.000104390
      104.200   0.000103705
      104.300   0.000103098
      104.400   0.000102496
      104.500   0.000101896
      104.600   0.000101299
      104.700   0.000100680
      104.800   0.000100054
      104.900   9.94288e-05
      105.000   9.88063e-05
      105.100   9.82040e-05
      105.200   9.76461e-05
      105.300   9.70914e-05
      105.400   9.65382e-05
      105.500   9.59856e-05
      105.600   9.54433e-05
      105.700   9.49044e-05
      105.800   9.43670e-05
      105.900   9.38322e-05
      106.000   9.33134e-05
      106.100   9.28250e-05
      106.200   9.23399e-05
      106.300   9.18562e-05
      106.400   9.13743e-05
      106.500   9.08944e-05
      106.600   9.04164e-05
      106.700   8.99395e-05
      106.800   8.94634e-05
      106.900   8.89892e-05
      107.000   8.85173e-05
      107.100   8.80478e-05
      107.200   8.75809e-05
      107.300   8.71161e-05
      107.400   8.66507e-05
      107.500   8.61848e-05
      107.600   8.57202e-05
      107.700   8.52568e-05
      107.800   8.47955e-05
      107.900   8.43298e-05
      108.000   8.38650e-05
      108.100   8.34007e-05
      108.200   8.29372e-05
      108.300   8.24746e-05
      108.400   8.20074e-05
      108.500   8.15422e-05
      108.600   8.10783e-05
      108.700   8.06147e-05
      108.800   8.01318e-05
      108.900   7.96213e-05
      109.000   7.91125e-05
      109.100   7.86061e-05
      109.200   7.81019e-05
      109.300   7.76001e-05
      109.400   7.71003e-05
      109.500   7.66029e-05
      109.600   7.61080e-05
      109.700   7.56157e-05
      109.800   7.51268e-05
      109.900   7.46405e-05
      110.000   7.41563e-05
      110.100   7.36741e-05
      110.200   7.31937e-05
      110.300   7.27277e-05
      110.400   7.22652e-05
      110.500   7.18055e-05
      110.600   7.13481e-05
      110.700   7.08925e-05
      110.800   7.04381e-05
      110.900   6.99852e-05
      111.000   6.95337e-05
      111.100   6.90837e-05
      111.200   6.86366e-05
      111.300   6.82144e-05
      111.400   6.77938e-05
      111.500   6.73743e-05
      111.600   6.69564e-05
      111.700   6.65414e-05
      111.800   6.61432e-05
      111.900   6.57478e-05
      112.000   6.53544e-05
      112.100   6.49623e-05
      112.200   6.45716e-05
      112.300   6.41676e-05
      112.400   6.37647e-05
      112.500   6.33641e-05
      112.600   6.29656e-05
      112.700   6.25715e-05
      112.800   6.21931e-05
      112.900   6.17822e-05
      113.000   6.13849e-05
      113.100   6.09946e-05
      113.200   6.05996e-05
      113.300   6.02143e-05
      113.400   5.97542e-05
      113.500   5.92774e-05
      113.600   5.88689e-05
      113.700   5.84421e-05
      113.800   5.79730e-05
      113.900   5.75709e-05
      114.000   5.71709e-05
      114.100   5.67275e-05
      114.200   5.63092e-05
      114.300   5.59293e-05
      114.400   5.55413e-05
      114.500   5.51450e-05
      114.600   5.47972e-05
      114.700   5.44157e-05
      114.800   5.40593e-05
      114.900   5.37590e-05
      115.000   5.34198e-05
      115.100   5.30584e-05
      115.200   5.26960e-05
      115.300   5.23844e-05
      115.400   5.20276e-05
      115.500   5.16958e-05
      115.600   5.13462e-05
      115.700   5.09693e-05
      115.800   5.06331e-05
      115.900   5.02777e-05
      116.000   4.99573e-05
      116.100   4.96898e-05
      116.200   4.94191e-05
      116.300   4.91401e-05
      116.400   4.88457e-05
      116.500   4.85884e-05
      116.600   4.83202e-05
      116.700   4.80619e-05
      116.800   4.77935e-05
      116.900   4.74821e-05
      117.000   4.72215e-05
      117.100   4.71035e-05
      117.200   4.70848e-05
      117.300   4.69674e-05
      117.400   4.68428e-05
      117.500   4.67194e-05
      117.600   4.65391e-05
      117.700   4.63370e-05
      117.800   4.61059e-05
      117.900   4.58604e-05
      118.000   4.55874e-05
      118.100   4.52884e-05
      118.200   4.50120e-05
      118.300   4.47456e-05
      118.400   4.43748e-05
      118.500   4.40145e-05
      118.600   4.37044e-05
      118.700   4.33786e-05
      118.800   4.30313e-05
      118.900   4.27017e-05
      119.000   4.23175e-05
      119.100   4.18717e-05
      119.200   4.14824e-05
      119.300   4.11408e-05
      119.400   4.08270e-05
      119.500   4.05266e-05
      119.600   4.01912e-05
      119.700   3.98153e-05
      119.800   3.93576e-05
      119.900   3.87920e-05
      120.000   3.82659e-05
      120.100   3.77717e-05
      120.200   3.74167e-05
      120.300   3.71416e-05
      120.400   3.68667e-05
      120.500   3.64836e-05
      120.600   3.60198e-05
      120.700   3.55326e-05
      120.800   3.50663e-05
      120.900   3.47445e-05
      121.000   3.46443e-05
      121.100   3.45051e-05
      121.200   3.42566e-05
      121.300   3.39315e-05
      121.400   3.35493e-05
      121.500   3.31252e-05
      121.600   3.25321e-05
      121.700   3.20123e-05
      121.800   3.14363e-05
      121.900   3.08573e-05
      122.000   3.02423e-05
      122.100   2.96631e-05
      122.200   2.90940e-05
      122.300   2.86719e-05
      122.400   2.84070e-05
      122.500   2.81762e-05
      122.600   2.79270e-05
      122.700   2.76777e-05
      122.800   2.73953e-05
      122.900   2.71343e-05
      123.000   2.70516e-05
      123.100   2.72755e-05
      123.200   2.75184e-05
      123.300   2.79167e-05
      123.400   2.84427e-05
      123.500   2.91510e-05
      123.600   2.97503e-05
      123.700   3.00354e-05
      123.800   3.02305e-05
      123.900   3.05130e-05
      124.000   3.09371e-05
      124.100   3.18248e-05
      124.200   3.36988e-05
      124.300   3.65277e-05
      124.400   3.92433e-05
      124.500   3.99771e-05
      124.600   3.97966e-05
      124.700   3.95122e-05
      124.800   3.92398e-05
      124.900   3.89680e-05
      125.000   3.86963e-05
      125.100   3.84175e-05
      125.200   3.81391e-05
      125.300   3.78620e-05
      125.400   3.75864e-05
      125.500   3.73122e-05
      125.600   3.70394e-05
      125.700   3.67682e-05
      125.800   3.64984e-05
      125.900   3.62303e-05
      126.000   3.59639e-05
      126.100   3.56993e-05
      126.200   3.54364e-05
      126.300   3.51750e-05
      126.400   3.49153e-05
      126.500   3.46570e-05
      126.600   3.44002e-05
      126.700   3.41448e-05
      126.800   3.38909e-05
      126.900   3.36383e-05
      127.000   3.33864e-05
      127.100   3.31328e-05
      127.200   3.28792e-05
      127.300   3.26267e-05
      127.400   3.23756e-05
      127.500   3.21260e-05
      127.600   3.18779e-05
      127.700   3.16313e-05
      127.800   3.13864e-05
      127.900   3.11429e-05
      128.000   3.09010e-05
      128.100   3.06605e-05
      128.200   3.04214e-05
      128.300   3.01837e-05
      128.400   2.99474e-05
      128.500   2.97123e-05
      128.600   2.94786e-05
      128.700   2.92464e-05
      128.800   2.90155e-05
      128.900   2.87861e-05
      129.000   2.85581e-05
      129.100   2.83311e-05
      129.200   2.81037e-05
      129.300   2.78777e-05
      129.400   2.76532e-05
      129.500   2.74303e-05
      129.600   2.72089e-05
      129.700   2.69890e-05
      129.800   2.67707e-05
      129.900   2.65539e-05
      130.000   2.63387e-05
      130.100   2.61251e-05
      130.200   2.59128e-05
      130.300   2.57022e-05
      130.400   2.54931e-05
      130.500   2.52855e-05
      130.600   2.50795e-05
      130.700   2.48751e-05
      130.800   2.46722e-05
      130.900   2.44708e-05
      131.000   2.42709e-05
      131.100   2.40723e-05
      131.200   2.38749e-05
      131.300   2.36783e-05
      131.400   2.34830e-05
      131.500   2.32890e-05
      131.600   2.30962e-05
      131.700   2.29048e-05
      131.800   2.27145e-05
      131.900   2.25254e-05
      132.000   2.23376e-05
      132.100   2.21510e-05
      132.200   2.19657e-05
      132.300   2.17815e-05
      132.400   2.15987e-05
      132.500   2.14171e-05
      132.600   2.12369e-05
      132.700   2.10580e-05
      132.800   2.08804e-05
      132.900   2.07040e-05
      133.000   2.05288e-05
      133.100   2.03548e-05
      133.200   2.01820e-05
      133.300   2.00103e-05
      133.400   1.98397e-05
      133.500   1.96703e-05
      133.600   1.95020e-05
      133.700   1.93351e-05
      133.800   1.91694e-05
      133.900   1.90050e-05
      134.000   1.88418e-05
      134.100   1.86799e-05
      134.200   1.85192e-05
      134.300   1.83597e-05
      134.400   1.82014e-05
      134.500   1.80443e-05
      134.600   1.78884e-05
      134.700   1.77337e-05
      134.800   1.75802e-05
      134.900   1.74279e-05
      135.000   1.72767e-05
      135.100   1.71266e-05
      135.200   1.69777e-05
      135.300   1.68300e-05
      135.400   1.66833e-05
      135.500   1.65372e-05
      135.600   1.63919e-05
      135.700   1.62478e-05
      135.800   1.61046e-05
      135.900   1.59626e-05
      136.000   1.58216e-05
      136.100   1.56815e-05
      136.200   1.55426e-05
      136.300   1.54046e-05
      136.400   1.52675e-05
      136.500   1.51315e-05
      136.600   1.49964e-05
      136.700   1.48622e-05
      136.800   1.47290e-05
      136.900   1.45968e-05
      137.000   1.44655e-05
      137.100   1.43352e-05
      137.200   1.42058e-05
      137.300   1.40775e-05
      137.400   1.39502e-05
      137.500   1.38238e-05
      137.600   1.36984e-05
      137.700   1.35738e-05
      137.800   1.34501e-05
      137.900   1.33273e-05
      138.000   1.32055e-05
      138.100   1.30847e-05
      138.200   1.29650e-05
      138.300   1.28462e-05
      138.400   1.27284e-05
      138.500   1.26115e-05
      138.600   1.24956e-05
      138.700   1.23806e-05
      138.800   1.22666e-05
      138.900   1.21535e-05
      139.000   1.20414e-05
      139.100   1.19302e-05
      139.200   1.18200e-05
      139.300   1.17106e-05
      139.400   1.16022e-05
      139.500   1.14947e-05
      139.600   1.13880e-05
      139.700   1.12821e-05
      139.800   1.11771e-05
      139.900   1.10730e-05
      140.000   1.09696e-05
      140.100   1.08671e-05
      140.200   1.07654e-05
      140.300   1.06645e-05
      140.400   1.05644e-05
      140.500   1.04651e-05
      140.600   1.03666e-05
      140.700   1.02688e-05
      140.800   1.01720e-05
      140.900   1.00760e-05
      141.000   9.98069e-06
      141.100   9.88620e-06
      141.200   9.79247e-06
      141.300   9.69949e-06
      141.400   9.60724e-06
      141.500   9.51574e-06
      141.600   9.42504e-06
      141.700   9.33507e-06
      141.800   9.24583e-06
      141.900   9.15731e-06
      142.000   9.06951e-06
      142.100   8.98600e-06
      142.200   8.91343e-06
      142.300   8.85016e-06
      142.400   8.78724e-06
      142.500   8.72461e-06
      142.600   8.66228e-06
      142.700   8.60028e-06
      142.800   8.53860e-06
      142.900   8.47726e-06
      143.000   8.41624e-06
      143.100   8.35557e-06
      143.200   8.29528e-06
      143.300   8.23530e-06
      143.400   8.17567e-06
      143.500   8.11638e-06
      143.600   8.05740e-06
      143.700   7.99871e-06
      143.800   7.94039e-06
      143.900   7.88240e-06
      144.000   7.82471e-06
      144.100   7.76735e-06
      144.200   7.71030e-06
      144.300   7.65353e-06
      144.400   7.59792e-06
      144.500   7.55393e-06
      144.600   7.51364e-06
      144.700   7.47382e-06
      144.800   7.43402e-06
      144.900   7.39426e-06
      145.000   7.35453e-06
      145.100   7.31485e-06
      145.200   7.27520e-06
      145.300   7.23559e-06
      145.400   7.19602e-06
      145.500   7.15648e-06
      145.600   7.11698e-06
      145.700   7.07750e-06
      145.800   7.03809e-06
      145.900   6.99872e-06
      146.000   6.95937e-06
      146.100   6.92008e-06
      146.200   6.88085e-06
      146.300   6.84167e-06
      146.400   6.80252e-06
      146.500   6.76348e-06
      146.600   6.72450e-06
      146.700   6.68560e-06
      146.800   6.64636e-06
      146.900   6.60663e-06
      147.000   6.56699e-06
      147.100   6.52743e-06
      147.200   6.48799e-06
      147.300   6.44863e-06
      147.400   6.40937e-06
      147.500   6.37021e-06
      147.600   6.33114e-06
      147.700   6.29218e-06
      147.800   6.25334e-06
      147.900   6.21460e-06
      148.000   6.17596e-06
      148.100   6.13744e-06
      148.200   6.09905e-06
      148.300   6.06078e-06
      148.400   6.02264e-06
      148.500   5.98462e-06
      148.600   5.94673e-06
      148.700   5.90897e-06
      148.800   5.87132e-06
      148.900   5.83383e-06
      149.000   5.79648e-06
      149.100   5.75926e-06
      149.200   5.72214e-06
      149.300   5.68512e-06
      149.400   5.64824e-06
      149.500   5.61150e-06
      149.600   5.57487e-06
      149.700   5.53838e-06
      149.800   5.50200e-06
      149.900   5.46574e-06
      150.000   5.42960e-06
      150.100   5.39360e-06
      150.200   5.35769e-06
      150.300   5.32193e-06
      150.400   5.28628e-06
      150.500   5.25075e-06
      150.600   5.21534e-06
      150.700   5.18004e-06
      150.800   5.14487e-06
      150.900   5.10982e-06
      151.000   5.07488e-06
      151.100   5.04006e-06
      151.200   5.00536e-06
      151.300   4.97078e-06
      151.400   4.93632e-06
      151.500   4.90200e-06
      151.600   4.86787e-06
      151.700   4.83394e-06
      151.800   4.80013e-06
      151.900   4.76644e-06
      152.000   4.73289e-06
      152.100   4.69947e-06
      152.200   4.66620e-06
      152.300   4.63305e-06
      152.400   4.60005e-06
      152.500   4.56719e-06
      152.600   4.53448e-06
      152.700   4.50191e-06
      152.800   4.46949e-06
      152.900   4.43725e-06
      153.000   4.40514e-06
      153.100   4.37319e-06
      153.200   4.34139e-06
      153.300   4.30975e-06
      153.400   4.27827e-06
      153.500   4.24693e-06
      153.600   4.21575e-06
      153.700   4.18473e-06
      153.800   4.15385e-06
      153.900   4.12313e-06
      154.000   4.09304e-06
      154.100   4.06418e-06
      154.200   4.03581e-06
      154.300   4.00756e-06
      154.400   3.97944e-06
      154.500   3.95143e-06
      154.600   3.92355e-06
      154.700   3.89579e-06
      154.800   3.86814e-06
      154.900   3.84062e-06
      155.000   3.81321e-06
      155.100   3.78593e-06
      155.200   3.75877e-06
      155.300   3.73173e-06
      155.400   3.70482e-06
      155.500   3.67803e-06
      155.600   3.65135e-06
      155.700   3.62478e-06
      155.800   3.59835e-06
      155.900   3.57202e-06
      156.000   3.54582e-06
      156.100   3.51973e-06
      156.200   3.49376e-06
      156.300   3.46790e-06
      156.400   3.44215e-06
      156.500   3.41640e-06
      156.600   3.38997e-06
      156.700   3.36366e-06
      156.800   3.33748e-06
      156.900   3.31142e-06
      157.000   3.28551e-06
      157.100   3.25972e-06
      157.200   3.23407e-06
      157.300   3.20854e-06
      157.400   3.18316e-06
      157.500   3.15789e-06
      157.600   3.13275e-06
      157.700   3.10775e-06
      157.800   3.08289e-06
      157.900   3.05815e-06
      158.000   3.03355e-06
      158.100   3.00909e-06
      158.200   2.98476e-06
      158.300   2.96057e-06
      158.400   2.93653e-06
      158.500   2.91261e-06
      158.600   2.88883e-06
      158.700   2.86519e-06
      158.800   2.84169e-06
      158.900   2.81833e-06
      159.000   2.79512e-06
      159.100   2.77202e-06
      159.200   2.74907e-06
      159.300   2.72626e-06
      159.400   2.70358e-06
      159.500   2.68106e-06
      159.600   2.65866e-06
      159.700   2.63642e-06
      159.800   2.61431e-06
      159.900   2.59234e-06
      160.000   2.57051e-06
      160.100   2.54882e-06
      160.200   2.52727e-06
      160.300   2.50585e-06
      160.400   2.48457e-06
      160.500   2.46341e-06
      160.600   2.44240e-06
      160.700   2.42151e-06
      160.800   2.40076e-06
      160.900   2.38013e-06
      161.000   2.35963e-06
      161.100   2.33926e-06
      161.200   2.31902e-06
      161.300   2.29891e-06
      161.400   2.27893e-06
      161.500   2.25908e-06
      161.600   2.23934e-06
      161.700   2.21971e-06
      161.800   2.20020e-06
      161.900   2.18082e-06
      162.000   2.16156e-06
      162.100   2.14242e-06
      162.200   2.12341e-06
      162.300   2.10453e-06
      162.400   2.08576e-06
      162.500   2.06712e-06
      162.600   2.04861e-06
      162.700   2.03022e-06
      162.800   2.01195e-06
      162.900   1.99380e-06
      163.000   1.97578e-06
      163.100   1.95788e-06
      163.200   1.94009e-06
      163.300   1.92243e-06
      163.400   1.90488e-06
      163.500   1.88746e-06
      163.600   1.87016e-06
      163.700   1.85297e-06
      163.800   1.83591e-06
      163.900   1.81897e-06
      164.000   1.80215e-06
      164.100   1.78545e-06
      164.200   1.76888e-06
      164.300   1.75253e-06
      164.400   1.73630e-06
      164.500   1.72019e-06
      164.600   1.70420e-06
      164.700   1.68833e-06
      164.800   1.67257e-06
      164.900   1.65693e-06
      165.000   1.64140e-06
      165.100   1.62600e-06
      165.200   1.61071e-06
      165.300   1.59554e-06
      165.400   1.58049e-06
      165.500   1.56555e-06
      165.600   1.55073e-06
      165.700   1.53602e-06
      165.800   1.52143e-06
      165.900   1.50695e-06
      166.000   1.49259e-06
      166.100   1.47834e-06
      166.200   1.46420e-06
      166.300   1.45018e-06
      166.400   1.43627e-06
      166.500   1.42247e-06
      166.600   1.40878e-06
      166.700   1.39520e-06
      166.800   1.38171e-06
      166.900   1.36834e-06
      167.000   1.35510e-06
      167.100   1.34194e-06
      167.200   1.32889e-06
      167.300   1.31594e-06
      167.400   1.30309e-06
      167.500   1.29035e-06
      167.600   1.27771e-06
      167.700   1.26517e-06
      167.800   1.25273e-06
      167.900   1.24039e-06
      168.000   1.22815e-06
      168.100   1.21601e-06
      168.200   1.20396e-06
      168.300   1.19201e-06
      168.400   1.18015e-06
      168.500   1.16839e-06
      168.600   1.15673e-06
      168.700   1.14516e-06
      168.800   1.13368e-06
      168.900   1.12230e-06
      169.000   1.11100e-06
      169.100   1.09980e-06
      169.200   1.08870e-06
      169.300   1.07768e-06
      169.400   1.06676e-06
      169.500   1.05586e-06
      169.600   1.04481e-06
      169.700   1.03358e-06
      169.800   1.02237e-06
      169.900   1.01125e-06
      170.000   1.00022e-06
      170.100   9.89283e-07
      170.200   9.78443e-07
      170.300   1.28349e-06
      170.400   2.77451e-06
      170.500   5.28524e-06
      170.600   7.82097e-06
      170.700   9.87416e-06
      170.800   1.08584e-05
      170.900   1.09378e-05
      171.000   1.07934e-05
      171.100   1.06502e-05
      171.200   1.05081e-05
      171.300   1.03671e-05
      171.400   1.02274e-05
      171.500   1.00888e-05
      171.600   9.95151e-06
      171.700   9.81551e-06
      171.800   9.68090e-06
      171.900   9.54776e-06
      172.000   9.41623e-06
      172.100   9.28625e-06
      172.200   9.15803e-06
      172.300   9.03119e-06
      172.400   8.90430e-06
      172.500   8.77880e-06
      172.600   8.65508e-06
      172.700   8.53317e-06
      172.800   8.41300e-06
      172.900   8.29455e-06
      173.000   8.17790e-06
      173.100   8.06297e-06
      173.200   7.94969e-06
      173.300   7.83813e-06
      173.400   7.72814e-06
      173.500   7.61982e-06
      173.600   7.51312e-06
      173.700   7.40795e-06
      173.800   7.30429e-06
      173.900   7.20219e-06
      174.000   7.10154e-06
      174.100   7.00229e-06
      174.200   6.90450e-06
      174.300   6.80808e-06
      174.400   6.71302e-06
      174.500   6.61928e-06
      174.600   6.52677e-06
      174.700   6.43557e-06
      174.800   6.34563e-06
      174.900   6.25686e-06
      175.000   6.16922e-06
      175.100   6.08276e-06
      175.200   5.99768e-06
      175.300   5.91368e-06
      175.400   5.83076e-06
      175.500   5.74896e-06
      175.600   5.66822e-06
      175.700   5.58856e-06
      175.800   5.50992e-06
      175.900   5.43232e-06
      176.000   5.35575e-06
      176.100   5.28021e-06
      176.200   5.20566e-06
      176.300   5.13206e-06
      176.400   5.05949e-06
      176.500   4.98785e-06
      176.600   4.91715e-06
      176.700   4.84739e-06
      176.800   4.77856e-06
      176.900   4.71066e-06
      177.000   4.64365e-06
      177.100   4.57751e-06
      177.200   4.51227e-06
      177.300   4.44790e-06
      177.400   4.38435e-06
      177.500   4.32164e-06
      177.600   4.25976e-06
      177.700   4.19871e-06
      177.800   4.13846e-06
      177.900   4.07895e-06
      178.000   4.02050e-06
      178.100   3.96285e-06
      178.200   3.90593e-06
      178.300   3.84976e-06
      178.400   3.79435e-06
      178.500   3.73966e-06
      178.600   3.68569e-06
      178.700   3.63241e-06
      178.800   3.57986e-06
      178.900   3.52802e-06
      179.000   3.47686e-06
      179.100   3.42636e-06
      179.200   3.37656e-06
      179.300   3.32744e-06
      179.400   3.27899e-06
      179.500   3.23122e-06
      179.600   3.18410e-06
      179.700   3.13766e-06
      179.800   3.09186e-06
      179.900   3.04670e-06
      180.000   3.00217e-06
      180.100   2.95829e-06
      180.200   2.91505e-06
      180.300   2.87242e-06
      180.400   2.83040e-06
      180.500   2.78901e-06
      180.600   2.74822e-06
      180.700   2.70803e-06
      180.800   2.66843e-06
      180.900   2.62941e-06
      181.000   2.59095e-06
      181.100   2.55307e-06
      181.200   2.51574e-06
      181.300   2.47895e-06
      181.400   2.44273e-06
      181.500   2.40702e-06
      181.600   2.37184e-06
      181.700   2.33717e-06
      181.800   2.30300e-06
      181.900   2.26934e-06
      182.000   2.23618e-06
      182.100   2.20348e-06
      182.200   2.17127e-06
      182.300   2.13952e-06
      182.400   2.10824e-06
      182.500   2.07740e-06
      182.600   2.04699e-06
      182.700   2.01702e-06
      182.800   1.98748e-06
      182.900   1.95834e-06
      183.000   1.92963e-06
      183.100   1.90133e-06
      183.200   1.87342e-06
      183.300   1.84590e-06
      183.400   1.81876e-06
      183.500   1.79202e-06
      183.600   1.76565e-06
      183.700   1.73966e-06
      183.800   1.71405e-06
      183.900   1.68880e-06
      184.000   1.66393e-06
      184.100   1.63940e-06
      184.200   1.61523e-06
      184.300   1.59140e-06
      184.400   1.56791e-06
      184.500   1.54476e-06
      184.600   1.52193e-06
      184.700   1.49942e-06
      184.800   1.47724e-06
      184.900   1.45537e-06
      185.000   1.43381e-06
      185.100   1.41255e-06
      185.200   1.39159e-06
      185.300   1.37094e-06
      185.400   1.35058e-06
      185.500   1.33050e-06
      185.600   1.31071e-06
      185.700   1.29118e-06
      185.800   1.27195e-06
      185.900   1.25300e-06
      186.000   1.23430e-06
      186.100   1.21587e-06
      186.200   1.19769e-06
      186.300   1.17976e-06
      186.400   1.16209e-06
      186.500   1.14466e-06
      186.600   1.12747e-06
      186.700   1.11051e-06
      186.800   1.09378e-06
      186.900   1.07728e-06
      187.000   1.06101e-06
      187.100   1.04496e-06
      187.200   1.02914e-06
      187.300   1.01355e-06
      187.400   9.98167e-07
      187.500   9.83004e-07
      187.600   9.68049e-07
      187.700   9.53305e-07
      187.800   9.38763e-07
      187.900   9.24425e-07
      188.000   9.10294e-07
      188.100   8.96360e-07
      188.200   8.82620e-07
      188.300   8.69073e-07
      188.400   8.55719e-07
      188.500   8.42562e-07
      188.600   8.29600e-07
      188.700   8.16831e-07
      188.800   8.04251e-07
      188.900   7.91860e-07
      189.000   7.79646e-07
      189.100   7.67610e-07
      189.200   7.55753e-07
      189.300   7.44076e-07
      189.400   7.32574e-07
      189.500   7.21242e-07
      189.600   7.10077e-07
      189.700   6.99084e-07
      189.800   6.88316e-07
      189.900   6.77727e-07
      190.000   6.67293e-07
      190.100   6.57022e-07
      190.200   6.46904e-07
      190.300   6.36941e-07
      190.400   6.27123e-07
      190.500   6.17456e-07
      190.600   6.07939e-07
      190.700   5.98562e-07
      190.800   5.89328e-07
      190.900   5.80236e-07
      191.000   5.71283e-07
      191.100   5.62474e-07
      191.200   5.53795e-07
      191.300   5.45248e-07
      191.400   5.36831e-07
      191.500   5.28538e-07
      191.600   5.20371e-07
      191.700   5.12327e-07
      191.800   5.04400e-07
      191.900   4.96595e-07
      192.000   4.88911e-07
      192.100   4.81346e-07
      192.200   4.73901e-07
      192.300   4.66566e-07
      192.400   4.59340e-07
      192.500   4.52222e-07
      192.600   4.45213e-07
      192.700   4.38309e-07
      192.800   4.31508e-07
      192.900   4.24805e-07
      193.000   4.18206e-07
      193.100   4.11710e-07
      193.200   4.05315e-07
      193.300   3.99019e-07
      193.400   3.92821e-07
      193.500   3.86716e-07
      193.600   3.80702e-07
      193.700   3.74779e-07
      193.800   3.68949e-07
      193.900   3.63209e-07
      194.000   3.57555e-07
      194.100   3.51991e-07
      194.200   3.46518e-07
      194.300   3.41128e-07
      194.400   3.35819e-07
      194.500   3.30592e-07
      194.600   3.25442e-07
      194.700   3.20372e-07
      194.800   3.15381e-07
      194.900   3.10463e-07
      195.000   3.05619e-07
      195.100   3.00855e-07
      195.200   2.96164e-07
      195.300   2.91544e-07
      195.400   2.86992e-07
      195.500   2.82507e-07
      195.600   2.78089e-07
      195.700   2.73737e-07
      195.800   2.69449e-07
      195.900   2.65223e-07
      196.000   2.61014e-07
      196.100   2.56866e-07
      196.200   2.52781e-07
      196.300   2.48756e-07
      196.400   2.44791e-07
      196.500   2.40882e-07
      196.600   2.37033e-07
      196.700   2.33240e-07
      196.800   2.29506e-07
      196.900   2.25829e-07
      197.000   2.22208e-07
      197.100   2.18640e-07
      197.200   2.15124e-07
      197.300   2.11659e-07
      197.400   2.08245e-07
      197.500   2.04881e-07
      197.600   2.01568e-07
      197.700   1.98309e-07
      197.800   1.95100e-07
      197.900   1.91936e-07
      198.000   1.88821e-07
      198.100   1.85752e-07
      198.200   1.82729e-07
      198.300   1.79750e-07
      198.400   1.76818e-07
      198.500   1.73934e-07
      198.600   1.71095e-07
      198.700   1.68299e-07
      198.800   1.65546e-07
      198.900   1.62835e-07
      199.000   1.60165e-07
      199.100   1.57536e-07
      199.200   1.54949e-07
      199.300   1.52405e-07
      199.400   1.49901e-07
      199.500   1.47438e-07
      199.600   1.45012e-07
      199.700   1.42623e-07
      199.800   1.40273e-07
      199.900   1.37959e-07
      200.000   1.35681e-07
      200.100   1.33449e-07
      200.200   1.31247e-07
      200.300   1.29080e-07
      200.400   1.26948e-07
      200.500   1.24849e-07
      200.600   1.22784e-07
      200.700   1.20753e-07
      200.800   1.18753e-07
      200.900   1.16785e-07
      201.000   1.14851e-07
      201.100   1.12947e-07
      201.200   1.11075e-07
      201.300   1.09232e-07
      201.400   1.07420e-07
      201.500   1.05636e-07
      201.600   1.03881e-07
      201.700   1.02154e-07
      201.800   1.00455e-07
      201.900   9.87838e-08
      202.000   9.71417e-08
      202.100   9.55249e-08
      202.200   9.39349e-08
      202.300   9.24256e-08
      202.400   9.10422e-08
      202.500   8.97080e-08
      202.600   8.83922e-08
      202.700   8.70957e-08
      202.800   8.58186e-08
      202.900   8.45603e-08
      203.000   8.33206e-08
      203.100   8.20995e-08
      203.200   8.08956e-08
      203.300   7.97090e-08
      203.400   7.85397e-08
      203.500   7.73879e-08
      203.600   7.62527e-08
      203.700   7.51343e-08
      203.800   7.40330e-08
      203.900   7.29485e-08
      204.000   7.18797e-08
      204.100   7.08269e-08
      204.200   6.97899e-08
      204.300   6.87677e-08
      204.400   6.77610e-08
      204.500   6.67691e-08
      204.600   6.57917e-08
      204.700   6.48287e-08
      204.800   6.38810e-08
      204.900   6.29473e-08
      205.000   6.20273e-08
      205.100   6.11212e-08
      205.200   6.02280e-08
      205.300   5.93484e-08
      205.400   5.84816e-08
      205.500   5.76273e-08
      205.600   5.68077e-08
      205.700   5.60203e-08
      205.800   5.52462e-08
      205.900   5.44834e-08
      206.000   5.37316e-08
      206.100   5.29897e-08
      206.200   5.22578e-08
      206.300   5.15362e-08
      206.400   5.08245e-08
      206.500   5.01220e-08
      206.600   4.94292e-08
      206.700   4.87458e-08
      206.800   4.80712e-08
      206.900   4.74057e-08
      207.000   4.67494e-08
      207.100   4.61017e-08
      207.200   4.54630e-08
      207.300   4.48327e-08
      207.400   4.42105e-08
      207.500   4.35965e-08
      207.600   4.29906e-08
      207.700   4.23925e-08
      207.800   4.18022e-08
      207.900   4.12196e-08
      208.000   4.06446e-08
      208.100   4.00771e-08
      208.200   3.95172e-08
      208.300   3.89644e-08
      208.400   3.84190e-08
      208.500   3.78810e-08
      208.600   3.73497e-08
      208.700   3.68253e-08
      208.800   3.63078e-08
      208.900   3.57964e-08
      209.000   3.52884e-08
      209.100   3.47869e-08
      209.200   3.42922e-08
      209.300   3.38038e-08
      209.400   3.33222e-08
      209.500   3.28469e-08
      209.600   3.23779e-08
      209.700   3.19153e-08
      209.800   3.14593e-08
      209.900   3.10092e-08
      210.000   3.05652e-08
      210.100   3.01273e-08
      210.200   2.96953e-08
      210.300   2.92691e-08
      210.400   2.88488e-08
      210.500   2.84341e-08
      210.600   2.80251e-08
      210.700   2.76217e-08
      210.800   2.72238e-08
      210.900   2.68314e-08
      211.000   2.64443e-08
      211.100   2.60626e-08
      211.200   2.56861e-08
      211.300   2.53151e-08
      211.400   2.49494e-08
      211.500   2.45885e-08
      211.600   2.42327e-08
      211.700   2.38818e-08
      211.800   2.35357e-08
      211.900   2.31944e-08
      212.000   2.28580e-08
      212.100   2.25261e-08
      212.200   2.21989e-08
      212.300   2.18764e-08
      212.400   2.15584e-08
      212.500   2.12449e-08
      212.600   2.09358e-08
      212.700   2.06310e-08
      212.800   2.03305e-08
      212.900   2.00343e-08
      213.000   1.97421e-08
      213.100   1.94543e-08
      213.200   1.91705e-08
      213.300   1.88907e-08
      213.400   1.86148e-08
      213.500   1.83428e-08
      213.600   1.80747e-08
      213.700   1.78104e-08
      213.800   1.75498e-08
      213.900   1.72931e-08
      214.000   1.70399e-08
      214.100   1.67904e-08
      214.200   1.65446e-08
      214.300   1.63022e-08
      214.400   1.60633e-08
      214.500   1.58278e-08
      214.600   1.55959e-08
      214.700   1.53673e-08
      214.800   1.51420e-08
      214.900   1.49201e-08
      215.000   1.47013e-08
      215.100   1.44858e-08
      215.200   1.42734e-08
      215.300   1.40644e-08
      215.400   1.38583e-08
      215.500   1.36553e-08
      215.600   1.34555e-08
      215.700   1.32585e-08
      215.800   1.30643e-08
      215.900   1.28731e-08
      216.000   1.26847e-08
      216.100   1.24991e-08
      216.200   1.23163e-08
      216.300   1.21362e-08
      216.400   1.19589e-08
      216.500   1.17841e-08
      216.600   1.16120e-08
      216.700   1.14425e-08
      216.800   1.12755e-08
      216.900   1.11110e-08
      217.000   1.09490e-08
      217.100   1.07894e-08
      217.200   1.06322e-08
      217.300   1.04773e-08
      217.400   1.03247e-08
      217.500   1.01744e-08
      217.600   1.00263e-08
      217.700   9.88041e-09
      217.800   9.73669e-09
      217.900   9.59515e-09
      218.000   9.45567e-09
      218.100   9.31824e-09
      218.200   9.18282e-09
      218.300   9.04941e-09
      218.400   8.91798e-09
      218.500   8.78838e-09
      218.600   8.66073e-09
      218.700   8.53490e-09
      218.800   8.41089e-09
      218.900   8.28871e-09
      219.000   8.16825e-09
      219.100   8.04950e-09
      219.200   7.93249e-09
      219.300   7.81714e-09
      219.400   7.70340e-09
      219.500   7.59131e-09
      219.600   7.48081e-09
      219.700   7.37188e-09
      219.800   7.26453e-09
      219.900   7.15868e-09
      220.000   7.05431e-09
      220.100   6.95142e-09
      220.200   6.84998e-09
      220.300   6.74999e-09
      220.400   6.65141e-09
      220.500   6.55424e-09
      220.600   6.45844e-09
      220.700   6.36396e-09
      220.800   6.27080e-09
      220.900   6.17901e-09
      221.000   6.08847e-09
      221.100   5.99919e-09
      221.200   5.91122e-09
      221.300   5.82448e-09
      221.400   5.73895e-09
      221.500   5.65464e-09
      221.600   5.57151e-09
      221.700   5.48955e-09
      221.800   5.40872e-09
      221.900   5.32905e-09
      222.000   5.25055e-09
      222.100   5.17311e-09
      222.200   5.09680e-09
      222.300   5.02154e-09
      222.400   4.94737e-09
      222.500   4.87421e-09
      222.600   4.80214e-09
      222.700   4.73106e-09
      222.800   4.66097e-09
      222.900   4.59189e-09
      223.000   4.52377e-09
      223.100   4.45661e-09
      223.200   4.39042e-09
      223.300   4.32516e-09
      223.400   4.26085e-09
      223.500   4.19742e-09
      223.600   4.13493e-09
      223.700   4.07330e-09
      223.800   4.01255e-09
      223.900   3.95271e-09
      224.000   3.89368e-09
      224.100   3.83549e-09
      224.200   3.77813e-09
      224.300   3.72160e-09
      224.400   3.66586e-09
      224.500   3.61093e-09
      224.600   3.55676e-09
      224.700   3.50341e-09
      224.800   3.45080e-09
      224.900   3.39892e-09
      225.000   3.34780e-09
      225.100   3.29741e-09
      225.200   3.24773e-09
      225.300   3.19879e-09
      225.400   3.15053e-09
      225.500   3.10295e-09
      225.600   3.05607e-09
      225.700   3.00987e-09
      225.800   2.96432e-09
      225.900   2.91943e-09
      226.000   2.87521e-09
      226.100   2.83161e-09
      226.200   2.78865e-09
      226.300   2.74651e-09
      226.400   2.70516e-09
      226.500   2.66436e-09
      226.600   2.62410e-09
      226.700   2.58440e-09
      226.800   2.54523e-09
      226.900   2.50662e-09
      227.000   2.46859e-09
      227.100   2.43109e-09
      227.200   2.39415e-09
      227.300   2.35775e-09
      227.400   2.32190e-09
      227.500   2.28657e-09
      227.600   2.25177e-09
      227.700   2.21748e-09
      227.800   2.18371e-09
      227.900   2.15044e-09
      228.000   2.11767e-09
      228.100   2.08539e-09
      228.200   2.05359e-09
      228.300   2.02228e-09
      228.400   1.99144e-09
      228.500   1.96106e-09
      228.600   1.93114e-09
      228.700   1.90168e-09
      228.800   1.87266e-09
      228.900   1.84409e-09
      229.000   1.81595e-09
      229.100   1.78825e-09
      229.200   1.76096e-09
      229.300   1.73410e-09
      229.400   1.70765e-09
      229.500   1.68160e-09
      229.600   1.65595e-09
      229.700   1.63070e-09
      229.800   1.60584e-09
      229.900   1.58136e-09
      230.000   1.55713e-09
      230.100   1.53241e-09
      230.200   1.50805e-09
      230.300   1.48410e-09
      230.400   1.46053e-09
      230.500   1.43733e-09
      230.600   1.41451e-09
      230.700   1.39205e-09
      230.800   1.36996e-09
      230.900   1.34822e-09
      231.000   1.32682e-09
      231.100   1.30577e-09
      231.200   1.28505e-09
      231.300   1.26467e-09
      231.400   1.24461e-09
      231.500   1.22487e-09
      231.600   1.20544e-09
      231.700   1.18632e-09
      231.800   1.16751e-09
      231.900   1.14900e-09
      232.000   1.13078e-09
      232.100   1.11285e-09
      232.200   1.09520e-09
      232.300   1.07784e-09
      232.400   1.06074e-09
      232.500   1.04392e-09
      232.600   1.02736e-09
      232.700   1.01107e-09
      232.800   9.95030e-10
      232.900   9.79246e-10
      233.000   9.63709e-10
      233.100   9.48421e-10
      233.200   9.33367e-10
      233.300   9.18553e-10
      233.400   9.03976e-10
      233.500   8.89626e-10
      233.600   8.75508e-10
      233.700   8.61605e-10
      233.800   8.46466e-10
      233.900   8.31393e-10
      234.000   8.16580e-10
      234.100   8.02029e-10
      234.200   7.87737e-10
      234.300   7.73693e-10
      234.400   7.59893e-10
      234.500   7.46336e-10
      234.600   7.33014e-10
      234.700   7.19927e-10
      234.800   7.07072e-10
      234.900   6.94438e-10
      235.000   6.82023e-10
      235.100   6.69827e-10
      235.200   6.57845e-10
      235.300   6.46073e-10
      235.400   6.34505e-10
      235.500   6.23140e-10
      235.600   6.11978e-10
      235.700   6.01007e-10
      235.800   5.90237e-10
      235.900   5.79656e-10
      236.000   5.69260e-10
      236.100   5.59044e-10
      236.200   5.49007e-10
      236.300   5.39144e-10
      236.400   5.29457e-10
      236.500   5.19937e-10
      236.600   5.10584e-10
      236.700   5.01394e-10
      236.800   4.92364e-10
      236.900   4.83492e-10
      237.000   4.74775e-10
      237.100   4.66209e-10
      237.200   4.57794e-10
      237.300   4.49526e-10
      237.400   4.41401e-10
      237.500   4.33417e-10
      237.600   4.25568e-10
      237.700   4.17863e-10
      237.800   4.10291e-10
      237.900   4.02851e-10
      238.000   3.95543e-10
      238.100   3.88360e-10
      238.200   3.81303e-10
      238.300   3.74369e-10
      238.400   3.67555e-10
      238.500   3.60859e-10
      238.600   3.54281e-10
      238.700   3.47819e-10
      238.800   3.41468e-10
      238.900   3.35228e-10
      239.000   3.29096e-10
      239.100   3.23071e-10
      239.200   3.17153e-10
      239.300   3.11339e-10
      239.400   3.05632e-10
      239.500   3.00023e-10
      239.600   2.94511e-10
      239.700   2.89099e-10
      239.800   2.83779e-10
      239.900   2.78552e-10
      240.000   2.73418e-10
      240.100   2.68372e-10
      240.200   2.63415e-10
      240.300   2.58545e-10
      240.400   2.53759e-10
      240.500   2.49060e-10
      240.600   2.44444e-10
      240.700   2.39908e-10
      240.800   2.35454e-10
      240.900   2.31082e-10
      241.000   2.26787e-10
      241.100   2.22568e-10
      241.200   2.18424e-10
      241.300   2.14353e-10
      241.400   2.10355e-10
      241.500   2.06427e-10
      241.600   2.02570e-10
      241.700   1.98781e-10
      241.800   1.95060e-10
      241.900   1.91405e-10
      242.000   1.87816e-10
      242.100   1.84293e-10
      242.200   1.80835e-10
      242.300   1.77441e-10
      242.400   1.74108e-10
      242.500   1.70835e-10
      242.600   1.67621e-10
      242.700   1.64466e-10
      242.800   1.61368e-10
      242.900   1.58326e-10
      243.000   1.55340e-10
      243.100   1.52408e-10
      243.200   1.49529e-10
      243.300   1.46703e-10
      243.400   1.43930e-10
      243.500   1.41208e-10
      243.600   1.38540e-10
      243.700   1.35919e-10
      243.800   1.33346e-10
      243.900   1.30822e-10
      244.000   1.28344e-10
      244.100   1.25911e-10
      244.200   1.23524e-10
      244.300   1.21180e-10
      244.400   1.18880e-10
      244.500   1.16623e-10
      244.600   1.14407e-10
      244.700   1.12235e-10
      244.800   1.10104e-10
      244.900   1.08013e-10
      245.000   1.05961e-10
      245.100   1.03947e-10
      245.200   1.01971e-10
      245.300   1.00032e-10
      245.400   9.81283e-11
      245.500   9.62611e-11
      245.600   9.44288e-11
      245.700   9.26301e-11
      245.800   9.08649e-11
      245.900   8.91353e-11
      246.000   8.74392e-11
      246.100   8.57744e-11
      246.200   8.41409e-11
      246.300   8.25379e-11
      246.400   8.09655e-11
      246.500   7.94222e-11
      246.600   7.79079e-11
      246.700   7.64224e-11
      246.800   7.49641e-11
      246.900   7.35334e-11
      247.000   7.21316e-11
      247.100   7.07564e-11
      247.200   6.94074e-11
      247.300   6.80839e-11
      247.400   6.67850e-11
      247.500   6.55106e-11
      247.600   6.42602e-11
      247.700   6.30333e-11
      247.800   6.18295e-11
      247.900   6.06482e-11
      248.000   5.94893e-11
      248.100   5.83549e-11
      248.200   5.72414e-11
      248.300   5.61488e-11
      248.400   5.50768e-11
      248.500   5.40248e-11
      248.600   5.29926e-11
      248.700   5.19800e-11
      248.800   5.09865e-11
      248.900   5.00118e-11
      249.000   4.90555e-11
      249.100   4.81184e-11
      249.200   4.71997e-11
      249.300   4.62979e-11
      249.400   4.54131e-11
      249.500   4.45452e-11
      249.600   4.36934e-11
      249.700   4.28576e-11
      249.800   4.20376e-11
      249.900   4.12330e-11
      250.000   4.04439e-11
      250.100   3.96705e-11
      250.200   3.89117e-11
      250.300   3.81679e-11
      250.400   3.74379e-11
      250.500   3.67219e-11
      250.600   3.60195e-11
      250.700   3.53302e-11
      250.800   3.46539e-11
      250.900   3.39905e-11
      251.000   3.33396e-11
      251.100   3.27010e-11
      251.200   3.20750e-11
      251.300   3.14613e-11
      251.400   3.08592e-11
      251.500   3.02682e-11
      251.600   2.96886e-11
      251.700   2.91202e-11
      251.800   2.85623e-11
      251.900   2.80149e-11
      252.000   2.74778e-11
      252.100   2.69511e-11
      252.200   2.64341e-11
      252.300   2.59274e-11
      252.400   2.54303e-11
      252.500   2.49429e-11
      252.600   2.44644e-11
      252.700   2.39951e-11
      252.800   2.35346e-11
      252.900   2.30828e-11
      253.000   2.26396e-11
      253.100   2.22047e-11
      253.200   2.17780e-11
      253.300   2.13676e-11
      253.400   2.09684e-11
      253.500   2.05768e-11
      253.600   2.01927e-11
      253.700   1.98154e-11
      253.800   1.94452e-11
      253.900   1.90818e-11
      254.000   1.87250e-11
      254.100   1.83746e-11
      254.200   1.80306e-11
      254.300   1.76929e-11
      254.400   1.73613e-11
      254.500   1.70358e-11
      254.600   1.67162e-11
      254.700   1.64026e-11
      254.800   1.60949e-11
      254.900   1.57928e-11
      255.000   1.54962e-11
      255.100   1.52049e-11
      255.200   1.49189e-11
      255.300   1.46382e-11
      255.400   1.43625e-11
      255.500   1.40920e-11
      255.600   1.38263e-11
      255.700   1.35655e-11
      255.800   1.33094e-11
      255.900   1.30579e-11
      256.000   1.28111e-11
      256.100   1.25688e-11
      256.200   1.23310e-11
      256.300   1.20976e-11
      256.400   1.18686e-11
      256.500   1.16435e-11
      256.600   1.14227e-11
      256.700   1.12059e-11
      256.800   1.09930e-11
      256.900   1.07840e-11
      257.000   1.05788e-11
      257.100   1.03774e-11
      257.200   1.01797e-11
      257.300   9.98560e-12
      257.400   9.79721e-12
      257.500   9.61302e-12
      257.600   9.43237e-12
      257.700   9.25498e-12
      257.800   9.08079e-12
      257.900   8.90980e-12
      258.000   8.74189e-12
      258.100   8.57699e-12
      258.200   8.41510e-12
      258.300   8.25620e-12
      258.400   8.10011e-12
      258.500   7.94683e-12
      258.600   7.79641e-12
      258.700   7.64871e-12
      258.800   7.50367e-12
      258.900   7.36137e-12
      259.000   7.22156e-12
      259.100   7.08439e-12
      259.200   6.94969e-12
      259.300   6.81760e-12
      259.400   6.68789e-12
      259.500   6.56054e-12
      259.600   6.43558e-12
      259.700   6.31292e-12
      259.800   6.19247e-12
      259.900   6.07421e-12
      260.000   5.95819e-12
      260.100   5.84431e-12
      260.200   5.73252e-12
      260.300   5.62280e-12
      260.400   5.51513e-12
      260.500   5.40948e-12
      260.600   5.30575e-12
      260.700   5.20393e-12
      260.800   5.10410e-12
      260.900   5.00604e-12
      261.000   4.90987e-12
      261.100   4.81553e-12
      261.200   4.72293e-12
      261.300   4.63207e-12
      261.400   4.54294e-12
      261.500   4.45559e-12
      261.600   4.37022e-12
      261.700   4.28650e-12
      261.800   4.20437e-12
      261.900   4.12373e-12
      262.000   4.04461e-12
      262.100   3.96697e-12
      262.200   3.89083e-12
      262.300   3.81607e-12
      262.400   3.74274e-12
      262.500   3.67077e-12
      262.600   3.60014e-12
      262.700   3.53085e-12
      262.800   3.46288e-12
      262.900   3.39615e-12
      263.000   3.33075e-12
      263.100   3.26655e-12
      263.200   3.20359e-12
      263.300   3.14182e-12
      263.400   3.08122e-12
      263.500   3.02178e-12
      263.600   2.96347e-12
      263.700   2.90625e-12
      263.800   2.85011e-12
      263.900   2.79508e-12
      264.000   2.74106e-12
      264.100   2.68807e-12
      264.200   2.63607e-12
      264.300   2.58510e-12
      264.400   2.53509e-12
      264.500   2.48603e-12
      264.600   2.43789e-12
      264.700   2.39070e-12
      264.800   2.34437e-12
      264.900   2.29896e-12
      265.000   2.25442e-12
      265.100   2.21071e-12
      265.200   2.16785e-12
      265.300   2.12581e-12
      265.400   2.08458e-12
      265.500   2.04414e-12
      265.600   2.00448e-12
      265.700   1.96557e-12
      265.800   1.92747e-12
      265.900   1.89010e-12
      266.000   1.85347e-12
      266.100   1.81754e-12
      266.200   1.78230e-12
      266.300   1.74773e-12
      266.400   1.71384e-12
      266.500   1.68058e-12
      266.600   1.64798e-12
      266.700   1.61600e-12
      266.800   1.58466e-12
      266.900   1.55391e-12
      267.000   1.52374e-12
      267.100   1.49416e-12
      267.200   1.46517e-12
      267.300   1.43674e-12
      267.400   1.40884e-12
      267.500   1.38148e-12
      267.600   1.35466e-12
      267.700   1.32836e-12
      267.800   1.30256e-12
      267.900   1.27726e-12
      268.000   1.25246e-12
      268.100   1.22813e-12
      268.200   1.20428e-12
      268.300   1.18090e-12
      268.400   1.15796e-12
      268.500   1.13547e-12
      268.600   1.11341e-12
      268.700   1.09179e-12
      268.800   1.07058e-12
      268.900   1.04978e-12
      269.000   1.02940e-12
      269.100   1.00940e-12
      269.200   9.89798e-13
      269.300   9.70576e-13
      269.400   9.51713e-13
      269.500   9.33222e-13
      269.600   9.15096e-13
      269.700   8.97324e-13
      269.800   8.79894e-13
      269.900   8.62800e-13
      270.000   8.46043e-13
      270.100   8.29635e-13
      270.200   8.13565e-13
      270.300   7.97802e-13
      270.400   7.82341e-13
      270.500   7.67183e-13
      270.600   7.52314e-13
      270.700   7.37735e-13
      270.800   7.23443e-13
      270.900   7.09415e-13
      271.000   6.95668e-13
      271.100   6.82184e-13
      271.200   6.68955e-13
      271.300   6.55988e-13
      271.400   6.43268e-13
      271.500   6.30796e-13
      271.600   6.18558e-13
      271.700   6.06559e-13
      271.800   5.94795e-13
      271.900   5.83256e-13
      272.000   5.71941e-13
      272.100   5.60840e-13
      272.200   5.49956e-13
      272.300   5.39277e-13
      272.400   5.28804e-13
      272.500   5.18535e-13
      272.600   5.08461e-13
      272.700   4.98582e-13
      272.800   4.88891e-13
      272.900   4.79388e-13
      273.000   4.70070e-13
      273.100   4.60927e-13
      273.200   4.51958e-13
      273.300   4.43167e-13
      273.400   4.34540e-13
      273.500   4.26080e-13
      273.600   4.17782e-13
      273.700   4.09641e-13
      273.800   4.01657e-13
      273.900   3.93830e-13
      274.000   3.86149e-13
      274.100   3.78615e-13
      274.200   3.71226e-13
      274.300   3.63978e-13
      274.400   3.56572e-13
      274.500   3.48650e-13
      274.600   3.40763e-13
      274.700   3.33054e-13
      274.800   3.25511e-13
      274.900   3.18134e-13
      275.000   3.10922e-13
      275.100   3.03870e-13
      275.200   2.96974e-13
      275.300   2.90230e-13
      275.400   2.83636e-13
      275.500   2.77190e-13
      275.600   2.70882e-13
      275.700   2.64717e-13
      275.800   2.58691e-13
      275.900   2.52796e-13
      276.000   2.47032e-13
      276.100   2.41395e-13
      276.200   2.35885e-13
      276.300   2.30495e-13
      276.400   2.25226e-13
      276.500   2.20073e-13
      276.600   2.15036e-13
      276.700   2.10111e-13
      276.800   2.05296e-13
      276.900   2.00588e-13
      277.000   1.95984e-13
      277.100   1.91483e-13
      277.200   1.87082e-13
      277.300   1.82780e-13
      277.400   1.78574e-13
      277.500   1.74461e-13
      277.600   1.70442e-13
      277.700   1.66511e-13
      277.800   1.62667e-13
      277.900   1.58911e-13
      278.000   1.55239e-13
      278.100   1.51650e-13
      278.200   1.48140e-13
      278.300   1.44710e-13
      278.400   1.41358e-13
      278.500   1.38079e-13
      278.600   1.34874e-13
      278.700   1.31743e-13
      278.800   1.28681e-13
      278.900   1.25659e-13
      279.000   1.22697e-13
      279.100   1.19802e-13
      279.200   1.16973e-13
      279.300   1.14210e-13
      279.400   1.11509e-13
      279.500   1.08871e-13
      279.600   1.06293e-13
      279.700   1.03775e-13
      279.800   1.01314e-13
      279.900   9.89094e-14
      280.000   9.65607e-14
      280.100   9.42654e-14
      280.200   9.20241e-14
      280.300   8.98337e-14
      280.400   8.76935e-14
      280.500   8.56045e-14
      280.600   8.35632e-14
      280.700   8.15687e-14
      280.800   7.96208e-14
      280.900   7.77178e-14
      281.000   7.58589e-14
      281.100   7.40432e-14
      281.200   7.22694e-14
      281.300   7.05371e-14
      281.400   6.88456e-14
      281.500   6.71928e-14
      281.600   6.55786e-14
      281.700   6.40020e-14
      281.800   6.24632e-14
      281.900   6.09595e-14
      282.000   5.94908e-14
      282.100   5.80565e-14
      282.200   5.66571e-14
      282.300   5.52896e-14
      282.400   5.39540e-14
      282.500   5.26497e-14
      282.600   5.13765e-14
      282.700   5.01330e-14
      282.800   4.89182e-14
      282.900   4.77335e-14
      283.000   4.65759e-14
      283.100   4.54465e-14
      283.200   4.43435e-14
      283.300   4.32670e-14
      283.400   4.22157e-14
      283.500   4.11895e-14
      283.600   4.01872e-14
      283.700   3.92084e-14
      283.800   3.82532e-14
      283.900   3.73211e-14
      284.000   3.64107e-14
      284.100   3.55220e-14
      284.200   3.46544e-14
      284.300   3.38078e-14
      284.400   3.29812e-14
      284.500   3.21743e-14
      284.600   3.13867e-14
      284.700   3.06183e-14
      284.800   2.98680e-14
      284.900   2.91357e-14
      285.000   2.84208e-14
      285.100   2.77231e-14
      285.200   2.70424e-14
      285.300   2.63778e-14
      285.400   2.57291e-14
      285.500   2.50962e-14
      285.600   2.44788e-14
      285.700   2.38759e-14
      285.800   2.32880e-14
      285.900   2.27142e-14
      286.000   2.21546e-14
      286.100   2.16086e-14
      286.200   2.10755e-14
      286.300   2.05556e-14
      286.400   2.00483e-14
      286.500   1.95531e-14
      286.600   1.90701e-14
      286.700   1.85986e-14
      286.800   1.81387e-14
      286.900   1.76899e-14
      287.000   1.72521e-14
      287.100   1.68249e-14
      287.200   1.64082e-14
      287.300   1.60016e-14
      287.400   1.56048e-14
      287.500   1.52177e-14
      287.600   1.48402e-14
      287.700   1.44717e-14
      287.800   1.41124e-14
      287.900   1.37619e-14
      288.000   1.34201e-14
      288.100   1.30865e-14
      288.200   1.27615e-14
      288.300   1.24445e-14
      288.400   1.21352e-14
      288.500   1.18335e-14
      288.600   1.15391e-14
      288.700   1.12520e-14
      288.800   1.09719e-14
      288.900   1.06988e-14
      289.000   1.04324e-14
      289.100   1.01724e-14
      289.200   9.91898e-15
      289.300   9.67174e-15
      289.400   9.43050e-15
      289.500   9.19528e-15
      289.600   8.96581e-15
      289.700   8.74215e-15
      289.800   8.52385e-15
      289.900   8.31093e-15
      290.000   8.10332e-15
      290.100   7.90095e-15
      290.200   7.70371e-15
      290.300   7.51131e-15
      290.400   7.32368e-15
      290.500   7.14075e-15
      290.600   6.96225e-15
      290.700   6.78819e-15
      290.800   6.61851e-15
      290.900   6.45296e-15
      291.000   6.29144e-15
      291.100   6.13392e-15
      291.200   5.98036e-15
      291.300   5.83056e-15
      291.400   5.68453e-15
      291.500   5.54208e-15
      291.600   5.40313e-15
      291.700   5.26773e-15
      291.800   5.13564e-15
      291.900   5.00701e-15
      292.000   4.88155e-15
      292.100   4.75918e-15
      292.200   4.63990e-15
      292.300   4.52351e-15
      292.400   4.41002e-15
      292.500   4.29931e-15
      292.600   4.19137e-15
      292.700   4.08613e-15
      292.800   3.98352e-15
      292.900   3.88346e-15
      293.000   3.78587e-15
      293.100   3.69067e-15
      293.200   3.59785e-15
      293.300   3.50735e-15
      293.400   3.41915e-15
      293.500   3.33320e-15
      293.600   3.24939e-15
      293.700   3.16765e-15
      293.800   3.08795e-15
      293.900   3.01025e-15
      294.000   2.93446e-15
      294.100   2.86055e-15
      294.200   2.78850e-15
      294.300   2.71824e-15
      294.400   2.64968e-15
      294.500   2.58286e-15
      294.600   2.51768e-15
      294.700   2.45413e-15
      294.800   2.39216e-15
      294.900   2.33178e-15
      295.000   2.27293e-15
      295.100   2.21559e-15
      295.200   2.15964e-15
      295.300   2.10508e-15
      295.400   2.05190e-15
      295.500   2.00005e-15
      295.600   1.94946e-15
      295.700   1.90015e-15
      295.800   1.85206e-15
      295.900   1.80514e-15
      296.000   1.75940e-15
      296.100   1.71480e-15
      296.200   1.67132e-15
      296.300   1.62896e-15
      296.400   1.58771e-15
      296.500   1.54745e-15
      296.600   1.50820e-15
      296.700   1.46994e-15
      296.800   1.43263e-15
      296.900   1.39624e-15
      297.000   1.36076e-15
      297.100   1.32616e-15
      297.200   1.29243e-15
      297.300   1.25954e-15
      297.400   1.22746e-15
      297.500   1.19618e-15
      297.600   1.16571e-15
      297.700   1.13602e-15
      297.800   1.10707e-15
      297.900   1.07886e-15
      298.000   1.05135e-15
      298.100   1.02452e-15
      298.200   9.98361e-16
      298.300   9.72863e-16
      298.400   9.47992e-16
      298.500   9.23740e-16
      298.600   9.00091e-16
      298.700   8.77040e-16
      298.800   8.54556e-16
      298.900   8.32688e-16
      299.000   8.11372e-16
      299.100   7.90584e-16
      299.200   7.70309e-16
      299.300   7.50549e-16
      299.400   7.31277e-16
      299.500   7.12489e-16
      299.600   6.94176e-16
      299.700   6.76320e-16
      299.800   6.58899e-16
      299.900   6.41932e-16
      300.000   6.25387e-16
      300.100   6.09267e-16
      300.192   5.94802e-16
      300.285   5.80517e-16
      300.377   5.66721e-16
      300.470   5.53106e-16
      300.562   5.39951e-16
      300.654   5.27099e-16
      300.747   5.14409e-16
      300.839   5.02157e-16
      300.932   4.90054e-16
      301.025   4.78239e-16
      301.117   4.66830e-16
      301.210   4.55561e-16
      301.303   4.44562e-16
      301.395   4.33947e-16
      301.488   4.23448e-16
      301.581   4.13216e-16
      301.674   4.03214e-16
      301.766   3.93557e-16
      301.859   3.84022e-16
      301.952   3.74717e-16
      302.045   3.65626e-16
      302.138   3.56762e-16
      302.231   3.48113e-16
      302.324   3.39672e-16
      302.417   3.31429e-16
      302.510   3.23377e-16
      302.603   3.15527e-16
      302.696   3.07856e-16
      302.789   3.00367e-16
      302.882   2.93054e-16
      302.976   2.85845e-16
      303.069   2.78880e-16
      303.162   2.72082e-16
      303.255   2.65443e-16
      303.349   2.58895e-16
      303.442   2.52568e-16
      303.535   2.46400e-16
      303.629   2.40312e-16
      303.722   2.34434e-16
      303.816   2.28633e-16
      303.909   2.23033e-16
      304.003   2.17509e-16
      304.096   2.12173e-16
      304.190   2.06910e-16
      304.283   2.01829e-16
      304.377   1.96821e-16
      304.471   1.91929e-16
      304.564   1.87208e-16
      304.658   1.82554e-16
      304.752   1.78006e-16
      304.846   1.73574e-16
      304.939   1.69295e-16
      305.033   1.65072e-16
      305.127   1.60954e-16
      305.221   1.56936e-16
      305.315   1.53016e-16
      305.409   1.49191e-16
      305.503   1.45460e-16
      305.597   1.41820e-16
      305.691   1.38269e-16
      305.785   1.34803e-16
      305.879   1.31423e-16
      305.973   1.28127e-16
      306.067   1.24910e-16
      306.161   1.21774e-16
      306.255   1.18713e-16
      306.350   1.15696e-16
      306.444   1.12785e-16
      306.538   1.09945e-16
      306.633   1.07147e-16
      306.727   1.04446e-16
      306.821   1.01811e-16
      306.916   9.92147e-17
      307.010   9.67103e-17
      307.105   9.42422e-17
      307.199   9.18608e-17
      307.294   8.95129e-17
      307.388   8.72483e-17
      307.483   8.50170e-17
      307.577   8.28635e-17
      307.672   8.07414e-17
      307.767   7.86728e-17
      307.861   7.66774e-17
      307.956   7.47096e-17
      308.051   7.27916e-17
      308.146   7.09228e-17
      308.240   6.91198e-17
      308.335   6.73429e-17
      308.430   6.56098e-17
      308.525   6.39207e-17
      308.620   6.22750e-17
      308.715   6.06704e-17
      308.810   5.91063e-17
      308.905   5.75817e-17
      309.000   5.60959e-17
      309.095   5.46475e-17
      309.190   5.32363e-17
      309.285   5.18602e-17
      309.380   5.05190e-17
      309.476   4.91988e-17
      309.571   4.79253e-17
      309.666   4.66836e-17
      309.761   4.54741e-17
      309.857   4.42831e-17
      309.952   4.31344e-17
      310.047   4.20155e-17
      310.143   4.09133e-17
      310.238   3.98508e-17
      310.334   3.88045e-17
      310.429   3.77952e-17
      310.525   3.68021e-17
      310.620   3.58445e-17
      310.716   3.49014e-17
      310.811   3.39925e-17
      310.907   3.30979e-17
      311.003   3.22263e-17
      311.098   3.13857e-17
      311.194   3.05582e-17
      311.290   2.97523e-17
      311.386   2.89675e-17
      311.481   2.82107e-17
      311.577   2.74661e-17
      311.673   2.67404e-17
      311.769   2.60336e-17
      311.865   2.53457e-17
      311.961   2.46801e-17
      312.057   2.40518e-17
      312.153   2.34459e-17
      312.249   2.28550e-17
      312.345   2.22788e-17
      312.441   2.17167e-17
      312.537   2.11688e-17
      312.633   2.06347e-17
      312.730   2.01081e-17
      312.826   1.96004e-17
      312.922   1.91053e-17
      313.018   1.86226e-17
      313.115   1.81470e-17
      313.211   1.76880e-17
      313.307   1.72406e-17
      313.404   1.68000e-17
      313.500   1.63747e-17
      313.597   1.59560e-17
      313.693   1.55522e-17
      313.790   1.51542e-17
      313.886   1.47703e-17
      313.983   1.43920e-17
      314.079   1.40271e-17
      314.176   1.36679e-17
      314.273   1.33176e-17
      314.369   1.29799e-17
      314.466   1.26472e-17
      314.563   1.23229e-17
      314.660   1.20069e-17
      314.756   1.17020e-17
      314.853   1.14017e-17
      314.950   1.11091e-17
      315.047   1.08240e-17
      315.144   1.05460e-17
      315.241   1.02752e-17
      315.338   1.00113e-17
      315.435   9.75404e-18
      315.532   9.50341e-18
      315.629   9.25919e-18
      315.726   9.02119e-18
      315.823   8.78909e-18
      315.921   8.56081e-18
      316.018   8.34059e-18
      316.115   8.12603e-18
      316.212   7.91687e-18
      316.310   7.71105e-18
      316.407   7.51256e-18
      316.504   7.31906e-18
      316.602   7.12865e-18
      316.699   6.94506e-18
      316.796   6.76619e-18
      316.894   6.59010e-18
      316.991   6.42121e-18
      317.089   6.26047e-18
      317.187   6.10656e-18
      317.284   5.95793e-18
      317.382   5.81141e-18
      317.479   5.66987e-18
      317.577   5.53041e-18
      317.675   5.39440e-18
      317.773   5.26167e-18
      317.870   5.13354e-18
      317.968   5.00715e-18
      318.066   4.88390e-18
      318.164   4.76366e-18
      318.262   4.64639e-18
      318.360   4.53196e-18
      318.458   4.42039e-18
      318.556   4.31159e-18
      318.654   4.20541e-18
      318.752   4.10183e-18
      318.850   4.00081e-18
      318.948   3.90224e-18
      319.046   3.80609e-18
      319.144   3.71228e-18
      319.242   3.62081e-18
      319.341   3.53067e-18
      319.439   3.44364e-18
      319.537   3.35877e-18
      319.635   3.27597e-18
      319.734   3.19439e-18
      319.832   3.11563e-18
      319.930   3.03878e-18
      320.029   2.96308e-18
      320.127   2.89000e-18
      320.226   2.81800e-18
      320.324   2.74845e-18
      320.423   2.67991e-18
      320.522   2.61314e-18
      320.620   2.54866e-18
      320.719   2.48511e-18
      320.818   2.42315e-18
      320.916   2.36332e-18
      321.015   2.30436e-18
      321.114   2.24687e-18
      321.213   2.19081e-18
      321.311   2.13670e-18
      321.410   2.08340e-18
      321.509   2.03139e-18
      321.608   1.98070e-18
      321.707   1.93125e-18
      321.806   1.88302e-18
      321.905   1.83601e-18
      322.004   1.79015e-18
      322.103   1.74544e-18
      322.202   1.70183e-18
      322.301   1.65932e-18
      322.401   1.61745e-18
      322.500   1.57703e-18
      322.599   1.53763e-18
      322.698   1.49920e-18
      322.798   1.46134e-18
      322.897   1.42479e-18
      322.996   1.38917e-18
      323.096   1.35406e-18
      323.195   1.32018e-18
      323.294   1.28714e-18
      323.394   1.25461e-18
      323.493   1.22320e-18
      323.593   1.19227e-18
      323.692   1.16242e-18
      323.792   1.13301e-18
      323.892   1.10435e-18
      323.991   1.07666e-18
      324.091   1.04942e-18
      324.191   1.02284e-18
      324.291   9.96939e-19
      324.390   9.71948e-19
      324.490   9.47312e-19
      324.590   9.23313e-19
      324.690   8.99916e-19
      324.790   8.77100e-19
      324.890   8.54865e-19
      324.990   8.33176e-19
      325.090   8.12029e-19
      325.190   7.91425e-19
      325.290   7.71345e-19
      325.390   7.51747e-19
      325.490   7.32660e-19
      325.590   7.14054e-19
      325.690   6.95901e-19
      325.790   6.78211e-19
      325.891   6.60798e-19
      325.991   6.43992e-19
      326.091   6.27602e-19
      326.192   6.11472e-19
      326.292   5.95904e-19
      326.392   5.80732e-19
      326.493   5.65792e-19
      326.593   5.51371e-19
      326.694   5.37186e-19
      326.794   5.23488e-19
      326.895   5.10003e-19
      326.995   4.96986e-19
      327.096   4.84179e-19
      327.197   4.71694e-19
      327.297   4.59644e-19
      327.398   4.47783e-19
      327.499   4.36225e-19
      327.599   4.25067e-19
      327.700   4.14082e-19
      327.801   4.03379e-19
      327.902   3.92955e-19
      328.003   3.82789e-19
      328.104   3.72883e-19
      328.205   3.63230e-19
      328.306   3.53824e-19
      328.407   3.44659e-19
      328.508   3.35723e-19
      328.609   3.27017e-19
      328.710   3.18536e-19
      328.811   3.10269e-19
      328.912   3.02215e-19
      329.013   2.94364e-19
      329.115   2.86643e-19
      329.216   2.79191e-19
      329.317   2.71929e-19
      329.419   2.64788e-19
      329.520   2.57894e-19
      329.621   2.51175e-19
      329.723   2.44565e-19
      329.824   2.38195e-19
      329.926   2.31923e-19
      330.027   2.25871e-19
      330.129   2.19917e-19
      330.230   2.14176e-19
      330.332   2.08525e-19
      330.434   2.03021e-19
      330.535   1.97711e-19
      330.637   1.92487e-19
      330.739   1.87400e-19
      330.840   1.82492e-19
      330.942   1.77662e-19
      331.044   1.72959e-19
      331.146   1.68379e-19
      331.248   1.63916e-19
      331.350   1.59572e-19
      331.452   1.55344e-19
      331.554   1.51322e-19
      331.656   1.47552e-19
      331.758   1.43876e-19
      331.860   1.40287e-19
      331.962   1.36786e-19
      332.064   1.33370e-19
      332.166   1.30040e-19
      332.268   1.26789e-19
      332.371   1.23589e-19
      332.473   1.20496e-19
      332.575   1.17477e-19
      332.677   1.14535e-19
      332.780   1.11637e-19
      332.882   1.08837e-19
      332.985   1.06081e-19
      333.087   1.03416e-19
      333.190   1.00793e-19
      333.292   9.82246e-20
      333.395   9.56046e-20
      333.497   9.30434e-20
      333.600   9.05252e-20
      333.702   8.80970e-20
      333.805   8.57116e-20
      333.908   8.33865e-20
      334.011   8.11252e-20
      334.113   7.89445e-20
      334.216   7.68002e-20
      334.319   7.47138e-20
      334.422   7.26823e-20
      334.525   7.07052e-20
      334.628   6.87805e-20
      334.731   6.69084e-20
      334.834   6.50857e-20
      334.937   6.33111e-20
      335.040   6.15834e-20
      335.143   5.99033e-20
      335.246   5.82674e-20
      335.349   5.66755e-20
      335.452   5.51263e-20
      335.555   5.36188e-20
      335.659   5.21372e-20
      335.762   5.07093e-20
      335.865   4.93205e-20
      335.969   4.79556e-20
      336.072   4.66396e-20
      336.175   4.53603e-20
      336.279   4.41033e-20
      336.382   4.28919e-20
      336.486   4.17014e-20
      336.589   4.05543e-20
      336.693   3.94284e-20
      336.796   3.83433e-20
      336.900   3.72770e-20
      337.004   3.62394e-20
      337.107   3.52408e-20
      337.211   3.42591e-20
      337.315   3.33051e-20
      337.419   3.23765e-20
      337.523   3.14732e-20
      337.626   3.06033e-20
      337.730   2.97491e-20
      337.834   2.89181e-20
      337.938   2.81101e-20
      338.042   2.73256e-20
      338.146   2.65684e-20
      338.250   2.58326e-20
      338.354   2.51167e-20
      338.458   2.44200e-20
      338.562   2.37424e-20
      338.667   2.30774e-20
      338.771   2.24364e-20
      338.875   2.18130e-20
      338.979   2.12065e-20
      339.084   2.06115e-20
      339.188   2.00381e-20
      339.292   1.94805e-20
      339.397   1.89328e-20
      339.501   1.84056e-20
      339.606   1.78875e-20
      339.710   1.73888e-20
      339.815   1.68991e-20
      339.919   1.64276e-20
      340.024   1.59645e-20
      340.128   1.55189e-20
      340.233   1.50810e-20
      340.338   1.46556e-20
      340.442   1.42457e-20
      340.547   1.38434e-20
      340.652   1.34523e-20
      340.757   1.30721e-20
      340.862   1.27024e-20
      340.966   1.23466e-20
      341.071   1.19972e-20
      341.176   1.16576e-20
      341.281   1.13275e-20
      341.386   1.10067e-20
      341.491   1.06947e-20
      341.596   1.03916e-20
      341.702   1.00942e-20
      341.807   9.80781e-21
      341.912   9.52949e-21
      342.017   9.25893e-21
      342.122   8.99591e-21
      342.228   8.73810e-21
      342.333   8.48977e-21
      342.438   8.24842e-21
      342.544   8.01175e-21
      342.649   7.78382e-21
      342.754   7.56248e-21
      342.860   7.34518e-21
      342.965   7.13592e-21
      343.071   6.93096e-21
      343.176   6.73352e-21
      343.282   6.53980e-21
      343.388   6.35170e-21
      343.493   6.17127e-21
      343.599   5.99992e-21
      343.705   5.83388e-21
      343.810   5.67377e-21
      343.916   5.51668e-21
      344.022   5.36388e-21
      344.128   5.21528e-21
      344.234   5.07067e-21
      344.340   4.93012e-21
      344.446   4.79336e-21
      344.552   4.66038e-21
      344.658   4.53110e-21
      344.764   4.40542e-21
      344.870   4.28309e-21
      344.976   4.16422e-21
      345.082   4.04856e-21
      345.188   3.93616e-21
      345.294   3.82676e-21
      345.401   3.71944e-21
      345.507   3.61607e-21
      345.613   3.51556e-21
      345.719   3.41781e-21
      345.826   3.32189e-21
      345.932   3.22947e-21
      346.039   3.13880e-21
      346.145   3.05145e-21
      346.252   2.96576e-21
      346.358   2.88319e-21
      346.465   2.80222e-21
      346.571   2.72419e-21
      346.678   2.64760e-21
      346.785   2.57315e-21
      346.891   2.50148e-21
      346.998   2.43116e-21
      347.105   2.36280e-21
      347.212   2.29633e-21
      347.319   2.23171e-21
      347.425   2.16946e-21
      347.532   2.10840e-21
      347.639   2.04907e-21
      347.746   1.99138e-21
      347.853   1.93528e-21
      347.960   1.88079e-21
      348.067   1.82784e-21
      348.174   1.77636e-21
      348.281   1.72632e-21
      348.389   1.67723e-21
      348.496   1.62995e-21
      348.603   1.58405e-21
      348.710   1.53940e-21
      348.818   1.49561e-21
      348.925   1.45343e-21
      349.032   1.41245e-21
      349.140   1.37205e-21
      349.247   1.33313e-21
      349.355   1.29499e-21
      349.462   1.25825e-21
      349.570   1.22220e-21
      349.677   1.18752e-21
      349.785   1.15350e-21
      349.892   1.12076e-21
      350.000   1.08865e-21
      350.100   1.05974e-21
      350.193   1.03354e-21
      350.287   1.00770e-21
      350.380   9.82794e-22
      350.473   9.58489e-22
      350.567   9.34510e-22
      350.660   9.11395e-22
      350.754   8.88607e-22
      350.847   8.66630e-22
      350.941   8.44959e-22
      351.034   8.24052e-22
      351.128   8.03438e-22
      351.221   7.83564e-22
      351.315   7.63954e-22
      351.409   7.44832e-22
      351.502   7.26397e-22
      351.596   7.08224e-22
      351.690   6.90488e-22
      351.783   6.73399e-22
      351.877   6.56546e-22
      351.971   6.40107e-22
      352.065   6.24081e-22
      352.159   6.08454e-22
      352.252   5.93378e-22
      352.346   5.78512e-22
      352.440   5.64026e-22
      352.534   5.49908e-22
      352.628   5.36126e-22
      352.722   5.22690e-22
      352.816   5.09595e-22
      352.910   4.96831e-22
      353.004   4.84385e-22
      353.098   4.72240e-22
      353.192   4.60401e-22
      353.287   4.48737e-22
      353.381   4.37481e-22
      353.475   4.26518e-22
      353.569   4.15816e-22
      353.663   4.05392e-22
      353.758   3.95120e-22
      353.852   3.85210e-22
      353.946   3.75545e-22
      354.041   3.66023e-22
      354.135   3.56839e-22
      354.229   3.47880e-22
      354.324   3.39057e-22
      354.418   3.30545e-22
      354.513   3.22157e-22
      354.607   3.14074e-22
      354.702   3.06054e-22
      354.796   2.98130e-22
      354.891   2.90310e-22
      354.985   2.82776e-22
      355.080   2.75359e-22
      355.175   2.68130e-22
      355.269   2.61168e-22
      355.364   2.54311e-22
      355.459   2.47636e-22
      355.553   2.41200e-22
      355.648   2.34867e-22
      355.743   2.28701e-22
      355.838   2.22687e-22
      355.933   2.16839e-22
      356.027   2.11200e-22
      356.122   2.05646e-22
      356.217   2.00239e-22
      356.312   1.94978e-22
      356.407   1.89848e-22
      356.502   1.84855e-22
      356.597   1.79990e-22
      356.692   1.75254e-22
      356.787   1.70642e-22
      356.882   1.66147e-22
      356.977   1.61774e-22
      357.073   1.57470e-22
      357.168   1.53319e-22
      357.263   1.49280e-22
      357.358   1.45345e-22
      357.453   1.41515e-22
      357.549   1.37745e-22
      357.644   1.34113e-22
      357.739   1.30577e-22
      357.835   1.27094e-22
      357.930   1.23740e-22
      358.025   1.20474e-22
      358.121   1.17261e-22
      358.216   1.14164e-22
      358.312   1.11116e-22
      358.407   1.08181e-22
      358.503   1.05293e-22
      358.598   1.02511e-22
      358.694   9.97722e-23
      358.790   9.71051e-23
      358.885   9.45358e-23
      358.981   9.20081e-23
      359.076   8.95741e-23
      359.172   8.71790e-23
      359.268   8.48446e-23
      359.364   8.25732e-23
      359.459   8.03871e-23
      359.555   7.82340e-23
      359.651   7.61380e-23
      359.747   7.40980e-23
      359.843   7.21118e-23
      359.939   7.01781e-23
      360.035   6.82965e-23
      360.131   6.64653e-23
      360.227   6.46804e-23
      360.323   6.29446e-23
      360.419   6.12551e-23
      360.515   5.96104e-23
      360.611   5.80084e-23
      360.707   5.64479e-23
      360.803   5.49317e-23
      360.899   5.34537e-23
      360.995   5.20164e-23
      361.092   5.06022e-23
      361.188   4.92396e-23
      361.284   4.79136e-23
      361.380   4.66232e-23
      361.477   4.53537e-23
      361.573   4.41308e-23
      361.669   4.29410e-23
      361.766   4.17703e-23
      361.862   4.06435e-23
      361.959   3.95353e-23
      362.055   3.84666e-23
      362.152   3.74173e-23
      362.248   3.64062e-23
      362.345   3.54112e-23
      362.441   3.44540e-23
      362.538   3.35125e-23
      362.635   3.25964e-23
      362.731   3.17135e-23
      362.828   3.08456e-23
      362.925   3.00013e-23
      363.021   2.91880e-23
      363.118   2.83888e-23
      363.215   2.76105e-23
      363.312   2.68533e-23
      363.409   2.61170e-23
      363.505   2.54077e-23
      363.602   2.47100e-23
      363.699   2.40316e-23
      363.796   2.33714e-23
      363.893   2.27290e-23
      363.990   2.21041e-23
      364.087   2.14962e-23
      364.184   2.09047e-23
      364.281   2.03290e-23
      364.378   1.97693e-23
      364.475   1.92246e-23
      364.573   1.86892e-23
      364.670   1.81738e-23
      364.767   1.76724e-23
      364.864   1.71846e-23
      364.961   1.67101e-23
      365.059   1.62438e-23
      365.156   1.57950e-23
      365.253   1.53583e-23
      365.351   1.49291e-23
      365.448   1.45159e-23
      365.545   1.41141e-23
      365.643   1.37191e-23
      365.740   1.33388e-23
      365.838   1.29653e-23
      365.935   1.26058e-23
      366.033   1.22525e-23
      366.130   1.19123e-23
      366.228   1.15782e-23
      366.326   1.12533e-23
      366.423   1.09405e-23
      366.521   1.06332e-23
      366.618   1.03373e-23
      366.716   1.00466e-23
      366.814   9.76408e-24
      366.912   9.48942e-24
      367.010   9.22212e-24
      367.107   8.96498e-24
      367.205   8.71224e-24
      367.303   8.46658e-24
      367.401   8.22778e-24
      367.499   7.99550e-24
      367.597   7.76973e-24
      367.695   7.55028e-24
      367.793   7.33695e-24
      367.891   7.12954e-24
      367.989   6.92773e-24
      368.087   6.73168e-24
      368.185   6.54109e-24
      368.283   6.35574e-24
      368.381   6.17550e-24
      368.480   5.99863e-24
      368.578   5.82840e-24
      368.676   5.66300e-24
      368.774   5.50220e-24
      368.873   5.34430e-24
      368.971   5.19238e-24
      369.069   5.04468e-24
      369.168   4.89961e-24
      369.266   4.76012e-24
      369.364   4.62452e-24
      369.463   4.49139e-24
      369.561   4.36335e-24
      369.660   4.23762e-24
      369.758   4.11667e-24
      369.857   3.99797e-24
      369.955   3.88378e-24
      370.054   3.77162e-24
      370.153   3.66267e-24
      370.251   3.55789e-24
      370.350   3.45504e-24
      370.449   3.35514e-24
      370.547   3.25901e-24
      370.646   3.16459e-24
      370.745   3.07296e-24
      370.844   2.98390e-24
      370.943   2.89737e-24
      371.041   2.81417e-24
      371.140   2.73247e-24
      371.239   2.65310e-24
      371.338   2.57603e-24
      371.437   2.50117e-24
      371.536   2.42846e-24
      371.635   2.35777e-24
      371.734   2.28915e-24
      371.833   2.22250e-24
      371.932   2.15775e-24
      372.032   2.09422e-24
      372.131   2.03312e-24
      372.230   1.97382e-24
      372.329   1.91621e-24
      372.428   1.86024e-24
      372.528   1.80535e-24
      372.627   1.75260e-24
      372.726   1.70136e-24
      372.826   1.65109e-24
      372.925   1.60275e-24
      373.024   1.55581e-24
      373.124   1.50975e-24
      373.223   1.46552e-24
      373.323   1.42213e-24
      373.422   1.38040e-24
      373.522   1.33947e-24
      373.621   1.30016e-24
      373.721   1.26158e-24
      373.820   1.22451e-24
      373.920   1.18815e-24
      374.020   1.15283e-24
      374.119   1.11892e-24
      374.219   1.08563e-24
      374.319   1.05335e-24
      374.419   1.02202e-24
      374.518   9.91883e-25
      374.618   9.62339e-25
      374.718   9.33639e-25
      374.818   9.05818e-25
      374.918   8.78818e-25
      375.018   8.52590e-25
      375.118   8.27148e-25
      375.218   8.02438e-25
      375.318   7.78468e-25
      375.418   7.55189e-25
      375.518   7.32620e-25
      375.618   7.10714e-25
      375.718   6.89440e-25
      375.818   6.68802e-25
      375.918   6.48772e-25
      376.019   6.29150e-25
      376.119   6.10290e-25
      376.219   5.91994e-25
      376.319   5.74231e-25
      376.420   5.56835e-25
      376.520   5.40120e-25
      376.620   5.23906e-25
      376.721   5.08009e-25
      376.821   4.92744e-25
      376.922   4.77784e-25
      377.022   4.63411e-25
      377.122   4.49473e-25
      377.223   4.35813e-25
      377.323   4.22696e-25
      377.424   4.09837e-25
      377.525   3.97369e-25
      377.625   3.85393e-25
      377.726   3.73660e-25
      377.827   3.62281e-25
      377.927   3.51348e-25
      378.028   3.40644e-25
      378.129   3.30257e-25
      378.230   3.20180e-25
      378.330   3.10505e-25
      378.431   3.01028e-25
      378.532   2.91843e-25
      378.633   2.82927e-25
      378.734   2.74281e-25
      378.835   2.65899e-25
      378.936   2.57772e-25
      379.037   2.49890e-25
      379.138   2.42244e-25
      379.239   2.34829e-25
      379.340   2.27645e-25
      379.441   2.20675e-25
      379.542   2.13914e-25
      379.643   2.07362e-25
      379.745   2.00945e-25
      379.846   1.94783e-25
      379.947   1.88808e-25
      380.048   1.83019e-25
      380.150   1.77347e-25
      380.251   1.71903e-25
      380.352   1.66626e-25
      380.454   1.61461e-25
      380.555   1.56500e-25
      380.656   1.51690e-25
      380.758   1.46981e-25
      380.859   1.42462e-25
      380.961   1.38040e-25
      381.062   1.33794e-25
      381.164   1.29637e-25
      381.266   1.25608e-25
      381.367   1.21741e-25
      381.469   1.17956e-25
      381.570   1.14323e-25
      381.672   1.10767e-25
      381.774   1.07320e-25
      381.876   1.03979e-25
      381.977   1.00774e-25
      382.079   9.76360e-26
      382.181   9.45944e-26
      382.283   9.16492e-26
      382.385   8.87931e-26
      382.487   8.60238e-26
      382.589   8.33427e-26
      382.691   8.07441e-26
      382.793   7.82261e-26
      382.895   7.57856e-26
      382.997   7.34203e-26
      383.099   7.11286e-26
      383.201   6.89087e-26
      383.303   6.67566e-26
      383.405   6.46714e-26
      383.507   6.26509e-26
      383.610   6.06751e-26
      383.712   5.87783e-26
      383.814   5.69419e-26
      383.916   5.51621e-26
      384.019   5.34204e-26
      384.121   5.17493e-26
      384.223   5.01305e-26
      384.326   4.85474e-26
      384.428   4.70270e-26
      384.531   4.55395e-26
      384.633   4.41127e-26
      384.736   4.27167e-26
      384.838   4.13773e-26
      384.941   4.00675e-26
      385.043   3.88107e-26
      385.146   3.75819e-26
      385.249   3.63918e-26
      385.351   3.52499e-26
      385.454   3.41329e-26
      385.557   3.30516e-26
      385.660   3.20039e-26
      385.762   3.09993e-26
      385.865   3.00166e-26
      385.968   2.90645e-26
      386.071   2.81424e-26
      386.174   2.72496e-26
      386.277   2.63853e-26
      386.380   2.55481e-26
      386.483   2.47372e-26
      386.586   2.39523e-26
      386.689   2.31919e-26
      386.792   2.24555e-26
      386.895   2.17424e-26
      386.998   2.10518e-26
      387.101   2.03833e-26
      387.204   1.97353e-26
      387.308   1.91022e-26
      387.411   1.84950e-26
      387.514   1.79071e-26
      387.617   1.73379e-26
      387.721   1.67815e-26
      387.824   1.62479e-26
      387.927   1.57307e-26
      388.031   1.52256e-26
      388.134   1.47412e-26
      388.238   1.42679e-26
      388.341   1.38137e-26
      388.445   1.33698e-26
      388.548   1.29440e-26
      388.652   1.25280e-26
      388.755   1.21292e-26
      388.859   1.17392e-26
      388.962   1.13653e-26
      389.066   1.09997e-26
      389.170   1.06461e-26
      389.274   1.03036e-26
      389.377   9.97516e-27
      389.481   9.65401e-27
      389.585   9.34340e-27
      389.689   9.04265e-27
      389.793   8.75142e-27
      389.897   8.46976e-27
      390.000   8.19950e-27
      390.104   7.93551e-27
      390.208   7.67981e-27
      390.312   7.43241e-27
      390.416   7.19294e-27
      390.520   6.96099e-27
      390.625   6.73430e-27
      390.729   6.51724e-27
      390.833   6.30698e-27
      390.937   6.10351e-27
      391.041   5.90665e-27
      391.145   5.71611e-27
      391.250   5.52984e-27
      391.354   5.35142e-27
      391.458   5.17870e-27
      391.563   5.00989e-27
      391.667   4.84814e-27
      391.771   4.69160e-27
      391.876   4.53861e-27
      391.980   4.39195e-27
      392.085   4.24872e-27
      392.189   4.11143e-27
      392.294   3.97727e-27
      392.398   3.84872e-27
      392.503   3.72312e-27
      392.607   3.60273e-27
      392.712   3.48515e-27
      392.817   3.37130e-27
      392.921   3.26228e-27
      393.026   3.15571e-27
      393.131   3.05266e-27
      393.236   2.95286e-27
      393.340   2.85729e-27
      393.445   2.76393e-27
      393.550   2.67359e-27
      393.655   2.58616e-27
      393.760   2.50161e-27
      393.865   2.41978e-27
      393.970   2.34068e-27
      394.075   2.26407e-27
      394.180   2.19001e-27
      394.285   2.11833e-27
      394.390   2.04902e-27
      394.495   1.98191e-27
      394.600   1.91702e-27
      394.706   1.85366e-27
      394.811   1.79296e-27
      394.916   1.73418e-27
      395.021   1.67735e-27
      395.126   1.62241e-27
      395.232   1.56871e-27
      395.337   1.51727e-27
      395.443   1.46705e-27
      395.548   1.41894e-27
      395.653   1.37240e-27
      395.759   1.32693e-27
      395.864   1.28340e-27
      395.970   1.24088e-27
      396.075   1.20014e-27
      396.181   1.16035e-27
      396.286   1.12222e-27
      396.392   1.08504e-27
      396.498   1.04906e-27
      396.603   1.01456e-27
      396.709   9.80906e-28
      396.815   9.48348e-28
      396.921   9.16854e-28
      397.026   8.86696e-28
      397.132   8.57235e-28
      397.238   8.28768e-28
      397.344   8.01207e-28
      397.450   7.74606e-28
      397.556   7.48839e-28
      397.662   7.23934e-28
      397.768   6.99866e-28
      397.874   6.76578e-28
      397.980   6.54065e-28
      398.086   6.32286e-28
      398.192   6.11243e-28
      398.298   5.90884e-28
      398.404   5.71200e-28
      398.510   5.52166e-28
      398.617   5.33605e-28
      398.723   5.15818e-28
      398.829   4.98610e-28
      398.935   4.81977e-28
      399.042   4.65754e-28
      399.148   4.50204e-28
      399.255   4.35046e-28
      399.361   4.20522e-28
      399.467   4.06466e-28
      399.574   3.92768e-28
      399.680   3.79639e-28
      399.787   3.66830e-28
      399.893       0.00000
      400.000       0.00000
