Filter C-poly
observation_date 22-Sept-2023 22:45:45
wavelength effective area
      1.00000   2.78569e-10
      1.10000   7.95339e-10
      1.20000   2.06790e-09
      1.30000   4.94564e-09
      1.40000   1.12243e-08
      1.50000   2.39514e-08
      1.60000   4.84998e-08
      1.70000   9.41837e-08
      1.80000   1.75403e-07
      1.90000   3.15369e-07
      2.00000   5.48488e-07
      2.10000   9.26836e-07
      2.20000   1.52900e-06
      2.30000   2.45918e-06
      2.40000   3.86299e-06
      2.50000   5.90728e-06
      2.60000   9.02101e-06
      2.70000   1.34590e-05
      2.80000   1.96971e-05
      2.90000   2.85320e-05
      3.00000   4.06868e-05
      3.10000   5.72769e-05
      3.20000   7.97560e-05
      3.30000   0.000109934
      3.40000   0.000149960
      3.50000   0.000202592
      3.60000   0.000272455
      3.70000   0.000362538
      3.80000   0.000480441
      3.90000   0.000633195
      4.00000   0.000829375
      4.10000    0.00108137
      4.20000    0.00140499
      4.30000    0.00182040
      4.40000    0.00235250
      4.50000    0.00303199
      4.60000    0.00389485
      4.70000    0.00500348
      4.80000    0.00642160
      4.90000    0.00813607
      5.00000     0.0105807
      5.10000     0.0135665
      5.20000     0.0174482
      5.30000     0.0222515
      5.40000     0.0283343
      5.50000     0.0361455
      5.60000     0.0446980
      5.70000     0.0582361
      5.80000     0.0684385
      5.90000      0.104751
      6.00000      0.141164
      6.10000      0.180881
      6.20000      0.222697
      6.30000      0.262830
      6.40000      0.297568
      6.50000      0.323515
      6.60000      0.335831
      6.70000      0.347337
      6.80000      0.348832
      6.90000      0.459038
      7.00000      0.500756
      7.10000      0.531273
      7.20000      0.556038
      7.30000      0.576712
      7.40000      0.593072
      7.50000      0.606608
      7.60000      0.617418
      7.70000      0.623839
      7.80000      0.624605
      7.90000      0.626162
      8.00000      0.908707
      8.10000      0.998133
      8.20000       1.01789
      8.30000       1.03316
      8.40000       1.04449
      8.50000       1.05426
      8.60000       1.06213
      8.70000       1.06878
      8.80000       1.07387
      8.90000       1.07792
      9.00000       1.08084
      9.10000       1.08267
      9.20000       1.08362
      9.30000       1.08358
      9.40000       1.08271
      9.50000       1.08107
      9.60000       1.07859
      9.70000       1.07538
      9.80000       1.07160
      9.90000       1.06727
      10.0000       1.06245
      10.1000       1.05716
      10.2000       1.05141
      10.3000       1.04516
      10.4000       1.03841
      10.5000       1.03121
      10.6000       1.02359
      10.7000       1.01557
      10.8000       1.00716
      10.9000      0.998391
      11.0000      0.989275
      11.1000      0.979847
      11.2000      0.970110
      11.3000      0.960102
      11.4000      0.949814
      11.5000      0.939238
      11.6000      0.928395
      11.7000      0.917204
      11.8000      0.905766
      11.9000      0.893941
      12.0000      0.880801
      12.1000      0.870762
      12.2000      0.875921
      12.3000      0.871862
      12.4000      0.861312
      12.5000      0.850117
      12.6000      0.838614
      12.7000      0.826935
      12.8000      0.815130
      12.9000      0.803211
      13.0000      0.791229
      13.1000      0.779214
      13.2000      0.767190
      13.3000      0.755174
      13.4000      0.743189
      13.5000      0.731367
      13.6000      0.719688
      13.7000      0.708058
      13.8000      0.696470
      13.9000      0.684955
      14.0000      0.673510
      14.1000      0.662113
      14.2000      0.650767
      14.3000      0.639468
      14.4000      0.628199
      14.5000      0.616975
      14.6000      0.605788
      14.7000      0.594644
      14.8000      0.583550
      14.9000      0.572510
      15.0000      0.561535
      15.1000      0.550636
      15.2000      0.539829
      15.3000      0.529109
      15.4000      0.518477
      15.5000      0.507939
      15.6000      0.497527
      15.7000      0.487222
      15.8000      0.477064
      15.9000      0.467036
      16.0000      0.457134
      16.1000      0.447366
      16.2000      0.437761
      16.3000      0.428279
      16.4000      0.418911
      16.5000      0.409654
      16.6000      0.400515
      16.7000      0.391500
      16.8000      0.382589
      16.9000      0.373782
      17.0000      0.365099
      17.1000      0.356538
      17.2000      0.348077
      17.3000      0.339728
      17.4000      0.331658
      17.5000      0.323851
      17.6000      0.316265
      17.7000      0.308941
      17.8000      0.302022
      17.9000      0.295212
      18.0000      0.288458
      18.1000      0.281806
      18.2000      0.275190
      18.3000      0.268598
      18.4000      0.262013
      18.5000      0.255453
      18.6000      0.248904
      18.7000      0.242341
      18.8000      0.235887
      18.9000      0.229520
      19.0000      0.223267
      19.1000      0.217140
      19.2000      0.211109
      19.3000      0.205219
      19.4000      0.199458
      19.5000      0.193795
      19.6000      0.188307
      19.7000      0.182921
      19.8000      0.177631
      19.9000      0.172501
      20.0000      0.167450
      20.1000      0.162504
      20.2000      0.157664
      20.3000      0.152893
      20.4000      0.148248
      20.5000      0.143677
      20.6000      0.139176
      20.7000      0.134797
      20.8000      0.130474
      20.9000      0.126243
      21.0000      0.122096
      21.1000      0.118022
      21.2000      0.114030
      21.3000      0.110088
      21.4000      0.106252
      21.5000      0.102461
      21.6000     0.0987110
      21.7000     0.0950363
      21.8000     0.0913968
      21.9000     0.0877461
      22.0000     0.0841138
      22.1000     0.0804954
      22.2000     0.0767590
      22.3000     0.0729239
      22.4000     0.0680254
      22.5000     0.0628137
      22.6000     0.0530996
      22.7000     0.0475061
      22.8000     0.0626479
      22.9000     0.0812725
      23.0000      0.102469
      23.1000      0.115619
      23.2000      0.121108
      23.3000      0.121332
      23.4000      0.118901
      23.5000      0.116354
      23.6000      0.113790
      23.7000      0.110976
      23.8000      0.108156
      23.9000      0.105367
      24.0000      0.102589
      24.1000     0.0998074
      24.2000     0.0970521
      24.3000     0.0943578
      24.4000     0.0916899
      24.5000     0.0890693
      24.6000     0.0864868
      24.7000     0.0839707
      24.8000     0.0814924
      24.9000     0.0790733
      25.0000     0.0766969
      25.1000     0.0743860
      25.2000     0.0721154
      25.3000     0.0699067
      25.4000     0.0677403
      25.5000     0.0656443
      25.6000     0.0635916
      25.7000     0.0616200
      25.8000     0.0596798
      25.9000     0.0578092
      26.0000     0.0559635
      26.1000     0.0541886
      26.2000     0.0524321
      26.3000     0.0507528
      26.4000     0.0490838
      26.5000     0.0474933
      26.6000     0.0459120
      26.7000     0.0444038
      26.8000     0.0429139
      26.9000     0.0414807
      27.0000     0.0400707
      27.1000     0.0387006
      27.2000     0.0373588
      27.3000     0.0361314
      27.4000     0.0350440
      27.5000     0.0339464
      27.6000     0.0328084
      27.7000     0.0316790
      27.8000     0.0305894
      27.9000     0.0295062
      28.0000     0.0284773
      28.1000     0.0274639
      28.2000     0.0264898
      28.3000     0.0255436
      28.4000     0.0246215
      28.5000     0.0237398
      28.6000     0.0228672
      28.7000     0.0220501
      28.8000     0.0212379
      28.9000     0.0204674
      29.0000     0.0197121
      29.1000     0.0189823
      29.2000     0.0182806
      29.3000     0.0175891
      29.4000     0.0169386
      29.5000     0.0162922
      29.6000     0.0156815
      29.7000     0.0150831
      29.8000     0.0145047
      29.9000     0.0139519
      30.0000     0.0134039
      30.1000     0.0128936
      30.2000     0.0123866
      30.3000     0.0124583
      30.4000     0.0128585
      30.5000     0.0130667
      30.6000     0.0125717
      30.7000     0.0120799
      30.8000     0.0116165
      30.9000     0.0111637
      31.0000     0.0107233
      31.1000     0.0103072
      31.2000    0.00989376
      31.3000    0.00950687
      31.4000    0.00912761
      31.5000    0.00875953
      31.6000    0.00841224
      31.7000    0.00806721
      31.8000    0.00774469
      31.9000    0.00742936
      32.0000    0.00712215
      32.1000    0.00683450
      32.2000    0.00654875
      32.3000    0.00628034
      32.4000    0.00602052
      32.5000    0.00576547
      32.6000    0.00553663
      32.7000    0.00530945
      32.8000    0.00509285
      32.9000    0.00488644
      33.0000    0.00468140
      33.1000    0.00450053
      33.2000    0.00432407
      33.3000    0.00415199
      33.4000    0.00399118
      33.5000    0.00383147
      33.6000    0.00367996
      33.7000    0.00353478
      33.8000    0.00339052
      33.9000    0.00325732
      34.0000    0.00312637
      34.1000    0.00299848
      34.2000    0.00288000
      34.3000    0.00276223
      34.4000    0.00264947
      34.5000    0.00254289
      34.6000    0.00243698
      34.7000    0.00233723
      34.8000    0.00224067
      34.9000    0.00214470
      35.0000    0.00205694
      35.1000    0.00197052
      35.2000    0.00188545
      35.3000    0.00180775
      35.4000    0.00173053
      35.5000    0.00165581
      35.6000    0.00158653
      35.7000    0.00151768
      35.8000    0.00145209
      35.9000    0.00139045
      36.0000    0.00132920
      36.1000    0.00127168
      36.2000    0.00121695
      36.3000    0.00116257
      36.4000    0.00111213
      36.5000    0.00106363
      36.6000    0.00101544
      36.7000   0.000971228
      36.8000   0.000928352
      36.9000   0.000885752
      37.0000   0.000847008
      37.1000   0.000809189
      37.2000   0.000771611
      37.3000   0.000737658
      37.4000   0.000704373
      37.5000   0.000671305
      37.6000   0.000641543
      37.7000   0.000612318
      37.8000   0.000583283
      37.9000   0.000557185
      38.0000   0.000531587
      38.1000   0.000506155
      38.2000   0.000483251
      38.3000   0.000460875
      38.4000   0.000438644
      38.5000   0.000418532
      38.6000   0.000399023
      38.7000   0.000379642
      38.8000   0.000361968
      38.9000   0.000345001
      39.0000   0.000328145
      39.1000   0.000312600
      39.2000   0.000297881
      39.3000   0.000283258
      39.4000   0.000269574
      39.5000   0.000256837
      39.6000   0.000244186
      39.7000   0.000232127
      39.8000   0.000221137
      39.9000   0.000210220
      40.0000   0.000199586
      40.1000   0.000190127
      40.2000   0.000180731
      40.3000   0.000171399
      40.4000   0.000163226
      40.5000   0.000155160
      40.6000   0.000147148
      40.7000   0.000139916
      40.8000   0.000133008
      40.9000   0.000126147
      41.0000   0.000119741
      41.1000   0.000113842
      41.2000   0.000107984
      41.3000   0.000102308
      41.4000   9.72902e-05
      41.5000   9.23060e-05
      41.6000   8.73560e-05
      41.7000   8.30141e-05
      41.8000   7.87828e-05
      41.9000   7.45803e-05
      42.0000   7.07150e-05
      42.1000   6.71349e-05
      42.2000   6.35791e-05
      42.3000   6.01345e-05
      42.4000   5.71130e-05
      42.5000   5.41120e-05
      42.6000   5.11316e-05
      42.7000   4.85002e-05
      42.8000   4.59745e-05
      42.9000   4.34659e-05
      43.0000   4.11079e-05
      43.1000   3.89893e-05
      43.2000   3.68853e-05
      43.3000   3.47956e-05
      43.4000     0.0349799
      43.5000     0.0778939
      43.6000      0.133539
      43.7000      0.183326
      43.8000      0.205505
      43.9000      0.208918
      44.0000      0.205296
      44.1000      0.194986
      44.2000      0.192052
      44.3000      0.189763
      44.4000      0.187502
      44.5000      0.185273
      44.6000      0.183051
      44.7000      0.180834
      44.8000      0.178667
      44.9000      0.176511
      45.0000      0.174362
      45.1000      0.172231
      45.2000      0.170140
      45.3000      0.168054
      45.4000      0.165974
      45.5000      0.163932
      45.6000      0.161911
      45.7000      0.159896
      45.8000      0.157887
      45.9000      0.155930
      46.0000      0.153977
      46.1000      0.152030
      46.2000      0.150173
      46.3000      0.148468
      46.4000      0.146767
      46.5000      0.145070
      46.6000      0.143429
      46.7000      0.141817
      46.8000      0.140210
      46.9000      0.138606
      47.0000      0.137079
      47.1000      0.135562
      47.2000      0.134048
      47.3000      0.132545
      47.4000      0.131082
      47.5000      0.129623
      47.6000      0.128167
      47.7000      0.126728
      47.8000      0.125314
      47.9000      0.123904
      48.0000      0.122497
      48.1000      0.121113
      48.2000      0.119747
      48.3000      0.118385
      48.4000      0.117027
      48.5000      0.115695
      48.6000      0.114376
      48.7000      0.113060
      48.8000      0.111748
      48.9000      0.110467
      49.0000      0.109195
      49.1000      0.107927
      49.2000      0.106662
      49.3000      0.105430
      49.4000      0.104204
      49.5000      0.102982
      49.6000      0.101762
      49.7000      0.100577
      49.8000     0.0993957
      49.9000     0.0982175
      50.0000     0.0970438
      50.1000     0.0959074
      50.2000     0.0948321
      50.3000     0.0937657
      50.4000     0.0927099
      50.5000     0.0916635
      50.6000     0.0906273
      50.7000     0.0896025
      50.8000     0.0885859
      50.9000     0.0875807
      51.0000     0.0865940
      51.1000     0.0856200
      51.2000     0.0846549
      51.3000     0.0836993
      51.4000     0.0827545
      51.5000     0.0818169
      51.6000     0.0808875
      51.7000     0.0799668
      51.8000     0.0790474
      51.9000     0.0781360
      52.0000     0.0772331
      52.1000     0.0763390
      52.2000     0.0754537
      52.3000     0.0745759
      52.4000     0.0737069
      52.5000     0.0728466
      52.6000     0.0719934
      52.7000     0.0711469
      52.8000     0.0703079
      52.9000     0.0694771
      53.0000     0.0686547
      53.1000     0.0678401
      53.2000     0.0670348
      53.3000     0.0662379
      53.4000     0.0654481
      53.5000     0.0646654
      53.6000     0.0638898
      53.7000     0.0631215
      53.8000     0.0623624
      53.9000     0.0616107
      54.0000     0.0608672
      54.1000     0.0601324
      54.2000     0.0594034
      54.3000     0.0586815
      54.4000     0.0579669
      54.5000     0.0572593
      54.6000     0.0565599
      54.7000     0.0558677
      54.8000     0.0551831
      54.9000     0.0545055
      55.0000     0.0538348
      55.1000     0.0531700
      55.2000     0.0524877
      55.3000     0.0517910
      55.4000     0.0511015
      55.5000     0.0504198
      55.6000     0.0497456
      55.7000     0.0490794
      55.8000     0.0484203
      55.9000     0.0477678
      56.0000     0.0471299
      56.1000     0.0464880
      56.2000     0.0458433
      56.3000     0.0452059
      56.4000     0.0445760
      56.5000     0.0439526
      56.6000     0.0433362
      56.7000     0.0427278
      56.8000     0.0421261
      56.9000     0.0415334
      57.0000     0.0409470
      57.1000     0.0403666
      57.2000     0.0397921
      57.3000     0.0392243
      57.4000     0.0386630
      57.5000     0.0381090
      57.6000     0.0375613
      57.7000     0.0370202
      57.8000     0.0364866
      57.9000     0.0359602
      58.0000     0.0354399
      58.1000     0.0349248
      58.2000     0.0344166
      58.3000     0.0339146
      58.4000     0.0334187
      58.5000     0.0329287
      58.6000     0.0324455
      58.7000     0.0319679
      58.8000     0.0314966
      58.9000     0.0310308
      59.0000     0.0305707
      59.1000     0.0301162
      59.2000     0.0296677
      59.3000     0.0292249
      59.4000     0.0287881
      59.5000     0.0283568
      59.6000     0.0279313
      59.7000     0.0275105
      59.8000     0.0270954
      59.9000     0.0266853
      60.0000     0.0262809
      60.1000     0.0258815
      60.2000     0.0254877
      60.3000     0.0250992
      60.4000     0.0247158
      60.5000     0.0243378
      60.6000     0.0239642
      60.7000     0.0235946
      60.8000     0.0232297
      60.9000     0.0228697
      61.0000     0.0225144
      61.1000     0.0221643
      61.2000     0.0218187
      61.3000     0.0214783
      61.4000     0.0211420
      61.5000     0.0208105
      61.6000     0.0204828
      61.7000     0.0201594
      61.8000     0.0198414
      61.9000     0.0195285
      62.0000     0.0192200
      62.1000     0.0189157
      62.2000     0.0186159
      62.3000     0.0183200
      62.4000     0.0180285
      62.5000     0.0177407
      62.6000     0.0174568
      62.7000     0.0171764
      62.8000     0.0169014
      62.9000     0.0166302
      63.0000     0.0163630
      63.1000     0.0160997
      63.2000     0.0158399
      63.3000     0.0155836
      63.4000     0.0153304
      63.5000     0.0150815
      63.6000     0.0148359
      63.7000     0.0145937
      63.8000     0.0143552
      63.9000     0.0141203
      64.0000     0.0138890
      64.1000     0.0136607
      64.2000     0.0134364
      64.3000     0.0132150
      64.4000     0.0129967
      64.5000     0.0127813
      64.6000     0.0125690
      64.7000     0.0123599
      64.8000     0.0121537
      64.9000     0.0119507
      65.0000     0.0117506
      65.1000     0.0115538
      65.2000     0.0113601
      65.3000     0.0111689
      65.4000     0.0109807
      65.5000     0.0107952
      65.6000     0.0106122
      65.7000     0.0104319
      65.8000     0.0102546
      65.9000     0.0100803
      66.0000    0.00990850
      66.1000    0.00973953
      66.2000    0.00957316
      66.3000    0.00940920
      66.4000    0.00924779
      66.5000    0.00908861
      66.6000    0.00893184
      66.7000    0.00877755
      66.8000    0.00862561
      66.9000    0.00847922
      67.0000    0.00833787
      67.1000    0.00819928
      67.2000    0.00806295
      67.3000    0.00792851
      67.4000    0.00779618
      67.5000    0.00766571
      67.6000    0.00753711
      67.7000    0.00741046
      67.8000    0.00728534
      67.9000    0.00716184
      68.0000    0.00704100
      68.1000    0.00692270
      68.2000    0.00680621
      68.3000    0.00669140
      68.4000    0.00657848
      68.5000    0.00646740
      68.6000    0.00635779
      68.7000    0.00624989
      68.8000    0.00614357
      68.9000    0.00604039
      69.0000    0.00594745
      69.1000    0.00586373
      69.2000    0.00578260
      69.3000    0.00570375
      69.4000    0.00562793
      69.5000    0.00555050
      69.6000    0.00547054
      69.7000    0.00539373
      69.8000    0.00532080
      69.9000    0.00524890
      70.0000    0.00517769
      70.1000    0.00510598
      70.2000    0.00503779
      70.3000    0.00497316
      70.4000    0.00490876
      70.5000    0.00484587
      70.6000    0.00478447
      70.7000    0.00472394
      70.8000    0.00466397
      70.9000    0.00460258
      71.0000    0.00453994
      71.1000    0.00448015
      71.2000    0.00442336
      71.3000    0.00436309
      71.4000    0.00429841
      71.5000    0.00423886
      71.6000    0.00418672
      71.7000    0.00413411
      71.8000    0.00407981
      71.9000    0.00402738
      72.0000    0.00397890
      72.1000    0.00392946
      72.2000    0.00387258
      72.3000    0.00381662
      72.4000    0.00376764
      72.5000    0.00371928
      72.6000    0.00367144
      72.7000    0.00362431
      72.8000    0.00357772
      72.9000    0.00353170
      73.0000    0.00348742
      73.1000    0.00344420
      73.2000    0.00340148
      73.3000    0.00335935
      73.4000    0.00331811
      73.5000    0.00327800
      73.6000    0.00323843
      73.7000    0.00319933
      73.8000    0.00316061
      73.9000    0.00312234
      74.0000    0.00308474
      74.1000    0.00305060
      74.2000    0.00301779
      74.3000    0.00298232
      74.4000    0.00294489
      74.5000    0.00290853
      74.6000    0.00287397
      74.7000    0.00283977
      74.8000    0.00280594
      74.9000    0.00277250
      75.0000    0.00273904
      75.1000    0.00270584
      75.2000    0.00267306
      75.3000    0.00264064
      75.4000    0.00260884
      75.5000    0.00257810
      75.6000    0.00254771
      75.7000    0.00251761
      75.8000    0.00248794
      75.9000    0.00245900
      76.0000    0.00243046
      76.1000    0.00240226
      76.2000    0.00237436
      76.3000    0.00234680
      76.4000    0.00232001
      76.5000    0.00229358
      76.6000    0.00226739
      76.7000    0.00224143
      76.8000    0.00221578
      76.9000    0.00219043
      77.0000    0.00216532
      77.1000    0.00214048
      77.2000    0.00211593
      77.3000    0.00209161
      77.4000    0.00206755
      77.5000    0.00204377
      77.6000    0.00201980
      77.7000    0.00199603
      77.8000    0.00197250
      77.9000    0.00194922
      78.0000    0.00192587
      78.1000    0.00190194
      78.2000    0.00187834
      78.3000    0.00185682
      78.4000    0.00183616
      78.5000    0.00181554
      78.6000    0.00179463
      78.7000    0.00177395
      78.8000    0.00175276
      78.9000    0.00173165
      79.0000    0.00171074
      79.1000    0.00169003
      79.2000    0.00166962
      79.3000    0.00165003
      79.4000    0.00163084
      79.5000    0.00161165
      79.6000    0.00159208
      79.7000    0.00157272
      79.8000    0.00155325
      79.9000    0.00153388
      80.0000    0.00151470
      80.1000    0.00149504
      80.2000    0.00147555
      80.3000    0.00145559
      80.4000    0.00143521
      80.5000    0.00141503
      80.6000    0.00139511
      80.7000    0.00137544
      80.8000    0.00135611
      80.9000    0.00133724
      81.0000    0.00131863
      81.1000    0.00130031
      81.2000    0.00128224
      81.3000    0.00126442
      81.4000    0.00124810
      81.5000    0.00123206
      81.6000    0.00121656
      81.7000    0.00120199
      81.8000    0.00118764
      81.9000    0.00117397
      82.0000    0.00116068
      82.1000    0.00114756
      82.2000    0.00113420
      82.3000    0.00112100
      82.4000    0.00110820
      82.5000    0.00109596
      82.6000    0.00108384
      82.7000    0.00107151
      82.8000    0.00105889
      82.9000    0.00104639
      83.0000    0.00103417
      83.1000    0.00102213
      83.2000    0.00101020
      83.3000   0.000998403
      83.4000   0.000986757
      83.5000   0.000975274
      83.6000   0.000964161
      83.7000   0.000953175
      83.8000   0.000942250
      83.9000   0.000931272
      84.0000   0.000920390
      84.1000   0.000909776
      84.2000   0.000899526
      84.3000   0.000889368
      84.4000   0.000879186
      84.5000   0.000869022
      84.6000   0.000858969
      84.7000   0.000849186
      84.8000   0.000839582
      84.9000   0.000830101
      85.0000   0.000820507
      85.1000   0.000810951
      85.2000   0.000801501
      85.3000   0.000792510
      85.4000   0.000783686
      85.5000   0.000774966
      85.6000   0.000766143
      85.7000   0.000757400
      85.8000   0.000748749
      85.9000   0.000740183
      86.0000   0.000731690
      86.1000   0.000723281
      86.2000   0.000715206
      86.3000   0.000707227
      86.4000   0.000699321
      86.5000   0.000691485
      86.6000   0.000683727
      86.7000   0.000676057
      86.8000   0.000667941
      86.9000   0.000659894
      87.0000   0.000651953
      87.1000   0.000644225
      87.2000   0.000636601
      87.3000   0.000629051
      87.4000   0.000621399
      87.5000   0.000613802
      87.6000   0.000606281
      87.7000   0.000598942
      87.8000   0.000591699
      87.9000   0.000584534
      88.0000   0.000577453
      88.1000   0.000570439
      88.2000   0.000563504
      88.3000   0.000556784
      88.4000   0.000550277
      88.5000   0.000543868
      88.6000   0.000537476
      88.7000   0.000531077
      88.8000   0.000524751
      88.9000   0.000518486
      89.0000   0.000512262
      89.1000   0.000506107
      89.2000   0.000500015
      89.3000   0.000493980
      89.4000   0.000487996
      89.5000   0.000482071
      89.6000   0.000476208
      89.7000   0.000470407
      89.8000   0.000464668
      89.9000   0.000458987
      90.0000   0.000453364
      90.1000   0.000447812
      90.2000   0.000442217
      90.3000   0.000436438
      90.4000   0.000430718
      90.5000   0.000425067
      90.6000   0.000419582
      90.7000   0.000414061
      90.8000   0.000408487
      90.9000   0.000402838
      91.0000   0.000397232
      91.1000   0.000391701
      91.2000   0.000386177
      91.3000   0.000380622
      91.4000   0.000375124
      91.5000   0.000369708
      91.6000   0.000364376
      91.7000   0.000359496
      91.8000   0.000355262
      91.9000   0.000351767
      92.0000   0.000347874
      92.1000   0.000343931
      92.2000   0.000339793
      92.3000   0.000335491
      92.4000   0.000331117
      92.5000   0.000326811
      92.6000   0.000322559
      92.7000   0.000318358
      92.8000   0.000314203
      92.9000   0.000310142
      93.0000   0.000306231
      93.1000   0.000302367
      93.2000   0.000298552
      93.3000   0.000294899
      93.4000   0.000291328
      93.5000   0.000287794
      93.6000   0.000284298
      93.7000   0.000280842
      93.8000   0.000277442
      93.9000   0.000274079
      94.0000   0.000270754
      94.1000   0.000267468
      94.2000   0.000264225
      94.3000   0.000261040
      94.4000   0.000257964
      94.5000   0.000254930
      94.6000   0.000251933
      94.7000   0.000248975
      94.8000   0.000246045
      94.9000   0.000243146
      95.0000   0.000240280
      95.1000   0.000237456
      95.2000   0.000234653
      95.3000   0.000231873
      95.4000   0.000229125
      95.5000   0.000226449
      95.6000   0.000223802
      95.7000   0.000221181
      95.8000   0.000218559
      95.9000   0.000215954
      96.0000   0.000213374
      96.1000   0.000210820
      96.2000   0.000208290
      96.3000   0.000205792
      96.4000   0.000203320
      96.5000   0.000200877
      96.6000   0.000198471
      96.7000   0.000196104
      96.8000   0.000193755
      96.9000   0.000191428
      97.0000   0.000189123
      97.1000   0.000186855
      97.2000   0.000184609
      97.3000   0.000182359
      97.4000   0.000180108
      97.5000   0.000177889
      97.6000   0.000175697
      97.7000   0.000173542
      97.8000   0.000171421
      97.9000   0.000169325
      98.0000   0.000167250
      98.1000   0.000165195
      98.2000   0.000163166
      98.3000   0.000161287
      98.4000   0.000159485
      98.5000   0.000157741
      98.6000   0.000156015
      98.7000   0.000154307
      98.8000   0.000152614
      98.9000   0.000150937
      99.0000   0.000149281
      99.1000   0.000147640
      99.2000   0.000146006
      99.3000   0.000144345
      99.4000   0.000142706
      99.5000   0.000141084
      99.6000   0.000139487
      99.7000   0.000137971
      99.8000   0.000136503
      99.9000   0.000135308
      100.000   0.000134523
      100.100   0.000133695
      100.200   0.000132869
      100.300   0.000132046
      100.400   0.000131227
      100.500   0.000130431
      100.600   0.000129636
      100.700   0.000128843
      100.800   0.000128051
      100.900   0.000127263
      101.000   0.000126478
      101.100   0.000125699
      101.200   0.000124923
      101.300   0.000124150
      101.400   0.000123379
      101.500   0.000122613
      101.600   0.000121852
      101.700   0.000121106
      101.800   0.000120367
      101.900   0.000119631
      102.000   0.000118900
      102.100   0.000118192
      102.200   0.000117498
      102.300   0.000116807
      102.400   0.000116119
      102.500   0.000115432
      102.600   0.000114746
      102.700   0.000114062
      102.800   0.000113381
      102.900   0.000112702
      103.000   0.000112024
      103.100   0.000111348
      103.200   0.000110674
      103.300   0.000110003
      103.400   0.000109335
      103.500   0.000108670
      103.600   0.000108007
      103.700   0.000107344
      103.800   0.000106658
      103.900   0.000105947
      104.000   0.000105240
      104.100   0.000104538
      104.200   0.000103853
      104.300   0.000103246
      104.400   0.000102644
      104.500   0.000102044
      104.600   0.000101447
      104.700   0.000100828
      104.800   0.000100201
      104.900   9.95762e-05
      105.000   9.89535e-05
      105.100   9.83509e-05
      105.200   9.77928e-05
      105.300   9.72379e-05
      105.400   9.66844e-05
      105.500   9.61316e-05
      105.600   9.55890e-05
      105.700   9.50496e-05
      105.800   9.45118e-05
      105.900   9.39766e-05
      106.000   9.34573e-05
      106.100   9.29684e-05
      106.200   9.24828e-05
      106.300   9.19986e-05
      106.400   9.15161e-05
      106.500   9.10356e-05
      106.600   9.05569e-05
      106.700   9.00794e-05
      106.800   8.96026e-05
      106.900   8.91276e-05
      107.000   8.86549e-05
      107.100   8.81846e-05
      107.200   8.77169e-05
      107.300   8.72513e-05
      107.400   8.67851e-05
      107.500   8.63183e-05
      107.600   8.58528e-05
      107.700   8.53886e-05
      107.800   8.49264e-05
      107.900   8.44599e-05
      108.000   8.39942e-05
      108.100   8.35290e-05
      108.200   8.30647e-05
      108.300   8.26011e-05
      108.400   8.21331e-05
      108.500   8.16671e-05
      108.600   8.12024e-05
      108.700   8.07380e-05
      108.800   8.02543e-05
      108.900   7.97431e-05
      109.000   7.92335e-05
      109.100   7.87263e-05
      109.200   7.82214e-05
      109.300   7.77189e-05
      109.400   7.72185e-05
      109.500   7.67204e-05
      109.600   7.62249e-05
      109.700   7.57321e-05
      109.800   7.52426e-05
      109.900   7.47559e-05
      110.000   7.42712e-05
      110.100   7.37886e-05
      110.200   7.33077e-05
      110.300   7.28414e-05
      110.400   7.23786e-05
      110.500   7.19186e-05
      110.600   7.14609e-05
      110.700   7.10050e-05
      110.800   7.05504e-05
      110.900   7.00973e-05
      111.000   6.96456e-05
      111.100   6.91954e-05
      111.200   6.87480e-05
      111.300   6.83257e-05
      111.400   6.79050e-05
      111.500   6.74853e-05
      111.600   6.70673e-05
      111.700   6.66521e-05
      111.800   6.62539e-05
      111.900   6.58584e-05
      112.000   6.54648e-05
      112.100   6.50726e-05
      112.200   6.46818e-05
      112.300   6.42776e-05
      112.400   6.38745e-05
      112.500   6.34737e-05
      112.600   6.30750e-05
      112.700   6.26806e-05
      112.800   6.23020e-05
      112.900   6.18908e-05
      113.000   6.14932e-05
      113.100   6.11026e-05
      113.200   6.07073e-05
      113.300   6.03215e-05
      113.400   5.98609e-05
      113.500   5.93836e-05
      113.600   5.89746e-05
      113.700   5.85473e-05
      113.800   5.80775e-05
      113.900   5.76749e-05
      114.000   5.72743e-05
      114.100   5.68302e-05
      114.200   5.64113e-05
      114.300   5.60307e-05
      114.400   5.56421e-05
      114.500   5.52451e-05
      114.600   5.48967e-05
      114.700   5.45146e-05
      114.800   5.41575e-05
      114.900   5.38566e-05
      115.000   5.35167e-05
      115.100   5.31546e-05
      115.200   5.27916e-05
      115.300   5.24793e-05
      115.400   5.21218e-05
      115.500   5.17893e-05
      115.600   5.14390e-05
      115.700   5.10613e-05
      115.800   5.07244e-05
      115.900   5.03682e-05
      116.000   5.00473e-05
      116.100   4.97792e-05
      116.200   4.95079e-05
      116.300   4.92283e-05
      116.400   4.89332e-05
      116.500   4.86754e-05
      116.600   4.84067e-05
      116.700   4.81478e-05
      116.800   4.78790e-05
      116.900   4.75670e-05
      117.000   4.73059e-05
      117.100   4.71877e-05
      117.200   4.71690e-05
      117.300   4.70513e-05
      117.400   4.69266e-05
      117.500   4.68030e-05
      117.600   4.66225e-05
      117.700   4.64201e-05
      117.800   4.61886e-05
      117.900   4.59428e-05
      118.000   4.56695e-05
      118.100   4.53701e-05
      118.200   4.50933e-05
      118.300   4.48267e-05
      118.400   4.44554e-05
      118.500   4.40947e-05
      118.600   4.37842e-05
      118.700   4.34581e-05
      118.800   4.31104e-05
      118.900   4.27805e-05
      119.000   4.23959e-05
      119.100   4.19495e-05
      119.200   4.15598e-05
      119.300   4.12178e-05
      119.400   4.09038e-05
      119.500   4.06031e-05
      119.600   4.02675e-05
      119.700   3.98911e-05
      119.800   3.94329e-05
      119.900   3.88666e-05
      120.000   3.83398e-05
      120.100   3.78450e-05
      120.200   3.74896e-05
      120.300   3.72143e-05
      120.400   3.69392e-05
      120.500   3.65557e-05
      120.600   3.60913e-05
      120.700   3.56035e-05
      120.800   3.51366e-05
      120.900   3.48143e-05
      121.000   3.47143e-05
      121.100   3.45751e-05
      121.200   3.43263e-05
      121.300   3.40008e-05
      121.400   3.36181e-05
      121.500   3.31934e-05
      121.600   3.25993e-05
      121.700   3.20786e-05
      121.800   3.15017e-05
      121.900   3.09217e-05
      122.000   3.03057e-05
      122.100   2.97253e-05
      122.200   2.91552e-05
      122.300   2.87324e-05
      122.400   2.84670e-05
      122.500   2.82359e-05
      122.600   2.79863e-05
      122.700   2.77366e-05
      122.800   2.74537e-05
      122.900   2.71922e-05
      123.000   2.71094e-05
      123.100   2.73338e-05
      123.200   2.75773e-05
      123.300   2.79766e-05
      123.400   2.85037e-05
      123.500   2.92136e-05
      123.600   2.98142e-05
      123.700   3.00999e-05
      123.800   3.02954e-05
      123.900   3.05785e-05
      124.000   3.10035e-05
      124.100   3.18930e-05
      124.200   3.37710e-05
      124.300   3.66060e-05
      124.400   3.93274e-05
      124.500   4.00627e-05
      124.600   3.98817e-05
      124.700   3.95966e-05
      124.800   3.93236e-05
      124.900   3.90512e-05
      125.000   3.87789e-05
      125.100   3.84993e-05
      125.200   3.82202e-05
      125.300   3.79425e-05
      125.400   3.76662e-05
      125.500   3.73914e-05
      125.600   3.71179e-05
      125.700   3.68461e-05
      125.800   3.65757e-05
      125.900   3.63070e-05
      126.000   3.60400e-05
      126.100   3.57747e-05
      126.200   3.55112e-05
      126.300   3.52493e-05
      126.400   3.49890e-05
      126.500   3.47302e-05
      126.600   3.44728e-05
      126.700   3.42169e-05
      126.800   3.39624e-05
      126.900   3.37094e-05
      127.000   3.34569e-05
      127.100   3.32029e-05
      127.200   3.29488e-05
      127.300   3.26958e-05
      127.400   3.24443e-05
      127.500   3.21942e-05
      127.600   3.19457e-05
      127.700   3.16987e-05
      127.800   3.14534e-05
      127.900   3.12095e-05
      128.000   3.09672e-05
      128.100   3.07264e-05
      128.200   3.04869e-05
      128.300   3.02489e-05
      128.400   3.00122e-05
      128.500   2.97768e-05
      128.600   2.95428e-05
      128.700   2.93102e-05
      128.800   2.90790e-05
      128.900   2.88493e-05
      129.000   2.86211e-05
      129.100   2.83937e-05
      129.200   2.81661e-05
      129.300   2.79398e-05
      129.400   2.77150e-05
      129.500   2.74918e-05
      129.600   2.72702e-05
      129.700   2.70501e-05
      129.800   2.68315e-05
      129.900   2.66145e-05
      130.000   2.63990e-05
      130.100   2.61851e-05
      130.200   2.59726e-05
      130.300   2.57617e-05
      130.400   2.55524e-05
      130.500   2.53446e-05
      130.600   2.51383e-05
      130.700   2.49337e-05
      130.800   2.47305e-05
      130.900   2.45289e-05
      131.000   2.43287e-05
      131.100   2.41299e-05
      131.200   2.39321e-05
      131.300   2.37353e-05
      131.400   2.35397e-05
      131.500   2.33455e-05
      131.600   2.31524e-05
      131.700   2.29606e-05
      131.800   2.27701e-05
      131.900   2.25807e-05
      132.000   2.23926e-05
      132.100   2.22057e-05
      132.200   2.20200e-05
      132.300   2.18356e-05
      132.400   2.16524e-05
      132.500   2.14706e-05
      132.600   2.12900e-05
      132.700   2.11108e-05
      132.800   2.09328e-05
      132.900   2.07560e-05
      133.000   2.05805e-05
      133.100   2.04061e-05
      133.200   2.02330e-05
      133.300   2.00609e-05
      133.400   1.98899e-05
      133.500   1.97201e-05
      133.600   1.95515e-05
      133.700   1.93842e-05
      133.800   1.92181e-05
      133.900   1.90533e-05
      134.000   1.88897e-05
      134.100   1.87274e-05
      134.200   1.85663e-05
      134.300   1.84064e-05
      134.400   1.82477e-05
      134.500   1.80902e-05
      134.600   1.79339e-05
      134.700   1.77788e-05
      134.800   1.76249e-05
      134.900   1.74722e-05
      135.000   1.73205e-05
      135.100   1.71701e-05
      135.200   1.70208e-05
      135.300   1.68726e-05
      135.400   1.67255e-05
      135.500   1.65791e-05
      135.600   1.64334e-05
      135.700   1.62888e-05
      135.800   1.61453e-05
      135.900   1.60029e-05
      136.000   1.58614e-05
      136.100   1.57210e-05
      136.200   1.55817e-05
      136.300   1.54433e-05
      136.400   1.53059e-05
      136.500   1.51695e-05
      136.600   1.50340e-05
      136.700   1.48995e-05
      136.800   1.47659e-05
      136.900   1.46334e-05
      137.000   1.45017e-05
      137.100   1.43710e-05
      137.200   1.42413e-05
      137.300   1.41127e-05
      137.400   1.39851e-05
      137.500   1.38584e-05
      137.600   1.37327e-05
      137.700   1.36077e-05
      137.800   1.34837e-05
      137.900   1.33606e-05
      138.000   1.32386e-05
      138.100   1.31175e-05
      138.200   1.29975e-05
      138.300   1.28784e-05
      138.400   1.27603e-05
      138.500   1.26431e-05
      138.600   1.25270e-05
      138.700   1.24117e-05
      138.800   1.22975e-05
      138.900   1.21842e-05
      139.000   1.20718e-05
      139.100   1.19604e-05
      139.200   1.18499e-05
      139.300   1.17404e-05
      139.400   1.16317e-05
      139.500   1.15240e-05
      139.600   1.14170e-05
      139.700   1.13110e-05
      139.800   1.12058e-05
      139.900   1.11015e-05
      140.000   1.09979e-05
      140.100   1.08952e-05
      140.200   1.07933e-05
      140.300   1.06923e-05
      140.400   1.05920e-05
      140.500   1.04925e-05
      140.600   1.03938e-05
      140.700   1.02959e-05
      140.800   1.01989e-05
      140.900   1.01027e-05
      141.000   1.00072e-05
      141.100   9.91258e-06
      141.200   9.81870e-06
      141.300   9.72556e-06
      141.400   9.63315e-06
      141.500   9.54150e-06
      141.600   9.45063e-06
      141.700   9.36051e-06
      141.800   9.27113e-06
      141.900   9.18245e-06
      142.000   9.09450e-06
      142.100   9.01085e-06
      142.200   8.93816e-06
      142.300   8.87481e-06
      142.400   8.81180e-06
      142.500   8.74908e-06
      142.600   8.68667e-06
      142.700   8.62457e-06
      142.800   8.56280e-06
      142.900   8.50136e-06
      143.000   8.44026e-06
      143.100   8.37949e-06
      143.200   8.31910e-06
      143.300   8.25902e-06
      143.400   8.19930e-06
      143.500   8.13990e-06
      143.600   8.08082e-06
      143.700   8.02203e-06
      143.800   7.96360e-06
      143.900   7.90550e-06
      144.000   7.84771e-06
      144.100   7.79023e-06
      144.200   7.73307e-06
      144.300   7.67619e-06
      144.400   7.62047e-06
      144.500   7.57640e-06
      144.600   7.53604e-06
      144.700   7.49614e-06
      144.800   7.45627e-06
      144.900   7.41643e-06
      145.000   7.37662e-06
      145.100   7.33686e-06
      145.200   7.29712e-06
      145.300   7.25743e-06
      145.400   7.21777e-06
      145.500   7.17814e-06
      145.600   7.13854e-06
      145.700   7.09897e-06
      145.800   7.05945e-06
      145.900   7.01998e-06
      146.000   6.98053e-06
      146.100   6.94114e-06
      146.200   6.90180e-06
      146.300   6.86251e-06
      146.400   6.82326e-06
      146.500   6.78410e-06
      146.600   6.74501e-06
      146.700   6.70600e-06
      146.800   6.66664e-06
      146.900   6.62678e-06
      147.000   6.58702e-06
      147.100   6.54735e-06
      147.200   6.50778e-06
      147.300   6.46830e-06
      147.400   6.42892e-06
      147.500   6.38963e-06
      147.600   6.35044e-06
      147.700   6.31135e-06
      147.800   6.27238e-06
      147.900   6.23351e-06
      148.000   6.19475e-06
      148.100   6.15610e-06
      148.200   6.11759e-06
      148.300   6.07919e-06
      148.400   6.04092e-06
      148.500   6.00277e-06
      148.600   5.96476e-06
      148.700   5.92687e-06
      148.800   5.88910e-06
      148.900   5.85148e-06
      149.000   5.81401e-06
      149.100   5.77667e-06
      149.200   5.73942e-06
      149.300   5.70228e-06
      149.400   5.66528e-06
      149.500   5.62841e-06
      149.600   5.59167e-06
      149.700   5.55505e-06
      149.800   5.51856e-06
      149.900   5.48219e-06
      150.000   5.44593e-06
      150.100   5.40981e-06
      150.200   5.37380e-06
      150.300   5.33792e-06
      150.400   5.30217e-06
      150.500   5.26652e-06
      150.600   5.23101e-06
      150.700   5.19560e-06
      150.800   5.16033e-06
      150.900   5.12518e-06
      151.000   5.09013e-06
      151.100   5.05522e-06
      151.200   5.02042e-06
      151.300   4.98574e-06
      151.400   4.95118e-06
      151.500   4.91677e-06
      151.600   4.88254e-06
      151.700   4.84852e-06
      151.800   4.81463e-06
      151.900   4.78084e-06
      152.000   4.74721e-06
      152.100   4.71371e-06
      152.200   4.68035e-06
      152.300   4.64712e-06
      152.400   4.61404e-06
      152.500   4.58110e-06
      152.600   4.54830e-06
      152.700   4.51566e-06
      152.800   4.48317e-06
      152.900   4.45085e-06
      153.000   4.41866e-06
      153.100   4.38665e-06
      153.200   4.35477e-06
      153.300   4.32307e-06
      153.400   4.29152e-06
      153.500   4.26011e-06
      153.600   4.22886e-06
      153.700   4.19777e-06
      153.800   4.16684e-06
      153.900   4.13605e-06
      154.000   4.10590e-06
      154.100   4.07698e-06
      154.200   4.04856e-06
      154.300   4.02026e-06
      154.400   3.99208e-06
      154.500   3.96402e-06
      154.600   3.93609e-06
      154.700   3.90827e-06
      154.800   3.88057e-06
      154.900   3.85300e-06
      155.000   3.82554e-06
      155.100   3.79821e-06
      155.200   3.77099e-06
      155.300   3.74391e-06
      155.400   3.71695e-06
      155.500   3.69010e-06
      155.600   3.66337e-06
      155.700   3.63676e-06
      155.800   3.61028e-06
      155.900   3.58390e-06
      156.000   3.55765e-06
      156.100   3.53151e-06
      156.200   3.50549e-06
      156.300   3.47958e-06
      156.400   3.45378e-06
      156.500   3.42797e-06
      156.600   3.40149e-06
      156.700   3.37513e-06
      156.800   3.34889e-06
      156.900   3.32278e-06
      157.000   3.29682e-06
      157.100   3.27097e-06
      157.200   3.24527e-06
      157.300   3.21968e-06
      157.400   3.19424e-06
      157.500   3.16891e-06
      157.600   3.14372e-06
      157.700   3.11866e-06
      157.800   3.09374e-06
      157.900   3.06894e-06
      158.000   3.04428e-06
      158.100   3.01976e-06
      158.200   2.99537e-06
      158.300   2.97112e-06
      158.400   2.94701e-06
      158.500   2.92304e-06
      158.600   2.89920e-06
      158.700   2.87549e-06
      158.800   2.85193e-06
      158.900   2.82851e-06
      159.000   2.80523e-06
      159.100   2.78207e-06
      159.200   2.75906e-06
      159.300   2.73618e-06
      159.400   2.71344e-06
      159.500   2.69085e-06
      159.600   2.66838e-06
      159.700   2.64607e-06
      159.800   2.62389e-06
      159.900   2.60186e-06
      160.000   2.57996e-06
      160.100   2.55820e-06
      160.200   2.53658e-06
      160.300   2.51509e-06
      160.400   2.49374e-06
      160.500   2.47252e-06
      160.600   2.45144e-06
      160.700   2.43048e-06
      160.800   2.40966e-06
      160.900   2.38896e-06
      161.000   2.36839e-06
      161.100   2.34795e-06
      161.200   2.32764e-06
      161.300   2.30746e-06
      161.400   2.28741e-06
      161.500   2.26748e-06
      161.600   2.24767e-06
      161.700   2.22797e-06
      161.800   2.20839e-06
      161.900   2.18894e-06
      162.000   2.16961e-06
      162.100   2.15040e-06
      162.200   2.13132e-06
      162.300   2.11236e-06
      162.400   2.09353e-06
      162.500   2.07482e-06
      162.600   2.05623e-06
      162.700   2.03777e-06
      162.800   2.01944e-06
      162.900   2.00122e-06
      163.000   1.98313e-06
      163.100   1.96515e-06
      163.200   1.94730e-06
      163.300   1.92957e-06
      163.400   1.91196e-06
      163.500   1.89447e-06
      163.600   1.87709e-06
      163.700   1.85984e-06
      163.800   1.84272e-06
      163.900   1.82571e-06
      164.000   1.80882e-06
      164.100   1.79206e-06
      164.200   1.77542e-06
      164.300   1.75901e-06
      164.400   1.74272e-06
      164.500   1.72655e-06
      164.600   1.71049e-06
      164.700   1.69456e-06
      164.800   1.67874e-06
      164.900   1.66304e-06
      165.000   1.64746e-06
      165.100   1.63199e-06
      165.200   1.61665e-06
      165.300   1.60142e-06
      165.400   1.58631e-06
      165.500   1.57131e-06
      165.600   1.55644e-06
      165.700   1.54167e-06
      165.800   1.52703e-06
      165.900   1.51249e-06
      166.000   1.49808e-06
      166.100   1.48378e-06
      166.200   1.46959e-06
      166.300   1.45552e-06
      166.400   1.44156e-06
      166.500   1.42770e-06
      166.600   1.41396e-06
      166.700   1.40033e-06
      166.800   1.38680e-06
      166.900   1.37338e-06
      167.000   1.36009e-06
      167.100   1.34688e-06
      167.200   1.33379e-06
      167.300   1.32079e-06
      167.400   1.30790e-06
      167.500   1.29512e-06
      167.600   1.28243e-06
      167.700   1.26985e-06
      167.800   1.25737e-06
      167.900   1.24499e-06
      168.000   1.23271e-06
      168.100   1.22052e-06
      168.200   1.20843e-06
      168.300   1.19644e-06
      168.400   1.18455e-06
      168.500   1.17275e-06
      168.600   1.16104e-06
      168.700   1.14944e-06
      168.800   1.13792e-06
      168.900   1.12650e-06
      169.000   1.11517e-06
      169.100   1.10394e-06
      169.200   1.09280e-06
      169.300   1.08175e-06
      169.400   1.07079e-06
      169.500   1.05986e-06
      169.600   1.04878e-06
      169.700   1.03751e-06
      169.800   1.02626e-06
      169.900   1.01510e-06
      170.000   1.00404e-06
      170.100   9.93072e-07
      170.200   9.82199e-07
      170.300   1.28843e-06
      170.400   2.78521e-06
      170.500   5.30567e-06
      170.600   7.85126e-06
      170.700   9.91249e-06
      170.800   1.09006e-05
      170.900   1.09805e-05
      171.000   1.08356e-05
      171.100   1.06919e-05
      171.200   1.05494e-05
      171.300   1.04080e-05
      171.400   1.02678e-05
      171.500   1.01288e-05
      171.600   9.99103e-06
      171.700   9.85459e-06
      171.800   9.71954e-06
      171.900   9.58598e-06
      172.000   9.45401e-06
      172.100   9.32362e-06
      172.200   9.19498e-06
      172.300   9.06773e-06
      172.400   8.94042e-06
      172.500   8.81451e-06
      172.600   8.69039e-06
      172.700   8.56808e-06
      172.800   8.44751e-06
      172.900   8.32867e-06
      173.000   8.21163e-06
      173.100   8.09632e-06
      173.200   7.98266e-06
      173.300   7.87072e-06
      173.400   7.76036e-06
      173.500   7.65167e-06
      173.600   7.54461e-06
      173.700   7.43908e-06
      173.800   7.33507e-06
      173.900   7.23262e-06
      174.000   7.13162e-06
      174.100   7.03203e-06
      174.200   6.93390e-06
      174.300   6.83714e-06
      174.400   6.74175e-06
      174.500   6.64768e-06
      174.600   6.55484e-06
      174.700   6.46332e-06
      174.800   6.37305e-06
      174.900   6.28397e-06
      175.000   6.19601e-06
      175.100   6.10924e-06
      175.200   6.02385e-06
      175.300   5.93954e-06
      175.400   5.85631e-06
      175.500   5.77421e-06
      175.600   5.69317e-06
      175.700   5.61321e-06
      175.800   5.53427e-06
      175.900   5.45638e-06
      176.000   5.37951e-06
      176.100   5.30369e-06
      176.200   5.22885e-06
      176.300   5.15496e-06
      176.400   5.08211e-06
      176.500   5.01019e-06
      176.600   4.93921e-06
      176.700   4.86917e-06
      176.800   4.80007e-06
      176.900   4.73190e-06
      177.000   4.66462e-06
      177.100   4.59821e-06
      177.200   4.53271e-06
      177.300   4.46807e-06
      177.400   4.40426e-06
      177.500   4.34129e-06
      177.600   4.27916e-06
      177.700   4.21785e-06
      177.800   4.15735e-06
      177.900   4.09759e-06
      178.000   4.03889e-06
      178.100   3.98100e-06
      178.200   3.92383e-06
      178.300   3.86742e-06
      178.400   3.81178e-06
      178.500   3.75685e-06
      178.600   3.70264e-06
      178.700   3.64913e-06
      178.800   3.59635e-06
      178.900   3.54428e-06
      179.000   3.49290e-06
      179.100   3.44218e-06
      179.200   3.39216e-06
      179.300   3.34282e-06
      179.400   3.29415e-06
      179.500   3.24617e-06
      179.600   3.19884e-06
      179.700   3.15219e-06
      179.800   3.10618e-06
      179.900   3.06082e-06
      180.000   3.01609e-06
      180.100   2.97201e-06
      180.200   2.92856e-06
      180.300   2.88574e-06
      180.400   2.84353e-06
      180.500   2.80195e-06
      180.600   2.76097e-06
      180.700   2.72059e-06
      180.800   2.68082e-06
      180.900   2.64161e-06
      181.000   2.60297e-06
      181.100   2.56491e-06
      181.200   2.52741e-06
      181.300   2.49045e-06
      181.400   2.45406e-06
      181.500   2.41818e-06
      181.600   2.38284e-06
      181.700   2.34801e-06
      181.800   2.31368e-06
      181.900   2.27986e-06
      182.000   2.24654e-06
      182.100   2.21369e-06
      182.200   2.18133e-06
      182.300   2.14943e-06
      182.400   2.11800e-06
      182.500   2.08702e-06
      182.600   2.05646e-06
      182.700   2.02635e-06
      182.800   1.99667e-06
      182.900   1.96740e-06
      183.000   1.93855e-06
      183.100   1.91011e-06
      183.200   1.88208e-06
      183.300   1.85442e-06
      183.400   1.82716e-06
      183.500   1.80029e-06
      183.600   1.77380e-06
      183.700   1.74768e-06
      183.800   1.72196e-06
      183.900   1.69659e-06
      184.000   1.67160e-06
      184.100   1.64696e-06
      184.200   1.62268e-06
      184.300   1.59873e-06
      184.400   1.57513e-06
      184.500   1.55187e-06
      184.600   1.52894e-06
      184.700   1.50633e-06
      184.800   1.48404e-06
      184.900   1.46207e-06
      185.000   1.44041e-06
      185.100   1.41906e-06
      185.200   1.39800e-06
      185.300   1.37726e-06
      185.400   1.35680e-06
      185.500   1.33663e-06
      185.600   1.31675e-06
      185.700   1.29713e-06
      185.800   1.27781e-06
      185.900   1.25878e-06
      186.000   1.23999e-06
      186.100   1.22147e-06
      186.200   1.20322e-06
      186.300   1.18521e-06
      186.400   1.16745e-06
      186.500   1.14994e-06
      186.600   1.13268e-06
      186.700   1.11564e-06
      186.800   1.09884e-06
      186.900   1.08227e-06
      187.000   1.06593e-06
      187.100   1.04981e-06
      187.200   1.03391e-06
      187.300   1.01825e-06
      187.400   1.00280e-06
      187.500   9.87573e-07
      187.600   9.72553e-07
      187.700   9.57744e-07
      187.800   9.43138e-07
      187.900   9.28737e-07
      188.000   9.14544e-07
      188.100   9.00550e-07
      188.200   8.86749e-07
      188.300   8.73144e-07
      188.400   8.59732e-07
      188.500   8.46519e-07
      188.600   8.33500e-07
      188.700   8.20676e-07
      188.800   8.08041e-07
      188.900   7.95597e-07
      189.000   7.83331e-07
      189.100   7.71243e-07
      189.200   7.59335e-07
      189.300   7.47607e-07
      189.400   7.36056e-07
      189.500   7.24676e-07
      189.600   7.13462e-07
      189.700   7.02423e-07
      189.800   6.91609e-07
      189.900   6.80974e-07
      190.000   6.70496e-07
      190.100   6.60181e-07
      190.200   6.50020e-07
      190.300   6.40014e-07
      190.400   6.30155e-07
      190.500   6.20446e-07
      190.600   6.10889e-07
      190.700   6.01472e-07
      190.800   5.92199e-07
      190.900   5.83067e-07
      191.000   5.74076e-07
      191.100   5.65231e-07
      191.200   5.56514e-07
      191.300   5.47930e-07
      191.400   5.39477e-07
      191.500   5.31149e-07
      191.600   5.22947e-07
      191.700   5.14869e-07
      191.800   5.06908e-07
      191.900   4.99070e-07
      192.000   4.91352e-07
      192.100   4.83755e-07
      192.200   4.76278e-07
      192.300   4.68912e-07
      192.400   4.61654e-07
      192.500   4.54506e-07
      192.600   4.47466e-07
      192.700   4.40533e-07
      192.800   4.33702e-07
      192.900   4.26970e-07
      193.000   4.20342e-07
      193.100   4.13818e-07
      193.200   4.07395e-07
      193.300   4.01071e-07
      193.400   3.94846e-07
      193.500   3.88714e-07
      193.600   3.82674e-07
      193.700   3.76725e-07
      193.800   3.70869e-07
      193.900   3.65103e-07
      194.000   3.59423e-07
      194.100   3.53835e-07
      194.200   3.48337e-07
      194.300   3.42923e-07
      194.400   3.37591e-07
      194.500   3.32339e-07
      194.600   3.27166e-07
      194.700   3.22073e-07
      194.800   3.17059e-07
      194.900   3.12119e-07
      195.000   3.07253e-07
      195.100   3.02467e-07
      195.200   2.97754e-07
      195.300   2.93113e-07
      195.400   2.88540e-07
      195.500   2.84034e-07
      195.600   2.79595e-07
      195.700   2.75223e-07
      195.800   2.70914e-07
      195.900   2.66668e-07
      196.000   2.62439e-07
      196.100   2.58272e-07
      196.200   2.54167e-07
      196.300   2.50123e-07
      196.400   2.46138e-07
      196.500   2.42211e-07
      196.600   2.38343e-07
      196.700   2.34532e-07
      196.800   2.30779e-07
      196.900   2.27085e-07
      197.000   2.23445e-07
      197.100   2.19859e-07
      197.200   2.16326e-07
      197.300   2.12844e-07
      197.400   2.09412e-07
      197.500   2.06032e-07
      197.600   2.02702e-07
      197.700   1.99427e-07
      197.800   1.96201e-07
      197.900   1.93022e-07
      198.000   1.89890e-07
      198.100   1.86806e-07
      198.200   1.83767e-07
      198.300   1.80773e-07
      198.400   1.77826e-07
      198.500   1.74927e-07
      198.600   1.72073e-07
      198.700   1.69263e-07
      198.800   1.66495e-07
      198.900   1.63770e-07
      199.000   1.61086e-07
      199.100   1.58443e-07
      199.200   1.55841e-07
      199.300   1.53284e-07
      199.400   1.50767e-07
      199.500   1.48290e-07
      199.600   1.45851e-07
      199.700   1.43450e-07
      199.800   1.41086e-07
      199.900   1.38760e-07
      200.000   1.36470e-07
      200.100   1.34226e-07
      200.200   1.32011e-07
      200.300   1.29833e-07
      200.400   1.27688e-07
      200.500   1.25578e-07
      200.600   1.23502e-07
      200.700   1.21459e-07
      200.800   1.19448e-07
      200.900   1.17469e-07
      201.000   1.15524e-07
      201.100   1.13610e-07
      201.200   1.11727e-07
      201.300   1.09874e-07
      201.400   1.08052e-07
      201.500   1.06257e-07
      201.600   1.04492e-07
      201.700   1.02756e-07
      201.800   1.01047e-07
      201.900   9.93662e-08
      202.000   9.77148e-08
      202.100   9.60887e-08
      202.200   9.44895e-08
      202.300   9.29716e-08
      202.400   9.15801e-08
      202.500   9.02383e-08
      202.600   8.89148e-08
      202.700   8.76108e-08
      202.800   8.63263e-08
      202.900   8.50606e-08
      203.000   8.38137e-08
      203.100   8.25854e-08
      203.200   8.13745e-08
      203.300   8.01808e-08
      203.400   7.90047e-08
      203.500   7.78461e-08
      203.600   7.67042e-08
      203.700   7.55792e-08
      203.800   7.44715e-08
      203.900   7.33805e-08
      204.000   7.23054e-08
      204.100   7.12463e-08
      204.200   7.02032e-08
      204.300   6.91750e-08
      204.400   6.81623e-08
      204.500   6.71645e-08
      204.600   6.61812e-08
      204.700   6.52126e-08
      204.800   6.42592e-08
      204.900   6.33199e-08
      205.000   6.23945e-08
      205.100   6.14830e-08
      205.200   6.05844e-08
      205.300   5.96996e-08
      205.400   5.88276e-08
      205.500   5.79682e-08
      205.600   5.71437e-08
      205.700   5.63516e-08
      205.800   5.55729e-08
      205.900   5.48055e-08
      206.000   5.40492e-08
      206.100   5.33028e-08
      206.200   5.25665e-08
      206.300   5.18406e-08
      206.400   5.11246e-08
      206.500   5.04179e-08
      206.600   4.97210e-08
      206.700   4.90335e-08
      206.800   4.83548e-08
      206.900   4.76854e-08
      207.000   4.70251e-08
      207.100   4.63735e-08
      207.200   4.57311e-08
      207.300   4.50970e-08
      207.400   4.44711e-08
      207.500   4.38534e-08
      207.600   4.32439e-08
      207.700   4.26422e-08
      207.800   4.20484e-08
      207.900   4.14623e-08
      208.000   4.08839e-08
      208.100   4.03131e-08
      208.200   3.97498e-08
      208.300   3.91938e-08
      208.400   3.86452e-08
      208.500   3.81040e-08
      208.600   3.75695e-08
      208.700   3.70420e-08
      208.800   3.65215e-08
      208.900   3.60071e-08
      209.000   3.54960e-08
      209.100   3.49916e-08
      209.200   3.44940e-08
      209.300   3.40027e-08
      209.400   3.35183e-08
      209.500   3.30401e-08
      209.600   3.25684e-08
      209.700   3.21031e-08
      209.800   3.16445e-08
      209.900   3.11917e-08
      210.000   3.07452e-08
      210.100   3.03047e-08
      210.200   2.98702e-08
      210.300   2.94415e-08
      210.400   2.90187e-08
      210.500   2.86016e-08
      210.600   2.81903e-08
      210.700   2.77846e-08
      210.800   2.73844e-08
      210.900   2.69897e-08
      211.000   2.66004e-08
      211.100   2.62165e-08
      211.200   2.58378e-08
      211.300   2.54647e-08
      211.400   2.50969e-08
      211.500   2.47339e-08
      211.600   2.43760e-08
      211.700   2.40232e-08
      211.800   2.36751e-08
      211.900   2.33318e-08
      212.000   2.29935e-08
      212.100   2.26598e-08
      212.200   2.23307e-08
      212.300   2.20063e-08
      212.400   2.16865e-08
      212.500   2.13713e-08
      212.600   2.10604e-08
      212.700   2.07539e-08
      212.800   2.04517e-08
      212.900   2.01538e-08
      213.000   1.98600e-08
      213.100   1.95705e-08
      213.200   1.92851e-08
      213.300   1.90037e-08
      213.400   1.87263e-08
      213.500   1.84528e-08
      213.600   1.81832e-08
      213.700   1.79174e-08
      213.800   1.76553e-08
      213.900   1.73972e-08
      214.000   1.71426e-08
      214.100   1.68917e-08
      214.200   1.66445e-08
      214.300   1.64007e-08
      214.400   1.61605e-08
      214.500   1.59237e-08
      214.600   1.56905e-08
      214.700   1.54606e-08
      214.800   1.52340e-08
      214.900   1.50109e-08
      215.000   1.47909e-08
      215.100   1.45742e-08
      215.200   1.43606e-08
      215.300   1.41504e-08
      215.400   1.39432e-08
      215.500   1.37391e-08
      215.600   1.35381e-08
      215.700   1.33400e-08
      215.800   1.31447e-08
      215.900   1.29525e-08
      216.000   1.27630e-08
      216.100   1.25764e-08
      216.200   1.23925e-08
      216.300   1.22115e-08
      216.400   1.20331e-08
      216.500   1.18574e-08
      216.600   1.16844e-08
      216.700   1.15139e-08
      216.800   1.13460e-08
      216.900   1.11806e-08
      217.000   1.10177e-08
      217.100   1.08571e-08
      217.200   1.06990e-08
      217.300   1.05433e-08
      217.400   1.03898e-08
      217.500   1.02387e-08
      217.600   1.00898e-08
      217.700   9.94306e-09
      217.800   9.79852e-09
      217.900   9.65619e-09
      218.000   9.51593e-09
      218.100   9.37771e-09
      218.200   9.24153e-09
      218.300   9.10737e-09
      218.400   8.97519e-09
      218.500   8.84486e-09
      218.600   8.71648e-09
      218.700   8.58993e-09
      218.800   8.46522e-09
      218.900   8.34234e-09
      219.000   8.22119e-09
      219.100   8.10177e-09
      219.200   7.98408e-09
      219.300   7.86807e-09
      219.400   7.75368e-09
      219.500   7.64095e-09
      219.600   7.52981e-09
      219.700   7.42025e-09
      219.800   7.31228e-09
      219.900   7.20582e-09
      220.000   7.10084e-09
      220.100   6.99735e-09
      220.200   6.89532e-09
      220.300   6.79475e-09
      220.400   6.69559e-09
      220.500   6.59785e-09
      220.600   6.50149e-09
      220.700   6.40646e-09
      220.800   6.31274e-09
      220.900   6.22041e-09
      221.000   6.12934e-09
      221.100   6.03953e-09
      221.200   5.95104e-09
      221.300   5.86377e-09
      221.400   5.77773e-09
      221.500   5.69292e-09
      221.600   5.60930e-09
      221.700   5.52684e-09
      221.800   5.44552e-09
      221.900   5.36537e-09
      222.000   5.28640e-09
      222.100   5.20849e-09
      222.200   5.13171e-09
      222.300   5.05599e-09
      222.400   4.98137e-09
      222.500   4.90776e-09
      222.600   4.83525e-09
      222.700   4.76373e-09
      222.800   4.69321e-09
      222.900   4.62370e-09
      223.000   4.55516e-09
      223.100   4.48758e-09
      223.200   4.42098e-09
      223.300   4.35531e-09
      223.400   4.29060e-09
      223.500   4.22677e-09
      223.600   4.16388e-09
      223.700   4.10187e-09
      223.800   4.04073e-09
      223.900   3.98051e-09
      224.000   3.92110e-09
      224.100   3.86254e-09
      224.200   3.80482e-09
      224.300   3.74793e-09
      224.400   3.69183e-09
      224.500   3.63655e-09
      224.600   3.58203e-09
      224.700   3.52833e-09
      224.800   3.47538e-09
      224.900   3.42317e-09
      225.000   3.37171e-09
      225.100   3.32099e-09
      225.200   3.27098e-09
      225.300   3.22172e-09
      225.400   3.17314e-09
      225.500   3.12525e-09
      225.600   3.07806e-09
      225.700   3.03155e-09
      225.800   2.98570e-09
      225.900   2.94051e-09
      226.000   2.89599e-09
      226.100   2.85210e-09
      226.200   2.80886e-09
      226.300   2.76643e-09
      226.400   2.72480e-09
      226.500   2.68373e-09
      226.600   2.64319e-09
      226.700   2.60322e-09
      226.800   2.56379e-09
      226.900   2.52492e-09
      227.000   2.48662e-09
      227.100   2.44886e-09
      227.200   2.41167e-09
      227.300   2.37503e-09
      227.400   2.33893e-09
      227.500   2.30335e-09
      227.600   2.26831e-09
      227.700   2.23378e-09
      227.800   2.19978e-09
      227.900   2.16628e-09
      228.000   2.13328e-09
      228.100   2.10078e-09
      228.200   2.06875e-09
      228.300   2.03722e-09
      228.400   2.00616e-09
      228.500   1.97556e-09
      228.600   1.94544e-09
      228.700   1.91577e-09
      228.800   1.88654e-09
      228.900   1.85777e-09
      229.000   1.82943e-09
      229.100   1.80153e-09
      229.200   1.77405e-09
      229.300   1.74699e-09
      229.400   1.72035e-09
      229.500   1.69412e-09
      229.600   1.66829e-09
      229.700   1.64286e-09
      229.800   1.61781e-09
      229.900   1.59316e-09
      230.000   1.56876e-09
      230.100   1.54386e-09
      230.200   1.51932e-09
      230.300   1.49520e-09
      230.400   1.47145e-09
      230.500   1.44809e-09
      230.600   1.42510e-09
      230.700   1.40248e-09
      230.800   1.38022e-09
      230.900   1.35832e-09
      231.000   1.33677e-09
      231.100   1.31556e-09
      231.200   1.29469e-09
      231.300   1.27416e-09
      231.400   1.25396e-09
      231.500   1.23407e-09
      231.600   1.21450e-09
      231.700   1.19524e-09
      231.800   1.17629e-09
      231.900   1.15764e-09
      232.000   1.13928e-09
      232.100   1.12122e-09
      232.200   1.10344e-09
      232.300   1.08595e-09
      232.400   1.06873e-09
      232.500   1.05178e-09
      232.600   1.03510e-09
      232.700   1.01868e-09
      232.800   1.00253e-09
      232.900   9.86625e-10
      233.000   9.70971e-10
      233.100   9.55569e-10
      233.200   9.40403e-10
      233.300   9.25479e-10
      233.400   9.10792e-10
      233.500   8.96335e-10
      233.600   8.82110e-10
      233.700   8.68103e-10
      233.800   8.52851e-10
      233.900   8.37666e-10
      234.000   8.22741e-10
      234.100   8.08081e-10
      234.200   7.93682e-10
      234.300   7.79532e-10
      234.400   7.65629e-10
      234.500   7.51970e-10
      234.600   7.38548e-10
      234.700   7.25363e-10
      234.800   7.12411e-10
      234.900   6.99682e-10
      235.000   6.87173e-10
      235.100   6.74886e-10
      235.200   6.62814e-10
      235.300   6.50952e-10
      235.400   6.39298e-10
      235.500   6.27847e-10
      235.600   6.16601e-10
      235.700   6.05547e-10
      235.800   5.94697e-10
      235.900   5.84036e-10
      236.000   5.73561e-10
      236.100   5.63268e-10
      236.200   5.53155e-10
      236.300   5.43218e-10
      236.400   5.33458e-10
      236.500   5.23866e-10
      236.600   5.14442e-10
      236.700   5.05183e-10
      236.800   4.96085e-10
      236.900   4.87146e-10
      237.000   4.78364e-10
      237.100   4.69733e-10
      237.200   4.61254e-10
      237.300   4.52924e-10
      237.400   4.44738e-10
      237.500   4.36694e-10
      237.600   4.28786e-10
      237.700   4.21022e-10
      237.800   4.13394e-10
      237.900   4.05898e-10
      238.000   3.98535e-10
      238.100   3.91298e-10
      238.200   3.84188e-10
      238.300   3.77201e-10
      238.400   3.70336e-10
      238.500   3.63589e-10
      238.600   3.56962e-10
      238.700   3.50451e-10
      238.800   3.44053e-10
      238.900   3.37766e-10
      239.000   3.31587e-10
      239.100   3.25517e-10
      239.200   3.19555e-10
      239.300   3.13697e-10
      239.400   3.07947e-10
      239.500   3.02296e-10
      239.600   2.96743e-10
      239.700   2.91290e-10
      239.800   2.85930e-10
      239.900   2.80665e-10
      240.000   2.75492e-10
      240.100   2.70408e-10
      240.200   2.65413e-10
      240.300   2.60507e-10
      240.400   2.55685e-10
      240.500   2.50951e-10
      240.600   2.46300e-10
      240.700   2.41731e-10
      240.800   2.37244e-10
      240.900   2.32838e-10
      241.000   2.28511e-10
      241.100   2.24261e-10
      241.200   2.20086e-10
      241.300   2.15985e-10
      241.400   2.11957e-10
      241.500   2.08000e-10
      241.600   2.04114e-10
      241.700   2.00297e-10
      241.800   1.96548e-10
      241.900   1.92866e-10
      242.000   1.89250e-10
      242.100   1.85700e-10
      242.200   1.82217e-10
      242.300   1.78798e-10
      242.400   1.75439e-10
      242.500   1.72142e-10
      242.600   1.68905e-10
      242.700   1.65725e-10
      242.800   1.62604e-10
      242.900   1.59540e-10
      243.000   1.56532e-10
      243.100   1.53578e-10
      243.200   1.50678e-10
      243.300   1.47830e-10
      243.400   1.45037e-10
      243.500   1.42295e-10
      243.600   1.39606e-10
      243.700   1.36966e-10
      243.800   1.34374e-10
      243.900   1.31831e-10
      244.000   1.29334e-10
      244.100   1.26884e-10
      244.200   1.24479e-10
      244.300   1.22118e-10
      244.400   1.19801e-10
      244.500   1.17527e-10
      244.600   1.15295e-10
      244.700   1.13106e-10
      244.800   1.10959e-10
      244.900   1.08853e-10
      245.000   1.06785e-10
      245.100   1.04756e-10
      245.200   1.02765e-10
      245.300   1.00812e-10
      245.400   9.88942e-11
      245.500   9.70131e-11
      245.600   9.51671e-11
      245.700   9.33550e-11
      245.800   9.15766e-11
      245.900   8.98341e-11
      246.000   8.81254e-11
      246.100   8.64482e-11
      246.200   8.48025e-11
      246.300   8.31875e-11
      246.400   8.16034e-11
      246.500   8.00486e-11
      246.600   7.85230e-11
      246.700   7.70264e-11
      246.800   7.55571e-11
      246.900   7.41157e-11
      247.000   7.27034e-11
      247.100   7.13179e-11
      247.200   6.99588e-11
      247.300   6.86254e-11
      247.400   6.73168e-11
      247.500   6.60328e-11
      247.600   6.47730e-11
      247.700   6.35369e-11
      247.800   6.23240e-11
      247.900   6.11338e-11
      248.000   5.99662e-11
      248.100   5.88233e-11
      248.200   5.77014e-11
      248.300   5.66006e-11
      248.400   5.55205e-11
      248.500   5.44605e-11
      248.600   5.34205e-11
      248.700   5.24003e-11
      248.800   5.13993e-11
      248.900   5.04172e-11
      249.000   4.94536e-11
      249.100   4.85094e-11
      249.200   4.75837e-11
      249.300   4.66751e-11
      249.400   4.57836e-11
      249.500   4.49090e-11
      249.600   4.40507e-11
      249.700   4.32086e-11
      249.800   4.23824e-11
      249.900   4.15717e-11
      250.000   4.07765e-11
      250.100   3.99972e-11
      250.200   3.92326e-11
      250.300   3.84830e-11
      250.400   3.77475e-11
      250.500   3.70259e-11
      250.600   3.63181e-11
      250.700   3.56235e-11
      250.800   3.49421e-11
      250.900   3.42735e-11
      251.000   3.36176e-11
      251.100   3.29740e-11
      251.200   3.23431e-11
      251.300   3.17247e-11
      251.400   3.11179e-11
      251.500   3.05224e-11
      251.600   2.99382e-11
      251.700   2.93654e-11
      251.800   2.88031e-11
      251.900   2.82515e-11
      252.000   2.77101e-11
      252.100   2.71794e-11
      252.200   2.66583e-11
      252.300   2.61477e-11
      252.400   2.56466e-11
      252.500   2.51553e-11
      252.600   2.46731e-11
      252.700   2.42001e-11
      252.800   2.37360e-11
      252.900   2.32806e-11
      253.000   2.28338e-11
      253.100   2.23955e-11
      253.200   2.19654e-11
      253.300   2.15517e-11
      253.400   2.11494e-11
      253.500   2.07547e-11
      253.600   2.03675e-11
      253.700   1.99872e-11
      253.800   1.96140e-11
      253.900   1.92477e-11
      254.000   1.88880e-11
      254.100   1.85348e-11
      254.200   1.81880e-11
      254.300   1.78476e-11
      254.400   1.75133e-11
      254.500   1.71852e-11
      254.600   1.68630e-11
      254.700   1.65468e-11
      254.800   1.62366e-11
      254.900   1.59320e-11
      255.000   1.56330e-11
      255.100   1.53393e-11
      255.200   1.50510e-11
      255.300   1.47680e-11
      255.400   1.44901e-11
      255.500   1.42173e-11
      255.600   1.39494e-11
      255.700   1.36865e-11
      255.800   1.34282e-11
      255.900   1.31747e-11
      256.000   1.29258e-11
      256.100   1.26815e-11
      256.200   1.24418e-11
      256.300   1.22064e-11
      256.400   1.19754e-11
      256.500   1.17485e-11
      256.600   1.15258e-11
      256.700   1.13072e-11
      256.800   1.10925e-11
      256.900   1.08817e-11
      257.000   1.06748e-11
      257.100   1.04717e-11
      257.200   1.02723e-11
      257.300   1.00766e-11
      257.400   9.88661e-12
      257.500   9.70085e-12
      257.600   9.51867e-12
      257.700   9.33976e-12
      257.800   9.16408e-12
      257.900   8.99162e-12
      258.000   8.82227e-12
      258.100   8.65595e-12
      258.200   8.49267e-12
      258.300   8.33241e-12
      258.400   8.17496e-12
      258.500   8.02036e-12
      258.600   7.86864e-12
      258.700   7.71966e-12
      258.800   7.57335e-12
      258.900   7.42981e-12
      259.000   7.28879e-12
      259.100   7.15042e-12
      259.200   7.01454e-12
      259.300   6.88129e-12
      259.400   6.75045e-12
      259.500   6.62197e-12
      259.600   6.49591e-12
      259.700   6.37217e-12
      259.800   6.25066e-12
      259.900   6.13135e-12
      260.000   6.01430e-12
      260.100   5.89941e-12
      260.200   5.78663e-12
      260.300   5.67593e-12
      260.400   5.56730e-12
      260.500   5.46071e-12
      260.600   5.35604e-12
      260.700   5.25332e-12
      260.800   5.15258e-12
      260.900   5.05365e-12
      261.000   4.95661e-12
      261.100   4.86142e-12
      261.200   4.76799e-12
      261.300   4.67630e-12
      261.400   4.58637e-12
      261.500   4.49822e-12
      261.600   4.41207e-12
      261.700   4.32760e-12
      261.800   4.24472e-12
      261.900   4.16334e-12
      262.000   4.08350e-12
      262.100   4.00515e-12
      262.200   3.92831e-12
      262.300   3.85286e-12
      262.400   3.77886e-12
      262.500   3.70623e-12
      262.600   3.63495e-12
      262.700   3.56502e-12
      262.800   3.49642e-12
      262.900   3.42907e-12
      263.000   3.36307e-12
      263.100   3.29827e-12
      263.200   3.23473e-12
      263.300   3.17238e-12
      263.400   3.11121e-12
      263.500   3.05122e-12
      263.600   2.99236e-12
      263.700   2.93461e-12
      263.800   2.87795e-12
      263.900   2.82240e-12
      264.000   2.76788e-12
      264.100   2.71438e-12
      264.200   2.66189e-12
      264.300   2.61044e-12
      264.400   2.55997e-12
      264.500   2.51044e-12
      264.600   2.46185e-12
      264.700   2.41420e-12
      264.800   2.36744e-12
      264.900   2.32160e-12
      265.000   2.27663e-12
      265.100   2.23251e-12
      265.200   2.18924e-12
      265.300   2.14679e-12
      265.400   2.10518e-12
      265.500   2.06434e-12
      265.600   2.02431e-12
      265.700   1.98502e-12
      265.800   1.94656e-12
      265.900   1.90883e-12
      266.000   1.87185e-12
      266.100   1.83557e-12
      266.200   1.80000e-12
      266.300   1.76509e-12
      266.400   1.73087e-12
      266.500   1.69730e-12
      266.600   1.66438e-12
      266.700   1.63209e-12
      266.800   1.60044e-12
      266.900   1.56940e-12
      267.000   1.53894e-12
      267.100   1.50907e-12
      267.200   1.47980e-12
      267.300   1.45108e-12
      267.400   1.42291e-12
      267.500   1.39529e-12
      267.600   1.36821e-12
      267.700   1.34165e-12
      267.800   1.31560e-12
      267.900   1.29005e-12
      268.000   1.26501e-12
      268.100   1.24044e-12
      268.200   1.21636e-12
      268.300   1.19275e-12
      268.400   1.16959e-12
      268.500   1.14687e-12
      268.600   1.12459e-12
      268.700   1.10276e-12
      268.800   1.08134e-12
      268.900   1.06034e-12
      269.000   1.03975e-12
      269.100   1.01956e-12
      269.200   9.99762e-13
      269.300   9.80350e-13
      269.400   9.61300e-13
      269.500   9.42627e-13
      269.600   9.24321e-13
      269.700   9.06373e-13
      269.800   8.88770e-13
      269.900   8.71506e-13
      270.000   8.54583e-13
      270.100   8.38012e-13
      270.200   8.21782e-13
      270.300   8.05862e-13
      270.400   7.90247e-13
      270.500   7.74938e-13
      270.600   7.59921e-13
      270.700   7.45197e-13
      270.800   7.30762e-13
      270.900   7.16595e-13
      271.000   7.02710e-13
      271.100   6.89091e-13
      271.200   6.75730e-13
      271.300   6.62634e-13
      271.400   6.49786e-13
      271.500   6.37189e-13
      271.600   6.24828e-13
      271.700   6.12710e-13
      271.800   6.00828e-13
      271.900   5.89172e-13
      272.000   5.77745e-13
      272.100   5.66532e-13
      272.200   5.55539e-13
      272.300   5.44752e-13
      272.400   5.34174e-13
      272.500   5.23802e-13
      272.600   5.13627e-13
      272.700   5.03648e-13
      272.800   4.93860e-13
      272.900   4.84261e-13
      273.000   4.74849e-13
      273.100   4.65614e-13
      273.200   4.56555e-13
      273.300   4.47675e-13
      273.400   4.38961e-13
      273.500   4.30416e-13
      273.600   4.22034e-13
      273.700   4.13811e-13
      273.800   4.05746e-13
      273.900   3.97840e-13
      274.000   3.90082e-13
      274.100   3.82472e-13
      274.200   3.75008e-13
      274.300   3.67687e-13
      274.400   3.60206e-13
      274.500   3.52204e-13
      274.600   3.44237e-13
      274.700   3.36450e-13
      274.800   3.28832e-13
      274.900   3.21380e-13
      275.000   3.14096e-13
      275.100   3.06972e-13
      275.200   3.00007e-13
      275.300   2.93194e-13
      275.400   2.86534e-13
      275.500   2.80022e-13
      275.600   2.73650e-13
      275.700   2.67424e-13
      275.800   2.61336e-13
      275.900   2.55381e-13
      276.000   2.49559e-13
      276.100   2.43866e-13
      276.200   2.38299e-13
      276.300   2.32855e-13
      276.400   2.27533e-13
      276.500   2.22327e-13
      276.600   2.17240e-13
      276.700   2.12264e-13
      276.800   2.07401e-13
      276.900   2.02644e-13
      277.000   1.97994e-13
      277.100   1.93447e-13
      277.200   1.89002e-13
      277.300   1.84656e-13
      277.400   1.80408e-13
      277.500   1.76253e-13
      277.600   1.72192e-13
      277.700   1.68222e-13
      277.800   1.64339e-13
      277.900   1.60545e-13
      278.000   1.56836e-13
      278.100   1.53210e-13
      278.200   1.49664e-13
      278.300   1.46200e-13
      278.400   1.42813e-13
      278.500   1.39501e-13
      278.600   1.36263e-13
      278.700   1.33100e-13
      278.800   1.30008e-13
      278.900   1.26955e-13
      279.000   1.23962e-13
      279.100   1.21038e-13
      279.200   1.18181e-13
      279.300   1.15389e-13
      279.400   1.12660e-13
      279.500   1.09995e-13
      279.600   1.07391e-13
      279.700   1.04848e-13
      279.800   1.02362e-13
      279.900   9.99326e-14
      280.000   9.75600e-14
      280.100   9.52413e-14
      280.200   9.29771e-14
      280.300   9.07644e-14
      280.400   8.86024e-14
      280.500   8.64920e-14
      280.600   8.44299e-14
      280.700   8.24151e-14
      280.800   8.04473e-14
      280.900   7.85248e-14
      281.000   7.66470e-14
      281.100   7.48127e-14
      281.200   7.30208e-14
      281.300   7.12708e-14
      281.400   6.95620e-14
      281.500   6.78923e-14
      281.600   6.62616e-14
      281.700   6.46689e-14
      281.800   6.31143e-14
      281.900   6.15952e-14
      282.000   6.01115e-14
      282.100   5.86625e-14
      282.200   5.72487e-14
      282.300   5.58672e-14
      282.400   5.45180e-14
      282.500   5.32003e-14
      282.600   5.19141e-14
      282.700   5.06578e-14
      282.800   4.94306e-14
      282.900   4.82337e-14
      283.000   4.70642e-14
      283.100   4.59232e-14
      283.200   4.48089e-14
      283.300   4.37214e-14
      283.400   4.26593e-14
      283.500   4.16225e-14
      283.600   4.06099e-14
      283.700   3.96210e-14
      283.800   3.86560e-14
      283.900   3.77143e-14
      284.000   3.67945e-14
      284.100   3.58967e-14
      284.200   3.50202e-14
      284.300   3.41648e-14
      284.400   3.33297e-14
      284.500   3.25145e-14
      284.600   3.17187e-14
      284.700   3.09424e-14
      284.800   3.01844e-14
      284.900   2.94445e-14
      285.000   2.87222e-14
      285.100   2.80173e-14
      285.200   2.73296e-14
      285.300   2.66581e-14
      285.400   2.60027e-14
      285.500   2.53632e-14
      285.600   2.47394e-14
      285.700   2.41303e-14
      285.800   2.35363e-14
      285.900   2.29566e-14
      286.000   2.23911e-14
      286.100   2.18395e-14
      286.200   2.13008e-14
      286.300   2.07755e-14
      286.400   2.02630e-14
      286.500   1.97627e-14
      286.600   1.92746e-14
      286.700   1.87982e-14
      286.800   1.83335e-14
      286.900   1.78800e-14
      287.000   1.74376e-14
      287.100   1.70060e-14
      287.200   1.65849e-14
      287.300   1.61741e-14
      287.400   1.57732e-14
      287.500   1.53821e-14
      287.600   1.50005e-14
      287.700   1.46282e-14
      287.800   1.42652e-14
      287.900   1.39110e-14
      288.000   1.35656e-14
      288.100   1.32285e-14
      288.200   1.29001e-14
      288.300   1.25798e-14
      288.400   1.22672e-14
      288.500   1.19624e-14
      288.600   1.16648e-14
      288.700   1.13747e-14
      288.800   1.10917e-14
      288.900   1.08157e-14
      289.000   1.05464e-14
      289.100   1.02838e-14
      289.200   1.00276e-14
      289.300   9.77777e-15
      289.400   9.53398e-15
      289.500   9.29628e-15
      289.600   9.06438e-15
      289.700   8.83834e-15
      289.800   8.61773e-15
      289.900   8.40254e-15
      290.000   8.19273e-15
      290.100   7.98821e-15
      290.200   7.78887e-15
      290.300   7.59442e-15
      290.400   7.40479e-15
      290.500   7.21992e-15
      290.600   7.03951e-15
      290.700   6.86359e-15
      290.800   6.69210e-15
      290.900   6.52477e-15
      291.000   6.36152e-15
      291.100   6.20232e-15
      291.200   6.04711e-15
      291.300   5.89571e-15
      291.400   5.74810e-15
      291.500   5.60413e-15
      291.600   5.46368e-15
      291.700   5.32682e-15
      291.800   5.19331e-15
      291.900   5.06329e-15
      292.000   4.93648e-15
      292.100   4.81278e-15
      292.200   4.69221e-15
      292.300   4.57457e-15
      292.400   4.45985e-15
      292.500   4.34794e-15
      292.600   4.23882e-15
      292.700   4.13244e-15
      292.800   4.02871e-15
      292.900   3.92756e-15
      293.000   3.82891e-15
      293.100   3.73268e-15
      293.200   3.63884e-15
      293.300   3.54735e-15
      293.400   3.45819e-15
      293.500   3.37130e-15
      293.600   3.28657e-15
      293.700   3.20394e-15
      293.800   3.12336e-15
      293.900   3.04481e-15
      294.000   2.96818e-15
      294.100   2.89346e-15
      294.200   2.82062e-15
      294.300   2.74958e-15
      294.400   2.68026e-15
      294.500   2.61270e-15
      294.600   2.54680e-15
      294.700   2.48255e-15
      294.800   2.41990e-15
      294.900   2.35885e-15
      295.000   2.29934e-15
      295.100   2.24136e-15
      295.200   2.18479e-15
      295.300   2.12963e-15
      295.400   2.07585e-15
      295.500   2.02342e-15
      295.600   1.97227e-15
      295.700   1.92240e-15
      295.800   1.87377e-15
      295.900   1.82633e-15
      296.000   1.78008e-15
      296.100   1.73497e-15
      296.200   1.69101e-15
      296.300   1.64816e-15
      296.400   1.60645e-15
      296.500   1.56574e-15
      296.600   1.52605e-15
      296.700   1.48735e-15
      296.800   1.44962e-15
      296.900   1.41282e-15
      297.000   1.37693e-15
      297.100   1.34194e-15
      297.200   1.30783e-15
      297.300   1.27456e-15
      297.400   1.24212e-15
      297.500   1.21048e-15
      297.600   1.17966e-15
      297.700   1.14963e-15
      297.800   1.12035e-15
      297.900   1.09181e-15
      298.000   1.06399e-15
      298.100   1.03685e-15
      298.200   1.01039e-15
      298.300   9.84598e-16
      298.400   9.59440e-16
      298.500   9.34908e-16
      298.600   9.10985e-16
      298.700   8.87667e-16
      298.800   8.64923e-16
      298.900   8.42801e-16
      299.000   8.21237e-16
      299.100   8.00208e-16
      299.200   7.79696e-16
      299.300   7.59706e-16
      299.400   7.40209e-16
      299.500   7.21201e-16
      299.600   7.02673e-16
      299.700   6.84609e-16
      299.800   6.66984e-16
      299.900   6.49818e-16
      300.000   6.33078e-16
      300.100   6.16768e-16
      300.192   6.02132e-16
      300.285   5.87679e-16
      300.377   5.73719e-16
      300.470   5.59944e-16
      300.562   5.46633e-16
      300.654   5.33629e-16
      300.747   5.20788e-16
      300.839   5.08391e-16
      300.932   4.96144e-16
      301.025   4.84188e-16
      301.117   4.72643e-16
      301.210   4.61240e-16
      301.303   4.50109e-16
      301.395   4.39367e-16
      301.488   4.28743e-16
      301.581   4.18388e-16
      301.674   4.08266e-16
      301.766   3.98493e-16
      301.859   3.88843e-16
      301.952   3.79427e-16
      302.045   3.70226e-16
      302.138   3.61255e-16
      302.231   3.52502e-16
      302.324   3.43959e-16
      302.417   3.35615e-16
      302.510   3.27466e-16
      302.603   3.19521e-16
      302.696   3.11757e-16
      302.789   3.04176e-16
      302.882   2.96775e-16
      302.976   2.89477e-16
      303.069   2.82428e-16
      303.162   2.75547e-16
      303.255   2.68827e-16
      303.349   2.62198e-16
      303.442   2.55794e-16
      303.535   2.49550e-16
      303.629   2.43387e-16
      303.722   2.37437e-16
      303.816   2.31565e-16
      303.909   2.25896e-16
      304.003   2.20304e-16
      304.096   2.14902e-16
      304.190   2.09574e-16
      304.283   2.04430e-16
      304.377   1.99359e-16
      304.471   1.94407e-16
      304.564   1.89627e-16
      304.658   1.84915e-16
      304.752   1.80311e-16
      304.846   1.75824e-16
      304.939   1.71491e-16
      305.033   1.67216e-16
      305.127   1.63046e-16
      305.221   1.58977e-16
      305.315   1.55008e-16
      305.409   1.51135e-16
      305.503   1.47358e-16
      305.597   1.43672e-16
      305.691   1.40076e-16
      305.785   1.36567e-16
      305.879   1.33144e-16
      305.973   1.29807e-16
      306.067   1.26549e-16
      306.161   1.23373e-16
      306.255   1.20274e-16
      306.350   1.17219e-16
      306.444   1.14270e-16
      306.538   1.11394e-16
      306.633   1.08561e-16
      306.727   1.05825e-16
      306.821   1.03157e-16
      306.916   1.00527e-16
      307.010   9.79908e-17
      307.105   9.54910e-17
      307.199   9.30792e-17
      307.294   9.07012e-17
      307.388   8.84076e-17
      307.483   8.61476e-17
      307.577   8.39665e-17
      307.672   8.18171e-17
      307.767   7.97218e-17
      307.861   7.77007e-17
      307.956   7.57075e-17
      308.051   7.37647e-17
      308.146   7.18717e-17
      308.240   7.00454e-17
      308.335   6.82455e-17
      308.430   6.64899e-17
      308.525   6.47789e-17
      308.620   6.31118e-17
      308.715   6.14863e-17
      308.810   5.99019e-17
      308.905   5.83574e-17
      309.000   5.68522e-17
      309.095   5.53849e-17
      309.190   5.39553e-17
      309.285   5.25611e-17
      309.380   5.12024e-17
      309.476   4.98649e-17
      309.571   4.85746e-17
      309.666   4.73166e-17
      309.761   4.60912e-17
      309.857   4.48845e-17
      309.952   4.37207e-17
      310.047   4.25871e-17
      310.143   4.14703e-17
      310.238   4.03937e-17
      310.334   3.93336e-17
      310.429   3.83110e-17
      310.525   3.73047e-17
      310.620   3.63344e-17
      310.716   3.53788e-17
      310.811   3.44578e-17
      310.907   3.35513e-17
      311.003   3.26681e-17
      311.098   3.18163e-17
      311.194   3.09777e-17
      311.290   3.01611e-17
      311.386   2.93658e-17
      311.481   2.85989e-17
      311.577   2.78443e-17
      311.673   2.71090e-17
      311.769   2.63927e-17
      311.865   2.56955e-17
      311.961   2.50210e-17
      312.057   2.43842e-17
      312.153   2.37702e-17
      312.249   2.31713e-17
      312.345   2.25874e-17
      312.441   2.20177e-17
      312.537   2.14624e-17
      312.633   2.09211e-17
      312.730   2.03874e-17
      312.826   1.98727e-17
      312.922   1.93710e-17
      313.018   1.88817e-17
      313.115   1.83997e-17
      313.211   1.79345e-17
      313.307   1.74810e-17
      313.404   1.70344e-17
      313.500   1.66033e-17
      313.597   1.61790e-17
      313.693   1.57696e-17
      313.790   1.53662e-17
      313.886   1.49771e-17
      313.983   1.45936e-17
      314.079   1.42237e-17
      314.176   1.38596e-17
      314.273   1.35045e-17
      314.369   1.31622e-17
      314.466   1.28249e-17
      314.563   1.24961e-17
      314.660   1.21759e-17
      314.756   1.18667e-17
      314.853   1.15623e-17
      314.950   1.12657e-17
      315.047   1.09766e-17
      315.144   1.06948e-17
      315.241   1.04203e-17
      315.338   1.01527e-17
      315.435   9.89192e-18
      315.532   9.63782e-18
      315.629   9.39023e-18
      315.726   9.14893e-18
      315.823   8.91361e-18
      315.921   8.68218e-18
      316.018   8.45889e-18
      316.115   8.24136e-18
      316.212   8.02930e-18
      316.310   7.82061e-18
      316.407   7.61936e-18
      316.504   7.42317e-18
      316.602   7.23011e-18
      316.699   7.04396e-18
      316.796   6.86259e-18
      316.894   6.68405e-18
      316.991   6.51280e-18
      317.089   6.34982e-18
      317.187   6.19375e-18
      317.284   6.04304e-18
      317.382   5.89447e-18
      317.479   5.75095e-18
      317.577   5.60954e-18
      317.675   5.47162e-18
      317.773   5.33703e-18
      317.870   5.20709e-18
      317.968   5.07893e-18
      318.066   4.95394e-18
      318.164   4.83202e-18
      318.262   4.71310e-18
      318.360   4.59705e-18
      318.458   4.48391e-18
      318.556   4.37357e-18
      318.654   4.26590e-18
      318.752   4.16086e-18
      318.850   4.05841e-18
      318.948   3.95845e-18
      319.046   3.86094e-18
      319.144   3.76580e-18
      319.242   3.67303e-18
      319.341   3.58161e-18
      319.439   3.49335e-18
      319.537   3.40728e-18
      319.635   3.32330e-18
      319.734   3.24056e-18
      319.832   3.16068e-18
      319.930   3.08274e-18
      320.029   3.00597e-18
      320.127   2.93185e-18
      320.226   2.85882e-18
      320.324   2.78828e-18
      320.423   2.71877e-18
      320.522   2.65104e-18
      320.620   2.58565e-18
      320.719   2.52119e-18
      320.818   2.45834e-18
      320.916   2.39766e-18
      321.015   2.33786e-18
      321.114   2.27955e-18
      321.213   2.22268e-18
      321.311   2.16780e-18
      321.410   2.11373e-18
      321.509   2.06098e-18
      321.608   2.00956e-18
      321.707   1.95940e-18
      321.806   1.91048e-18
      321.905   1.86280e-18
      322.004   1.81627e-18
      322.103   1.77093e-18
      322.202   1.72669e-18
      322.301   1.68357e-18
      322.401   1.64110e-18
      322.500   1.60010e-18
      322.599   1.56012e-18
      322.698   1.52114e-18
      322.798   1.48274e-18
      322.897   1.44566e-18
      322.996   1.40952e-18
      323.096   1.37391e-18
      323.195   1.33954e-18
      323.294   1.30602e-18
      323.394   1.27303e-18
      323.493   1.24116e-18
      323.593   1.20979e-18
      323.692   1.17949e-18
      323.792   1.14967e-18
      323.892   1.12059e-18
      323.991   1.09250e-18
      324.091   1.06486e-18
      324.191   1.03790e-18
      324.291   1.01162e-18
      324.390   9.86265e-19
      324.490   9.61272e-19
      324.590   9.36924e-19
      324.690   9.13187e-19
      324.790   8.90040e-19
      324.890   8.67480e-19
      324.990   8.45476e-19
      325.090   8.24021e-19
      325.190   8.03117e-19
      325.290   7.82744e-19
      325.390   7.62861e-19
      325.490   7.43496e-19
      325.590   7.24619e-19
      325.690   7.06200e-19
      325.790   6.88253e-19
      325.891   6.70585e-19
      325.991   6.53533e-19
      326.091   6.36904e-19
      326.192   6.20539e-19
      326.292   6.04742e-19
      326.392   5.89349e-19
      326.493   5.74190e-19
      326.593   5.59558e-19
      326.694   5.45165e-19
      326.794   5.31266e-19
      326.895   5.17583e-19
      326.995   5.04376e-19
      327.096   4.91381e-19
      327.197   4.78713e-19
      327.297   4.66486e-19
      327.398   4.54451e-19
      327.499   4.42723e-19
      327.599   4.31401e-19
      327.700   4.20254e-19
      327.801   4.09394e-19
      327.902   3.98816e-19
      328.003   3.88501e-19
      328.104   3.78449e-19
      328.205   3.68654e-19
      328.306   3.59109e-19
      328.407   3.49809e-19
      328.508   3.40742e-19
      328.609   3.31907e-19
      328.710   3.23301e-19
      328.811   3.14912e-19
      328.912   3.06739e-19
      329.013   2.98772e-19
      329.115   2.90937e-19
      329.216   2.83375e-19
      329.317   2.76005e-19
      329.419   2.68759e-19
      329.520   2.61763e-19
      329.621   2.54945e-19
      329.723   2.48237e-19
      329.824   2.41772e-19
      329.926   2.35408e-19
      330.027   2.29266e-19
      330.129   2.23223e-19
      330.230   2.17398e-19
      330.332   2.11662e-19
      330.434   2.06077e-19
      330.535   2.00688e-19
      330.637   1.95386e-19
      330.739   1.90224e-19
      330.840   1.85242e-19
      330.942   1.80341e-19
      331.044   1.75568e-19
      331.146   1.70919e-19
      331.248   1.66391e-19
      331.350   1.61981e-19
      331.452   1.57690e-19
      331.554   1.53609e-19
      331.656   1.49783e-19
      331.758   1.46052e-19
      331.860   1.42409e-19
      331.962   1.38856e-19
      332.064   1.35389e-19
      332.166   1.32010e-19
      332.268   1.28710e-19
      332.371   1.25463e-19
      332.473   1.22323e-19
      332.575   1.19259e-19
      332.677   1.16273e-19
      332.780   1.13332e-19
      332.882   1.10490e-19
      332.985   1.07692e-19
      333.087   1.04988e-19
      333.190   1.02326e-19
      333.292   9.97187e-20
      333.395   9.70593e-20
      333.497   9.44598e-20
      333.600   9.19038e-20
      333.702   8.94391e-20
      333.805   8.70179e-20
      333.908   8.46580e-20
      334.011   8.23627e-20
      334.113   8.01492e-20
      334.216   7.79727e-20
      334.319   7.58548e-20
      334.422   7.37928e-20
      334.525   7.17859e-20
      334.628   6.98322e-20
      334.731   6.79319e-20
      334.834   6.60817e-20
      334.937   6.42804e-20
      335.040   6.25267e-20
      335.143   6.08212e-20
      335.246   5.91607e-20
      335.349   5.75447e-20
      335.452   5.59721e-20
      335.555   5.44418e-20
      335.659   5.29378e-20
      335.762   5.14883e-20
      335.865   5.00786e-20
      335.969   4.86929e-20
      336.072   4.73570e-20
      336.175   4.60584e-20
      336.279   4.47824e-20
      336.382   4.35525e-20
      336.486   4.23440e-20
      336.589   4.11796e-20
      336.693   4.00366e-20
      336.796   3.89349e-20
      336.900   3.78525e-20
      337.004   3.67992e-20
      337.107   3.57854e-20
      337.211   3.47887e-20
      337.315   3.38202e-20
      337.419   3.28775e-20
      337.523   3.19605e-20
      337.626   3.10773e-20
      337.730   3.02101e-20
      337.834   2.93664e-20
      337.938   2.85461e-20
      338.042   2.77496e-20
      338.146   2.69809e-20
      338.250   2.62338e-20
      338.354   2.55070e-20
      338.458   2.47997e-20
      338.562   2.41117e-20
      338.667   2.34365e-20
      338.771   2.27857e-20
      338.875   2.21528e-20
      338.979   2.15370e-20
      339.084   2.09329e-20
      339.188   2.03507e-20
      339.292   1.97846e-20
      339.397   1.92285e-20
      339.501   1.86932e-20
      339.606   1.81671e-20
      339.710   1.76607e-20
      339.815   1.71635e-20
      339.919   1.66848e-20
      340.024   1.62145e-20
      340.128   1.57621e-20
      340.233   1.53174e-20
      340.338   1.48855e-20
      340.442   1.44692e-20
      340.547   1.40608e-20
      340.652   1.36636e-20
      340.757   1.32776e-20
      340.862   1.29022e-20
      340.966   1.25409e-20
      341.071   1.21861e-20
      341.176   1.18413e-20
      341.281   1.15060e-20
      341.386   1.11803e-20
      341.491   1.08634e-20
      341.596   1.05557e-20
      341.702   1.02536e-20
      341.807   9.96282e-21
      341.912   9.68019e-21
      342.017   9.40543e-21
      342.122   9.13832e-21
      342.228   8.87652e-21
      342.333   8.62432e-21
      342.438   8.37922e-21
      342.544   8.13888e-21
      342.649   7.90740e-21
      342.754   7.68261e-21
      342.860   7.46193e-21
      342.965   7.24940e-21
      343.071   7.04125e-21
      343.176   6.84073e-21
      343.282   6.64398e-21
      343.388   6.45294e-21
      343.493   6.26970e-21
      343.599   6.09567e-21
      343.705   5.92703e-21
      343.810   5.76441e-21
      343.916   5.60486e-21
      344.022   5.44966e-21
      344.128   5.29874e-21
      344.234   5.15187e-21
      344.340   5.00911e-21
      344.446   4.87020e-21
      344.552   4.73513e-21
      344.658   4.60381e-21
      344.764   4.47616e-21
      344.870   4.35191e-21
      344.976   4.23116e-21
      345.082   4.11368e-21
      345.188   3.99951e-21
      345.294   3.88839e-21
      345.401   3.77938e-21
      345.507   3.67437e-21
      345.613   3.57228e-21
      345.719   3.47298e-21
      345.826   3.37554e-21
      345.932   3.28166e-21
      346.039   3.18956e-21
      346.145   3.10083e-21
      346.252   3.01377e-21
      346.358   2.92990e-21
      346.465   2.84764e-21
      346.571   2.76838e-21
      346.678   2.69057e-21
      346.785   2.61494e-21
      346.891   2.54213e-21
      346.998   2.47070e-21
      347.105   2.40124e-21
      347.212   2.33372e-21
      347.319   2.26807e-21
      347.425   2.20483e-21
      347.532   2.14279e-21
      347.639   2.08252e-21
      347.746   2.02391e-21
      347.853   1.96691e-21
      347.960   1.91155e-21
      348.067   1.85775e-21
      348.174   1.80545e-21
      348.281   1.75460e-21
      348.389   1.70473e-21
      348.496   1.65669e-21
      348.603   1.61006e-21
      348.710   1.56469e-21
      348.818   1.52020e-21
      348.925   1.47734e-21
      349.032   1.43570e-21
      349.140   1.39465e-21
      349.247   1.35511e-21
      349.355   1.31635e-21
      349.462   1.27902e-21
      349.570   1.24239e-21
      349.677   1.20715e-21
      349.785   1.17257e-21
      349.892   1.13930e-21
      350.000   1.10668e-21
      350.100   1.07731e-21
      350.193   1.05068e-21
      350.287   1.02442e-21
      350.380   9.99108e-22
      350.473   9.74410e-22
      350.567   9.50042e-22
      350.660   9.26552e-22
      350.754   9.03394e-22
      350.847   8.81059e-22
      350.941   8.59037e-22
      351.034   8.37789e-22
      351.128   8.16840e-22
      351.221   7.96642e-22
      351.315   7.76713e-22
      351.409   7.57280e-22
      351.502   7.38544e-22
      351.596   7.20074e-22
      351.690   7.02048e-22
      351.783   6.84680e-22
      351.877   6.67551e-22
      351.971   6.50844e-22
      352.065   6.34555e-22
      352.159   6.18672e-22
      352.252   6.03350e-22
      352.346   5.88240e-22
      352.440   5.73515e-22
      352.534   5.59166e-22
      352.628   5.45157e-22
      352.722   5.31500e-22
      352.816   5.18191e-22
      352.910   5.05217e-22
      353.004   4.92566e-22
      353.098   4.80221e-22
      353.192   4.68186e-22
      353.287   4.56330e-22
      353.381   4.44889e-22
      353.475   4.33745e-22
      353.569   4.22866e-22
      353.663   4.12269e-22
      353.758   4.01827e-22
      353.852   3.91753e-22
      353.946   3.81928e-22
      354.041   3.72248e-22
      354.135   3.62912e-22
      354.229   3.53804e-22
      354.324   3.44834e-22
      354.418   3.36182e-22
      354.513   3.27654e-22
      354.607   3.19436e-22
      354.702   3.11283e-22
      354.796   3.03227e-22
      354.891   2.95276e-22
      354.985   2.87616e-22
      355.080   2.80076e-22
      355.175   2.72727e-22
      355.269   2.65648e-22
      355.364   2.58676e-22
      355.459   2.51890e-22
      355.553   2.45345e-22
      355.648   2.38906e-22
      355.743   2.32637e-22
      355.838   2.26523e-22
      355.933   2.20576e-22
      356.027   2.14842e-22
      356.122   2.09195e-22
      356.217   2.03697e-22
      356.312   1.98347e-22
      356.407   1.93131e-22
      356.502   1.88053e-22
      356.597   1.83107e-22
      356.692   1.78291e-22
      356.787   1.73600e-22
      356.882   1.69029e-22
      356.977   1.64583e-22
      357.073   1.60206e-22
      357.168   1.55985e-22
      357.263   1.51877e-22
      357.358   1.47876e-22
      357.453   1.43980e-22
      357.549   1.40147e-22
      357.644   1.36452e-22
      357.739   1.32857e-22
      357.835   1.29315e-22
      357.930   1.25904e-22
      358.025   1.22582e-22
      358.121   1.19314e-22
      358.216   1.16164e-22
      358.312   1.13064e-22
      358.407   1.10079e-22
      358.503   1.07141e-22
      358.598   1.04311e-22
      358.694   1.01526e-22
      358.790   9.88133e-23
      358.885   9.61999e-23
      358.981   9.36287e-23
      359.076   9.11530e-23
      359.172   8.87167e-23
      359.268   8.63422e-23
      359.364   8.40317e-23
      359.459   8.18079e-23
      359.555   7.96178e-23
      359.651   7.74856e-23
      359.747   7.54104e-23
      359.843   7.33899e-23
      359.939   7.14228e-23
      360.035   6.95087e-23
      360.131   6.76458e-23
      360.227   6.58300e-23
      360.323   6.40642e-23
      360.419   6.23453e-23
      360.515   6.06721e-23
      360.611   5.90423e-23
      360.707   5.74546e-23
      360.803   5.59121e-23
      360.899   5.44084e-23
      360.995   5.29461e-23
      361.092   5.15072e-23
      361.188   5.01208e-23
      361.284   4.87718e-23
      361.380   4.74588e-23
      361.477   4.61671e-23
      361.573   4.49228e-23
      361.669   4.37122e-23
      361.766   4.25210e-23
      361.862   4.13744e-23
      361.959   4.02469e-23
      362.055   3.91594e-23
      362.152   3.80917e-23
      362.248   3.70628e-23
      362.345   3.60503e-23
      362.441   3.50763e-23
      362.538   3.41182e-23
      362.635   3.31859e-23
      362.731   3.22875e-23
      362.828   3.14042e-23
      362.925   3.05450e-23
      363.021   2.97173e-23
      363.118   2.89040e-23
      363.215   2.81119e-23
      363.312   2.73413e-23
      363.409   2.65920e-23
      363.505   2.58701e-23
      363.602   2.51600e-23
      363.699   2.44695e-23
      363.796   2.37976e-23
      363.893   2.31438e-23
      363.990   2.25078e-23
      364.087   2.18890e-23
      364.184   2.12870e-23
      364.281   2.07010e-23
      364.378   2.01313e-23
      364.475   1.95769e-23
      364.573   1.90319e-23
      364.670   1.85073e-23
      364.767   1.79969e-23
      364.864   1.75003e-23
      364.961   1.70173e-23
      365.059   1.65427e-23
      365.156   1.60859e-23
      365.253   1.56413e-23
      365.351   1.52044e-23
      365.448   1.47837e-23
      365.545   1.43747e-23
      365.643   1.39726e-23
      365.740   1.35855e-23
      365.838   1.32051e-23
      365.935   1.28392e-23
      366.033   1.24795e-23
      366.130   1.21332e-23
      366.228   1.17930e-23
      366.326   1.14622e-23
      366.423   1.11438e-23
      366.521   1.08309e-23
      366.618   1.05296e-23
      366.716   1.02336e-23
      366.814   9.94598e-24
      366.912   9.66633e-24
      367.010   9.39416e-24
      367.107   9.13233e-24
      367.205   8.87498e-24
      367.303   8.62484e-24
      367.401   8.38168e-24
      367.499   8.14516e-24
      367.597   7.91527e-24
      367.695   7.69179e-24
      367.793   7.47456e-24
      367.891   7.26335e-24
      367.989   7.05785e-24
      368.087   6.85820e-24
      368.185   6.66411e-24
      368.283   6.47535e-24
      368.381   6.29179e-24
      368.480   6.11168e-24
      368.578   5.93831e-24
      368.676   5.76986e-24
      368.774   5.60610e-24
      368.873   5.44529e-24
      368.971   5.29056e-24
      369.069   5.14012e-24
      369.168   4.99237e-24
      369.266   4.85030e-24
      369.364   4.71220e-24
      369.463   4.57660e-24
      369.561   4.44618e-24
      369.660   4.31812e-24
      369.758   4.19493e-24
      369.857   4.07402e-24
      369.955   3.95770e-24
      370.054   3.84346e-24
      370.153   3.73248e-24
      370.251   3.62575e-24
      370.350   3.52098e-24
      370.449   3.41921e-24
      370.547   3.32129e-24
      370.646   3.22510e-24
      370.745   3.13175e-24
      370.844   3.04103e-24
      370.943   2.95289e-24
      371.041   2.86813e-24
      371.140   2.78489e-24
      371.239   2.70403e-24
      371.338   2.62552e-24
      371.437   2.54925e-24
      371.536   2.47516e-24
      371.635   2.40315e-24
      371.734   2.33324e-24
      371.833   2.26533e-24
      371.932   2.19936e-24
      372.032   2.13463e-24
      372.131   2.07238e-24
      372.230   2.01196e-24
      372.329   1.95326e-24
      372.428   1.89622e-24
      372.528   1.84030e-24
      372.627   1.78655e-24
      372.726   1.73433e-24
      372.826   1.68311e-24
      372.925   1.63386e-24
      373.024   1.58602e-24
      373.124   1.53909e-24
      373.223   1.49402e-24
      373.323   1.44980e-24
      373.422   1.40728e-24
      373.522   1.36557e-24
      373.621   1.32551e-24
      373.721   1.28619e-24
      373.820   1.24841e-24
      373.920   1.21136e-24
      374.020   1.17536e-24
      374.119   1.14080e-24
      374.219   1.10687e-24
      374.319   1.07397e-24
      374.419   1.04204e-24
      374.518   1.01133e-24
      374.618   9.81216e-25
      374.718   9.51964e-25
      374.818   9.23608e-25
      374.918   8.96088e-25
      375.018   8.69355e-25
      375.118   8.43423e-25
      375.218   8.18237e-25
      375.318   7.93804e-25
      375.418   7.70076e-25
      375.518   7.47071e-25
      375.618   7.24741e-25
      375.718   7.03055e-25
      375.818   6.82018e-25
      375.918   6.61600e-25
      376.019   6.41598e-25
      376.119   6.22372e-25
      376.219   6.03721e-25
      376.319   5.85612e-25
      376.420   5.67878e-25
      376.520   5.50838e-25
      376.620   5.34309e-25
      376.721   5.18102e-25
      376.821   5.02540e-25
      376.922   4.87288e-25
      377.022   4.72635e-25
      377.122   4.58425e-25
      377.223   4.44498e-25
      377.323   4.31125e-25
      377.424   4.18013e-25
      377.525   4.05302e-25
      377.625   3.93091e-25
      377.726   3.81128e-25
      377.827   3.69526e-25
      377.927   3.58379e-25
      378.028   3.47464e-25
      378.129   3.36873e-25
      378.230   3.26598e-25
      378.330   3.16733e-25
      378.431   3.07069e-25
      378.532   2.97703e-25
      378.633   2.88611e-25
      378.734   2.79795e-25
      378.835   2.71248e-25
      378.936   2.62960e-25
      379.037   2.54922e-25
      379.138   2.47125e-25
      379.239   2.39563e-25
      379.340   2.32237e-25
      379.441   2.25129e-25
      379.542   2.18234e-25
      379.643   2.11552e-25
      379.745   2.05008e-25
      379.846   1.98724e-25
      379.947   1.92630e-25
      380.048   1.86725e-25
      380.150   1.80941e-25
      380.251   1.75388e-25
      380.352   1.70007e-25
      380.454   1.64738e-25
      380.555   1.59679e-25
      380.656   1.54772e-25
      380.758   1.49970e-25
      380.859   1.45361e-25
      380.961   1.40850e-25
      381.062   1.36519e-25
      381.164   1.32278e-25
      381.266   1.28169e-25
      381.367   1.24224e-25
      381.469   1.20364e-25
      381.570   1.16658e-25
      381.672   1.13031e-25
      381.774   1.09514e-25
      381.876   1.06106e-25
      381.977   1.02836e-25
      382.079   9.96355e-26
      382.181   9.65327e-26
      382.283   9.35281e-26
      382.385   9.06145e-26
      382.487   8.77893e-26
      382.589   8.50541e-26
      382.691   8.24030e-26
      382.793   7.98342e-26
      382.895   7.73444e-26
      382.997   7.49312e-26
      383.099   7.25931e-26
      383.201   7.03283e-26
      383.303   6.81326e-26
      383.405   6.60051e-26
      383.507   6.39436e-26
      383.610   6.19277e-26
      383.712   5.99924e-26
      383.814   5.81187e-26
      383.916   5.63027e-26
      384.019   5.45256e-26
      384.121   5.28204e-26
      384.223   5.11687e-26
      384.326   4.95533e-26
      384.428   4.80019e-26
      384.531   4.64841e-26
      384.633   4.50282e-26
      384.736   4.36036e-26
      384.838   4.22369e-26
      384.941   4.09004e-26
      385.043   3.96178e-26
      385.146   3.83639e-26
      385.249   3.71494e-26
      385.351   3.59841e-26
      385.454   3.48442e-26
      385.557   3.37407e-26
      385.660   3.26715e-26
      385.762   3.16463e-26
      385.865   3.06434e-26
      385.968   2.96717e-26
      386.071   2.87306e-26
      386.174   2.78195e-26
      386.277   2.69374e-26
      386.380   2.60829e-26
      386.483   2.52553e-26
      386.586   2.44543e-26
      386.689   2.36782e-26
      386.792   2.29265e-26
      386.895   2.21987e-26
      386.998   2.14939e-26
      387.101   2.08115e-26
      387.204   2.01501e-26
      387.308   1.95039e-26
      387.411   1.88841e-26
      387.514   1.82840e-26
      387.617   1.77030e-26
      387.721   1.71351e-26
      387.824   1.65904e-26
      387.927   1.60625e-26
      388.031   1.55469e-26
      388.134   1.50524e-26
      388.238   1.45693e-26
      388.341   1.41056e-26
      388.445   1.36525e-26
      388.548   1.32178e-26
      388.652   1.27932e-26
      388.755   1.23860e-26
      388.859   1.19879e-26
      388.962   1.16062e-26
      389.066   1.12329e-26
      389.170   1.08720e-26
      389.274   1.05223e-26
      389.377   1.01870e-26
      389.481   9.85913e-27
      389.585   9.54202e-27
      389.689   9.23497e-27
      389.793   8.93763e-27
      389.897   8.65007e-27
      390.000   8.37413e-27
      390.104   8.10460e-27
      390.208   7.84353e-27
      390.312   7.59093e-27
      390.416   7.34643e-27
      390.520   7.10961e-27
      390.625   6.87814e-27
      390.729   6.65651e-27
      390.833   6.44182e-27
      390.937   6.23406e-27
      391.041   6.03305e-27
      391.145   5.83849e-27
      391.250   5.64829e-27
      391.354   5.46610e-27
      391.458   5.28973e-27
      391.563   5.11735e-27
      391.667   4.95218e-27
      391.771   4.79233e-27
      391.876   4.63610e-27
      391.980   4.48634e-27
      392.085   4.34006e-27
      392.189   4.19987e-27
      392.294   4.06286e-27
      392.398   3.93158e-27
      392.503   3.80331e-27
      392.607   3.68037e-27
      392.712   3.56029e-27
      392.817   3.44402e-27
      392.921   3.33268e-27
      393.026   3.22384e-27
      393.131   3.11860e-27
      393.236   3.01667e-27
      393.340   2.91906e-27
      393.445   2.82371e-27
      393.550   2.73144e-27
      393.655   2.64215e-27
      393.760   2.55579e-27
      393.865   2.47221e-27
      393.970   2.39142e-27
      394.075   2.31317e-27
      394.180   2.23753e-27
      394.285   2.16432e-27
      394.390   2.09352e-27
      394.495   2.02497e-27
      394.600   1.95869e-27
      394.706   1.89397e-27
      394.811   1.83197e-27
      394.916   1.77193e-27
      395.021   1.71388e-27
      395.126   1.65776e-27
      395.232   1.60290e-27
      395.337   1.55035e-27
      395.443   1.49906e-27
      395.548   1.44991e-27
      395.653   1.40237e-27
      395.759   1.35592e-27
      395.864   1.31145e-27
      395.970   1.26801e-27
      396.075   1.22639e-27
      396.181   1.18575e-27
      396.286   1.14680e-27
      396.392   1.10880e-27
      396.498   1.07205e-27
      396.603   1.03680e-27
      396.709   1.00242e-27
      396.815   9.69159e-28
      396.921   9.36982e-28
      397.026   9.06171e-28
      397.132   8.76071e-28
      397.238   8.46987e-28
      397.344   8.18827e-28
      397.450   7.91650e-28
      397.556   7.65322e-28
      397.662   7.39877e-28
      397.768   7.15285e-28
      397.874   6.91491e-28
      397.980   6.68488e-28
      398.086   6.46235e-28
      398.192   6.24734e-28
      398.298   6.03931e-28
      398.404   5.83818e-28
      398.510   5.64369e-28
      398.617   5.45403e-28
      398.723   5.27228e-28
      398.829   5.09644e-28
      398.935   4.92647e-28
      399.042   4.76070e-28
      399.148   4.60180e-28
      399.255   4.44690e-28
      399.361   4.29848e-28
      399.467   4.15484e-28
      399.574   4.01487e-28
      399.680   3.88070e-28
      399.787   3.74979e-28
      399.893       0.00000
      400.000       0.00000
