Filter Ti-poly
observation_date 07-Jan-2024 05:00:00
wavelength effective area
      1.00000   2.76775e-10
      1.10000   7.88636e-10
      1.20000   2.04567e-09
      1.30000   4.87931e-09
      1.40000   1.10399e-08
      1.50000   2.34770e-08
      1.60000   4.73581e-08
      1.70000   9.15803e-08
      1.80000   1.69774e-07
      1.90000   3.03734e-07
      2.00000   5.25437e-07
      2.10000   8.82827e-07
      2.20000   1.44756e-06
      2.30000   2.31327e-06
      2.40000   3.60933e-06
      2.50000   5.78499e-06
      2.60000   8.95600e-06
      2.70000   1.33520e-05
      2.80000   1.95252e-05
      2.90000   2.82594e-05
      3.00000   4.02625e-05
      3.10000   5.66272e-05
      3.20000   7.87745e-05
      3.30000   0.000108470
      3.40000   0.000147805
      3.50000   0.000199458
      3.60000   0.000267925
      3.70000   0.000356076
      3.80000   0.000471276
      3.90000   0.000620292
      4.00000   0.000811354
      4.10000    0.00105636
      4.20000    0.00137046
      4.30000    0.00177292
      4.40000    0.00228748
      4.50000    0.00294330
      4.60000    0.00377449
      4.70000    0.00484029
      4.80000    0.00620078
      4.90000    0.00784161
      5.00000     0.0101779
      5.10000     0.0130240
      5.20000     0.0167157
      5.30000     0.0212726
      5.40000     0.0270285
      5.50000     0.0344023
      5.60000     0.0424450
      5.70000     0.0551712
      5.80000     0.0646773
      5.90000     0.0987479
      6.00000      0.132736
      6.10000      0.169640
      6.20000      0.208306
      6.30000      0.245179
      6.40000      0.276813
      6.50000      0.300094
      6.60000      0.310615
      6.70000      0.320283
      6.80000      0.320692
      6.90000      0.420701
      7.00000      0.457479
      7.10000      0.483790
      7.20000      0.504677
      7.30000      0.521698
      7.40000      0.534674
      7.50000      0.544986
      7.60000      0.552743
      7.70000      0.556483
      7.80000      0.555130
      7.90000      0.554436
      8.00000      0.801517
      8.10000      0.877043
      8.20000      0.890891
      8.30000      0.900659
      8.40000      0.906953
      8.50000      0.911800
      8.60000      0.914921
      8.70000      0.916916
      8.80000      0.917486
      8.90000      0.917095
      9.00000      0.915679
      9.10000      0.913287
      9.20000      0.910103
      9.30000      0.906048
      9.40000      0.901265
      9.50000      0.895813
      9.60000      0.889644
      9.70000      0.882866
      9.80000      0.875628
      9.90000      0.867957
      10.0000      0.859913
      10.1000      0.851510
      10.2000      0.842770
      10.3000      0.833642
      10.4000      0.824151
      10.5000      0.814322
      10.6000      0.804196
      10.7000      0.793796
      10.8000      0.783132
      10.9000      0.772237
      11.0000      0.761124
      11.1000      0.749827
      11.2000      0.738352
      11.3000      0.726732
      11.4000      0.714962
      11.5000      0.703043
      11.6000      0.690996
      11.7000      0.678769
      11.8000      0.666442
      11.9000      0.653936
      12.0000      0.640575
      12.1000      0.629552
      12.2000      0.629552
      12.3000      0.622894
      12.4000      0.611635
      12.5000      0.599998
      12.6000      0.588230
      12.7000      0.576427
      12.8000      0.564628
      12.9000      0.552844
      13.0000      0.541116
      13.1000      0.529476
      13.2000      0.517937
      13.3000      0.506516
      13.4000      0.495228
      13.5000      0.484203
      13.6000      0.473417
      13.7000      0.462759
      13.8000      0.452223
      13.9000      0.441830
      14.0000      0.431578
      14.1000      0.421453
      14.2000      0.411455
      14.3000      0.401582
      14.4000      0.391825
      14.5000      0.382196
      14.6000      0.372697
      14.7000      0.363320
      14.8000      0.354068
      14.9000      0.344944
      15.0000      0.335950
      15.1000      0.327094
      15.2000      0.318400
      15.3000      0.309851
      15.4000      0.301441
      15.5000      0.293173
      15.6000      0.285065
      15.7000      0.277112
      15.8000      0.269352
      15.9000      0.261757
      16.0000      0.254322
      16.1000      0.247051
      16.2000      0.239981
      16.3000      0.233063
      16.4000      0.226283
      16.5000      0.219636
      16.6000      0.213137
      16.7000      0.206789
      16.8000      0.200565
      16.9000      0.194462
      17.0000      0.188504
      17.1000      0.182689
      17.2000      0.176988
      17.3000      0.171406
      17.4000      0.166069
      17.5000      0.160942
      17.6000      0.155995
      17.7000      0.151256
      17.8000      0.146814
      17.9000      0.142472
      18.0000      0.138196
      18.1000      0.134033
      18.2000      0.129911
      18.3000      0.125821
      18.4000      0.121757
      18.5000      0.117729
      18.6000      0.113720
      18.7000      0.109719
      18.8000      0.105829
      18.9000      0.102022
      19.0000     0.0983300
      19.1000     0.0947592
      19.2000     0.0912767
      19.3000     0.0879342
      19.4000     0.0847041
      19.5000     0.0815591
      19.6000     0.0785735
      19.7000     0.0756717
      19.8000     0.0728459
      19.9000     0.0701602
      20.0000     0.0675332
      20.1000     0.0649860
      20.2000     0.0625255
      20.3000     0.0601158
      20.4000     0.0578008
      20.5000     0.0555436
      20.6000     0.0533391
      20.7000     0.0512260
      20.8000     0.0491535
      20.9000     0.0471528
      21.0000     0.0453038
      21.1000     0.0435717
      21.2000     0.0421857
      21.3000     0.0408999
      21.4000     0.0398297
      21.5000     0.0390021
      21.6000     0.0384186
      21.7000     0.0378074
      21.8000     0.0371869
      21.9000     0.0364888
      22.0000     0.0357439
      22.1000     0.0348828
      22.2000     0.0338146
      22.3000     0.0325683
      22.4000     0.0306663
      22.5000     0.0285666
      22.6000     0.0240500
      22.7000     0.0212911
      22.8000     0.0274068
      22.9000     0.0350845
      23.0000     0.0439873
      23.1000     0.0493809
      23.2000     0.0514330
      23.3000     0.0512475
      23.4000     0.0499333
      23.5000     0.0485899
      23.6000     0.0472448
      23.7000     0.0458189
      23.8000     0.0443948
      23.9000     0.0430084
      24.0000     0.0416316
      24.1000     0.0402760
      24.2000     0.0389375
      24.3000     0.0376439
      24.4000     0.0363684
      24.5000     0.0351303
      24.6000     0.0339154
      24.7000     0.0327430
      24.8000     0.0315940
      24.9000     0.0304830
      25.0000     0.0293969
      25.1000     0.0283500
      25.2000     0.0273264
      25.3000     0.0263395
      25.4000     0.0253754
      25.5000     0.0244498
      25.6000     0.0235448
      25.7000     0.0226785
      25.8000     0.0218292
      25.9000     0.0210189
      26.0000     0.0202216
      26.1000     0.0194637
      26.2000     0.0187148
      26.3000     0.0180080
      26.4000     0.0173058
      26.5000     0.0166464
      26.6000     0.0159909
      26.7000     0.0153738
      26.8000     0.0147651
      26.9000     0.0141863
      27.0000     0.0136190
      27.1000     0.0130733
      27.2000     0.0125426
      27.3000     0.0540533
      27.4000      0.147849
      27.5000      0.216028
      27.6000      0.212404
      27.7000      0.208794
      27.8000      0.205113
      27.9000      0.201451
      28.0000      0.197860
      28.1000      0.194298
      28.2000      0.190795
      28.3000      0.187337
      28.4000      0.183921
      28.5000      0.180569
      28.6000      0.177242
      28.7000      0.174021
      28.8000      0.170818
      28.9000      0.167681
      29.0000      0.164575
      29.1000      0.161514
      29.2000      0.158502
      29.3000      0.155515
      29.4000      0.152598
      29.5000      0.149698
      29.6000      0.146862
      29.7000      0.144055
      29.8000      0.141290
      29.9000      0.138576
      30.0000      0.135880
      30.1000      0.133256
      30.2000      0.130648
      30.3000      0.133126
      30.4000      0.138485
      30.5000      0.142118
      30.6000      0.139460
      30.7000      0.136817
      30.8000      0.134236
      30.9000      0.131683
      31.0000      0.129165
      31.1000      0.126705
      31.2000      0.124259
      31.3000      0.121876
      31.4000      0.119517
      31.5000      0.117195
      31.6000      0.114933
      31.7000      0.112686
      31.8000      0.110492
      31.9000      0.108321
      32.0000      0.106162
      32.1000      0.104012
      32.2000      0.101876
      32.3000     0.0997932
      32.4000     0.0977408
      32.5000     0.0957099
      32.6000     0.0937612
      32.7000     0.0918275
      32.8000     0.0899340
      32.9000     0.0880781
      33.0000     0.0862339
      33.1000     0.0844973
      33.2000     0.0827873
      33.3000     0.0811010
      33.4000     0.0794598
      33.5000     0.0778300
      33.6000     0.0762393
      33.7000     0.0746789
      33.8000     0.0731279
      33.9000     0.0716282
      34.0000     0.0701433
      34.1000     0.0686853
      34.2000     0.0672690
      34.3000     0.0658609
      34.4000     0.0644808
      34.5000     0.0631340
      34.6000     0.0617952
      34.7000     0.0604869
      34.8000     0.0591970
      34.9000     0.0579148
      35.0000     0.0566795
      35.1000     0.0554559
      35.2000     0.0542474
      35.3000     0.0531112
      35.4000     0.0519818
      35.5000     0.0508702
      35.6000     0.0497924
      35.7000     0.0487212
      35.8000     0.0476729
      35.9000     0.0466516
      36.0000     0.0456364
      36.1000     0.0446482
      36.2000     0.0436812
      36.3000     0.0427200
      36.4000     0.0417886
      36.5000     0.0408736
      36.6000     0.0399642
      36.7000     0.0390867
      36.8000     0.0382220
      36.9000     0.0373627
      37.0000     0.0365360
      37.1000     0.0357197
      37.2000     0.0349084
      37.3000     0.0341301
      37.4000     0.0333603
      37.5000     0.0325953
      37.6000     0.0318623
      37.7000     0.0311368
      37.8000     0.0304160
      37.9000     0.0297259
      38.0000     0.0290434
      38.1000     0.0283651
      38.2000     0.0277153
      38.3000     0.0270735
      38.4000     0.0264358
      38.5000     0.0258239
      38.6000     0.0252211
      38.7000     0.0246221
      38.8000     0.0240459
      38.9000     0.0234805
      39.0000     0.0229186
      39.1000     0.0223759
      39.2000     0.0218460
      39.3000     0.0213195
      39.4000     0.0208082
      39.5000     0.0203122
      39.6000     0.0198195
      39.7000     0.0193377
      39.8000     0.0188741
      39.9000     0.0184135
      40.0000     0.0179596
      40.1000     0.0175273
      40.2000     0.0170978
      40.3000     0.0166712
      40.4000     0.0162670
      40.5000     0.0158665
      40.6000     0.0154686
      40.7000     0.0150875
      40.8000     0.0147143
      40.9000     0.0143436
      41.0000     0.0139841
      41.1000     0.0136367
      41.2000     0.0132917
      41.3000     0.0129525
      41.4000     0.0126302
      41.5000     0.0123099
      41.6000     0.0119919
      41.7000     0.0116905
      41.8000     0.0113932
      41.9000     0.0110979
      42.0000     0.0108134
      42.1000     0.0105381
      42.2000     0.0102646
      42.3000    0.00999559
      42.4000    0.00974069
      42.5000    0.00948748
      42.6000    0.00923595
      42.7000    0.00899714
      42.8000    0.00876287
      42.9000    0.00853015
      43.0000    0.00830400
      43.1000    0.00808770
      43.2000    0.00787286
      43.3000    0.00765945
      43.4000     0.0233491
      43.5000     0.0434152
      43.6000     0.0700794
      43.7000     0.0947047
      43.8000      0.106358
      43.9000      0.107991
      44.0000      0.105895
      44.1000      0.100288
      44.2000     0.0985834
      44.3000     0.0972203
      44.4000     0.0958781
      44.5000     0.0945624
      44.6000     0.0932502
      44.7000     0.0919415
      44.8000     0.0906746
      44.9000     0.0894165
      45.0000     0.0881616
      45.1000     0.0869216
      45.2000     0.0857124
      45.3000     0.0845066
      45.4000     0.0833038
      45.5000     0.0821306
      45.6000     0.0809728
      45.7000     0.0798182
      45.8000     0.0786679
      45.9000     0.0775569
      46.0000     0.0764486
      46.1000     0.0753432
      46.2000     0.0742875
      46.3000     0.0733149
      46.4000     0.0723450
      46.5000     0.0713775
      46.6000     0.0704451
      46.7000     0.0695313
      46.8000     0.0686200
      46.9000     0.0677109
      47.0000     0.0668499
      47.1000     0.0659940
      47.2000     0.0651404
      47.3000     0.0642943
      47.4000     0.0634761
      47.5000     0.0626600
      47.6000     0.0618460
      47.7000     0.0610476
      47.8000     0.0602729
      47.9000     0.0595001
      48.0000     0.0587294
      48.1000     0.0579761
      48.2000     0.0572364
      48.3000     0.0564987
      48.4000     0.0557628
      48.5000     0.0550533
      48.6000     0.0543554
      48.7000     0.0536593
      48.8000     0.0529649
      48.9000     0.0522937
      49.0000     0.0516284
      49.1000     0.0509648
      49.2000     0.0503031
      49.3000     0.0496638
      49.4000     0.0490278
      49.5000     0.0483935
      49.6000     0.0477608
      49.7000     0.0471506
      49.8000     0.0465424
      49.9000     0.0459357
      50.0000     0.0453313
      50.1000     0.0447455
      50.2000     0.0441736
      50.3000     0.0436083
      50.4000     0.0430494
      50.5000     0.0424964
      50.6000     0.0419500
      50.7000     0.0414101
      50.8000     0.0408764
      50.9000     0.0403492
      51.0000     0.0398285
      51.1000     0.0393142
      51.2000     0.0388056
      51.3000     0.0383038
      51.4000     0.0378086
      51.5000     0.0373178
      51.6000     0.0368323
      51.7000     0.0363519
      51.8000     0.0358721
      51.9000     0.0353974
      52.0000     0.0349278
      52.1000     0.0344638
      52.2000     0.0340048
      52.3000     0.0335505
      52.4000     0.0331030
      52.5000     0.0326607
      52.6000     0.0322130
      52.7000     0.0317603
      52.8000     0.0313126
      52.9000     0.0308710
      53.0000     0.0304355
      53.1000     0.0300046
      53.2000     0.0295798
      53.3000     0.0291600
      53.4000     0.0287450
      53.5000     0.0283355
      53.6000     0.0279310
      53.7000     0.0275312
      53.8000     0.0271364
      53.9000     0.0267465
      54.0000     0.0263619
      54.1000     0.0259832
      54.2000     0.0256088
      54.3000     0.0252382
      54.4000     0.0248726
      54.5000     0.0245114
      54.6000     0.0241548
      54.7000     0.0238040
      54.8000     0.0234577
      54.9000     0.0231155
      55.0000     0.0227776
      55.1000     0.0224434
      55.2000     0.0221033
      55.3000     0.0217592
      55.4000     0.0214198
      55.5000     0.0210844
      55.6000     0.0207537
      55.7000     0.0204275
      55.8000     0.0201055
      55.9000     0.0197883
      56.0000     0.0194785
      56.1000     0.0191692
      56.2000     0.0188607
      56.3000     0.0185567
      56.4000     0.0182566
      56.5000     0.0179607
      56.6000     0.0176694
      56.7000     0.0173824
      56.8000     0.0170991
      56.9000     0.0168204
      57.0000     0.0165524
      57.1000     0.0162923
      57.2000     0.0160359
      57.3000     0.0157828
      57.4000     0.0155331
      57.5000     0.0152868
      57.6000     0.0150439
      57.7000     0.0148042
      57.8000     0.0145685
      57.9000     0.0143365
      58.0000     0.0141076
      58.1000     0.0138815
      58.2000     0.0136587
      58.3000     0.0134390
      58.4000     0.0132224
      58.5000     0.0130090
      58.6000     0.0127990
      58.7000     0.0125920
      58.8000     0.0123877
      58.9000     0.0121863
      59.0000     0.0119878
      59.1000     0.0117921
      59.2000     0.0115993
      59.3000     0.0114095
      59.4000     0.0112224
      59.5000     0.0110381
      59.6000     0.0108565
      59.7000     0.0106774
      59.8000     0.0105008
      59.9000     0.0103268
      60.0000     0.0101557
      60.1000    0.00998699
      60.2000    0.00982076
      60.3000    0.00965709
      60.4000    0.00949595
      60.5000    0.00933734
      60.6000    0.00918086
      60.7000    0.00902649
      60.8000    0.00887434
      60.9000    0.00872428
      61.0000    0.00857661
      61.1000    0.00843139
      61.2000    0.00828837
      61.3000    0.00814749
      61.4000    0.00800876
      61.5000    0.00787214
      61.6000    0.00773748
      61.7000    0.00760527
      61.8000    0.00747735
      61.9000    0.00735218
      62.0000    0.00722889
      62.1000    0.00710744
      62.2000    0.00698803
      62.3000    0.00687042
      62.4000    0.00675447
      62.5000    0.00664023
      62.6000    0.00652771
      62.7000    0.00641731
      62.8000    0.00631358
      62.9000    0.00621152
      63.0000    0.00611100
      63.1000    0.00601195
      63.2000    0.00591426
      63.3000    0.00581792
      63.4000    0.00572303
      63.5000    0.00562965
      63.6000    0.00553756
      63.7000    0.00544680
      63.8000    0.00535748
      63.9000    0.00526955
      64.0000    0.00518292
      64.1000    0.00509760
      64.2000    0.00501366
      64.3000    0.00493104
      64.4000    0.00484959
      64.5000    0.00476924
      64.6000    0.00469005
      64.7000    0.00461203
      64.8000    0.00453516
      64.9000    0.00445944
      65.0000    0.00438493
      65.1000    0.00431173
      65.2000    0.00423967
      65.3000    0.00416863
      65.4000    0.00409860
      65.5000    0.00402959
      65.6000    0.00396156
      65.7000    0.00389458
      65.8000    0.00382869
      65.9000    0.00376391
      66.0000    0.00370020
      66.1000    0.00363753
      66.2000    0.00357580
      66.3000    0.00351500
      66.4000    0.00345511
      66.5000    0.00339611
      66.6000    0.00333798
      66.7000    0.00328076
      66.8000    0.00322454
      66.9000    0.00316961
      67.0000    0.00311588
      67.1000    0.00306302
      67.2000    0.00301098
      67.3000    0.00295979
      67.4000    0.00290936
      67.5000    0.00285968
      67.6000    0.00281076
      67.7000    0.00276263
      67.8000    0.00271519
      67.9000    0.00266830
      68.0000    0.00262215
      68.1000    0.00257681
      68.2000    0.00253218
      68.3000    0.00248826
      68.4000    0.00244505
      68.5000    0.00240254
      68.6000    0.00236072
      68.7000    0.00231959
      68.8000    0.00227911
      68.9000    0.00223985
      69.0000    0.00220435
      69.1000    0.00217228
      69.2000    0.00214119
      69.3000    0.00211090
      69.4000    0.00208181
      69.5000    0.00205219
      69.6000    0.00202171
      69.7000    0.00199248
      69.8000    0.00196465
      69.9000    0.00193720
      70.0000    0.00191006
      70.1000    0.00188274
      70.2000    0.00185676
      70.3000    0.00183211
      70.4000    0.00180756
      70.5000    0.00178365
      70.6000    0.00176032
      70.7000    0.00173731
      70.8000    0.00171456
      70.9000    0.00169128
      71.0000    0.00166756
      71.1000    0.00164493
      71.2000    0.00162339
      71.3000    0.00160057
      71.4000    0.00157620
      71.5000    0.00155374
      71.6000    0.00153405
      71.7000    0.00151424
      71.8000    0.00149379
      71.9000    0.00147405
      72.0000    0.00145578
      72.1000    0.00143713
      72.2000    0.00141579
      72.3000    0.00139482
      72.4000    0.00137641
      72.5000    0.00135828
      72.6000    0.00134039
      72.7000    0.00132274
      72.8000    0.00130532
      72.9000    0.00128812
      73.0000    0.00127154
      73.1000    0.00125537
      73.2000    0.00123941
      73.3000    0.00122364
      73.4000    0.00120822
      73.5000    0.00119325
      73.6000    0.00117848
      73.7000    0.00116390
      73.8000    0.00114950
      73.9000    0.00113525
      74.0000    0.00112126
      74.1000    0.00110855
      74.2000    0.00109630
      74.3000    0.00108308
      74.4000    0.00106918
      74.5000    0.00105568
      74.6000    0.00104284
      74.7000    0.00103017
      74.8000    0.00101771
      74.9000    0.00100552
      75.0000   0.000993395
      75.1000   0.000981360
      75.2000   0.000969449
      75.3000   0.000957668
      75.4000   0.000946136
      75.5000   0.000934984
      75.6000   0.000923967
      75.7000   0.000913083
      75.8000   0.000902342
      75.9000   0.000891863
      76.0000   0.000881627
      76.1000   0.000872159
      76.2000   0.000862883
      76.3000   0.000853717
      76.4000   0.000844813
      76.5000   0.000836014
      76.6000   0.000827294
      76.7000   0.000818657
      76.8000   0.000810104
      76.9000   0.000801642
      77.0000   0.000793275
      77.1000   0.000785006
      77.2000   0.000776829
      77.3000   0.000768734
      77.4000   0.000760716
      77.5000   0.000752754
      77.6000   0.000744698
      77.7000   0.000736722
      77.8000   0.000728821
      77.9000   0.000720992
      78.0000   0.000713133
      78.1000   0.000705048
      78.2000   0.000697069
      78.3000   0.000689858
      78.4000   0.000682967
      78.5000   0.000676073
      78.6000   0.000669034
      78.7000   0.000662064
      78.8000   0.000654900
      78.9000   0.000647741
      79.0000   0.000640655
      79.1000   0.000633638
      79.2000   0.000626708
      79.3000   0.000620062
      79.4000   0.000613562
      79.5000   0.000607065
      79.6000   0.000600415
      79.7000   0.000593825
      79.8000   0.000587189
      79.9000   0.000580564
      80.0000   0.000573980
      80.1000   0.000567211
      80.2000   0.000560500
      80.3000   0.000553587
      80.4000   0.000546493
      80.5000   0.000539468
      80.6000   0.000532531
      80.7000   0.000525677
      80.8000   0.000518947
      80.9000   0.000512395
      81.0000   0.000505916
      81.1000   0.000499519
      81.2000   0.000493201
      81.3000   0.000486969
      81.4000   0.000481301
      81.5000   0.000475726
      81.6000   0.000470354
      81.7000   0.000465334
      81.8000   0.000460382
      81.9000   0.000455677
      82.0000   0.000451124
      82.1000   0.000446633
      82.2000   0.000442028
      82.3000   0.000437472
      82.4000   0.000433068
      82.5000   0.000428868
      82.6000   0.000424697
      82.7000   0.000420434
      82.8000   0.000416059
      82.9000   0.000411718
      83.0000   0.000407464
      83.1000   0.000403273
      83.2000   0.000399123
      83.3000   0.000395016
      83.4000   0.000390958
      83.5000   0.000386958
      83.6000   0.000383103
      83.7000   0.000379285
      83.8000   0.000375475
      83.9000   0.000371633
      84.0000   0.000367825
      84.1000   0.000364113
      84.2000   0.000360526
      84.3000   0.000356972
      84.4000   0.000353406
      84.5000   0.000349838
      84.6000   0.000346306
      84.7000   0.000342876
      84.8000   0.000339519
      84.9000   0.000336199
      85.0000   0.000332817
      85.1000   0.000329442
      85.2000   0.000326104
      85.3000   0.000322944
      85.4000   0.000319838
      85.5000   0.000316764
      85.6000   0.000313646
      85.7000   0.000310552
      85.8000   0.000307485
      85.9000   0.000304445
      86.0000   0.000301430
      86.1000   0.000298444
      86.2000   0.000295580
      86.3000   0.000292744
      86.4000   0.000289935
      86.5000   0.000287150
      86.6000   0.000284389
      86.7000   0.000281652
      86.8000   0.000278721
      86.9000   0.000275812
      87.0000   0.000272934
      87.1000   0.000270134
      87.2000   0.000267368
      87.3000   0.000264631
      87.4000   0.000261844
      87.5000   0.000259069
      87.6000   0.000256318
      87.7000   0.000253638
      87.8000   0.000250993
      87.9000   0.000248371
      88.0000   0.000245774
      88.1000   0.000243200
      88.2000   0.000240654
      88.3000   0.000238191
      88.4000   0.000235805
      88.5000   0.000233450
      88.6000   0.000231099
      88.7000   0.000228742
      88.8000   0.000226411
      88.9000   0.000224099
      89.0000   0.000221801
      89.1000   0.000219526
      89.2000   0.000217284
      89.3000   0.000215095
      89.4000   0.000212969
      89.5000   0.000210863
      89.6000   0.000208777
      89.7000   0.000206708
      89.8000   0.000204655
      89.9000   0.000202618
      90.0000   0.000200599
      90.1000   0.000198600
      90.2000   0.000196572
      90.3000   0.000194454
      90.4000   0.000192357
      90.5000   0.000190285
      90.6000   0.000188272
      90.7000   0.000186273
      90.8000   0.000184272
      90.9000   0.000182249
      91.0000   0.000180233
      91.1000   0.000178238
      91.2000   0.000176235
      91.3000   0.000174208
      91.4000   0.000172196
      91.5000   0.000170206
      91.6000   0.000168236
      91.7000   0.000166464
      91.8000   0.000164984
      91.9000   0.000163841
      92.0000   0.000162506
      92.1000   0.000161139
      92.2000   0.000159673
      92.3000   0.000158122
      92.4000   0.000156529
      92.5000   0.000154953
      92.6000   0.000153393
      92.7000   0.000151849
      92.8000   0.000150320
      92.9000   0.000148825
      93.0000   0.000147391
      93.1000   0.000145969
      93.2000   0.000144561
      93.3000   0.000143223
      93.4000   0.000141917
      93.5000   0.000140622
      93.6000   0.000139334
      93.7000   0.000138049
      93.8000   0.000136763
      93.9000   0.000135488
      94.0000   0.000134223
      94.1000   0.000132968
      94.2000   0.000131725
      94.3000   0.000130505
      94.4000   0.000129334
      94.5000   0.000128177
      94.6000   0.000127031
      94.7000   0.000125897
      94.8000   0.000124772
      94.9000   0.000123656
      95.0000   0.000122549
      95.1000   0.000121453
      95.2000   0.000120363
      95.3000   0.000119280
      95.4000   0.000118209
      95.5000   0.000117167
      95.6000   0.000116133
      95.7000   0.000115107
      95.8000   0.000114075
      95.9000   0.000113044
      96.0000   0.000112020
      96.1000   0.000111003
      96.2000   0.000109993
      96.3000   0.000108993
      96.4000   0.000108002
      96.5000   0.000107019
      96.6000   0.000106049
      96.7000   0.000105090
      96.8000   0.000104135
      96.9000   0.000103187
      97.0000   0.000102247
      97.1000   0.000101319
      97.2000   0.000100398
      97.3000   9.94702e-05
      97.4000   9.85387e-05
      97.5000   9.76180e-05
      97.6000   9.67061e-05
      97.7000   9.58087e-05
      97.8000   9.49232e-05
      97.9000   9.40460e-05
      98.0000   9.31751e-05
      98.1000   9.23102e-05
      98.2000   9.14529e-05
      98.3000   9.06720e-05
      98.4000   8.99307e-05
      98.5000   8.92174e-05
      98.6000   8.85097e-05
      98.7000   8.78070e-05
      98.8000   8.71090e-05
      98.9000   8.64158e-05
      99.0000   8.57304e-05
      99.1000   8.50504e-05
      99.2000   8.43707e-05
      99.3000   8.36708e-05
      99.4000   8.29772e-05
      99.5000   8.22893e-05
      99.6000   8.16128e-05
      99.7000   8.09796e-05
      99.8000   8.03682e-05
      99.9000   7.99136e-05
      100.000   7.96964e-05
      100.100   7.94520e-05
      100.200   7.92071e-05
      100.300   7.89620e-05
      100.400   7.87170e-05
      100.500   7.84830e-05
      100.600   7.82476e-05
      100.700   7.80120e-05
      100.800   7.77759e-05
      100.900   7.75398e-05
      101.000   7.73040e-05
      101.100   7.70689e-05
      101.200   7.68348e-05
      101.300   7.66016e-05
      101.400   7.63694e-05
      101.500   7.61118e-05
      101.600   7.58216e-05
      101.700   7.55396e-05
      101.800   7.52606e-05
      101.900   7.49818e-05
      102.000   7.47048e-05
      102.100   7.44399e-05
      102.200   7.41808e-05
      102.300   7.39220e-05
      102.400   7.36635e-05
      102.500   7.34050e-05
      102.600   7.31462e-05
      102.700   7.28872e-05
      102.800   7.26280e-05
      102.900   7.23688e-05
      103.000   7.21099e-05
      103.100   7.18514e-05
      103.200   7.15937e-05
      103.300   7.13369e-05
      103.400   7.10807e-05
      103.500   7.08253e-05
      103.600   7.05705e-05
      103.700   7.03149e-05
      103.800   7.00431e-05
      103.900   6.97520e-05
      104.000   6.94605e-05
      104.100   6.91703e-05
      104.200   6.88891e-05
      104.300   6.86590e-05
      104.400   6.84313e-05
      104.500   6.82043e-05
      104.600   6.79769e-05
      104.700   6.77339e-05
      104.800   6.74844e-05
      104.900   6.72351e-05
      105.000   6.69863e-05
      105.100   6.67492e-05
      105.200   6.65405e-05
      105.300   6.63328e-05
      105.400   6.61252e-05
      105.500   6.59179e-05
      105.600   6.57174e-05
      105.700   6.55184e-05
      105.800   6.53192e-05
      105.900   6.51203e-05
      106.000   6.49309e-05
      106.100   6.47616e-05
      106.200   6.45934e-05
      106.300   6.44249e-05
      106.400   6.42560e-05
      106.500   6.40871e-05
      106.600   6.39181e-05
      106.700   6.37491e-05
      106.800   6.35800e-05
      106.900   6.34112e-05
      107.000   6.32425e-05
      107.100   6.30738e-05
      107.200   6.29054e-05
      107.300   6.27373e-05
      107.400   6.25683e-05
      107.500   6.23988e-05
      107.600   6.22300e-05
      107.700   6.20616e-05
      107.800   6.18942e-05
      107.900   6.17230e-05
      108.000   6.15518e-05
      108.100   6.13805e-05
      108.200   6.12086e-05
      108.300   6.10353e-05
      108.400   6.08567e-05
      108.500   6.06774e-05
      108.600   6.04977e-05
      108.700   6.03172e-05
      108.800   6.01214e-05
      108.900   5.99040e-05
      109.000   5.96863e-05
      109.100   5.94687e-05
      109.200   5.92515e-05
      109.300   5.90347e-05
      109.400   5.88184e-05
      109.500   5.86028e-05
      109.600   5.83880e-05
      109.700   5.81739e-05
      109.800   5.79609e-05
      109.900   5.77491e-05
      110.000   5.75384e-05
      110.100   5.73287e-05
      110.200   5.71196e-05
      110.300   5.69204e-05
      110.400   5.67224e-05
      110.500   5.65247e-05
      110.600   5.63269e-05
      110.700   5.61289e-05
      110.800   5.59306e-05
      110.900   5.57322e-05
      111.000   5.55334e-05
      111.100   5.53345e-05
      111.200   5.51364e-05
      111.300   5.49572e-05
      111.400   5.47781e-05
      111.500   5.45987e-05
      111.600   5.44193e-05
      111.700   5.42406e-05
      111.800   5.40739e-05
      111.900   5.39078e-05
      112.000   5.37419e-05
      112.100   5.35762e-05
      112.200   5.34108e-05
      112.300   5.32340e-05
      112.400   5.30572e-05
      112.500   5.28813e-05
      112.600   5.27060e-05
      112.700   5.25334e-05
      112.800   5.23728e-05
      112.900   5.21838e-05
      113.000   5.20049e-05
      113.100   5.18303e-05
      113.200   5.16501e-05
      113.300   5.14761e-05
      113.400   5.12366e-05
      113.500   5.09809e-05
      113.600   5.07823e-05
      113.700   5.05665e-05
      113.800   5.03122e-05
      113.900   5.01142e-05
      114.000   4.99160e-05
      114.100   4.96779e-05
      114.200   4.94602e-05
      114.300   4.92748e-05
      114.400   4.90811e-05
      114.500   4.88789e-05
      114.600   4.87186e-05
      114.700   4.85273e-05
      114.800   4.83574e-05
      114.900   4.82370e-05
      115.000   4.80812e-05
      115.100   4.79047e-05
      115.200   4.77262e-05
      115.300   4.75924e-05
      115.400   4.74162e-05
      115.500   4.72611e-05
      115.600   4.70882e-05
      115.700   4.68885e-05
      115.800   4.67249e-05
      115.900   4.65424e-05
      116.000   4.63911e-05
      116.100   4.62877e-05
      116.200   4.61803e-05
      116.300   4.60640e-05
      116.400   4.59322e-05
      116.500   4.58345e-05
      116.600   4.57258e-05
      116.700   4.56256e-05
      116.800   4.55150e-05
      116.900   4.53622e-05
      117.000   4.52569e-05
      117.100   4.52878e-05
      117.200   4.54148e-05
      117.300   4.54476e-05
      117.400   4.54741e-05
      117.500   4.55020e-05
      117.600   4.54744e-05
      117.700   4.54251e-05
      117.800   4.53466e-05
      117.900   4.52532e-05
      118.000   4.51319e-05
      118.100   4.49837e-05
      118.200   4.48569e-05
      118.300   4.47391e-05
      118.400   4.45154e-05
      118.500   4.43005e-05
      118.600   4.41343e-05
      118.700   4.39510e-05
      118.800   4.37442e-05
      118.900   4.35538e-05
      119.000   4.33060e-05
      119.100   4.29936e-05
      119.200   4.27391e-05
      119.300   4.25329e-05
      119.400   4.23536e-05
      119.500   4.21863e-05
      119.600   4.19812e-05
      119.700   4.17318e-05
      119.800   4.13945e-05
      119.900   4.09410e-05
      120.000   4.05259e-05
      120.100   4.01418e-05
      120.200   3.99032e-05
      120.300   3.97482e-05
      120.400   3.95924e-05
      120.500   3.93189e-05
      120.600   3.89561e-05
      120.700   3.85653e-05
      120.800   3.81941e-05
      120.900   3.79778e-05
      121.000   3.80027e-05
      121.100   3.79845e-05
      121.200   3.78451e-05
      121.300   3.76194e-05
      121.400   3.73281e-05
      121.500   3.69876e-05
      121.600   3.64547e-05
      121.700   3.59999e-05
      121.800   3.54778e-05
      121.900   3.49481e-05
      122.000   3.43734e-05
      122.100   3.38350e-05
      122.200   3.33042e-05
      122.300   3.29384e-05
      122.400   3.27508e-05
      122.500   3.26012e-05
      122.600   3.24291e-05
      122.700   3.22555e-05
      122.800   3.20416e-05
      122.900   3.18514e-05
      123.000   3.18698e-05
      123.100   3.22507e-05
      123.200   3.26568e-05
      123.300   3.32509e-05
      123.400   3.40017e-05
      123.500   3.49765e-05
      123.600   3.58269e-05
      123.700   3.63036e-05
      123.800   3.66743e-05
      123.900   3.71540e-05
      124.000   3.78103e-05
      124.100   3.90396e-05
      124.200   4.14922e-05
      124.300   4.51427e-05
      124.400   4.86794e-05
      124.500   4.97743e-05
      124.600   4.97344e-05
      124.700   4.95634e-05
      124.800   4.94058e-05
      124.900   4.92475e-05
      125.000   4.90875e-05
      125.100   4.89155e-05
      125.200   4.87422e-05
      125.300   4.85689e-05
      125.400   4.83959e-05
      125.500   4.82231e-05
      125.600   4.80505e-05
      125.700   4.78783e-05
      125.800   4.77064e-05
      125.900   4.75350e-05
      126.000   4.73641e-05
      126.100   4.71938e-05
      126.200   4.70241e-05
      126.300   4.68549e-05
      126.400   4.66863e-05
      126.500   4.65182e-05
      126.600   4.63506e-05
      126.700   4.61835e-05
      126.800   4.60169e-05
      126.900   4.58505e-05
      127.000   4.56831e-05
      127.100   4.55115e-05
      127.200   4.53379e-05
      127.300   4.51640e-05
      127.400   4.49902e-05
      127.500   4.48165e-05
      127.600   4.46429e-05
      127.700   4.44694e-05
      127.800   4.42959e-05
      127.900   4.41225e-05
      128.000   4.39493e-05
      128.100   4.37762e-05
      128.200   4.36032e-05
      128.300   4.34304e-05
      128.400   4.32578e-05
      128.500   4.30853e-05
      128.600   4.29128e-05
      128.700   4.27409e-05
      128.800   4.25691e-05
      128.900   4.23975e-05
      129.000   4.22265e-05
      129.100   4.20550e-05
      129.200   4.18813e-05
      129.300   4.17081e-05
      129.400   4.15355e-05
      129.500   4.13636e-05
      129.600   4.11923e-05
      129.700   4.10217e-05
      129.800   4.08517e-05
      129.900   4.06823e-05
      130.000   4.05136e-05
      130.100   4.03455e-05
      130.200   4.01779e-05
      130.300   4.00108e-05
      130.400   3.98443e-05
      130.500   3.96781e-05
      130.600   3.95123e-05
      130.700   3.93470e-05
      130.800   3.91821e-05
      130.900   3.90176e-05
      131.000   3.88534e-05
      131.100   3.86897e-05
      131.200   3.85259e-05
      131.300   3.83618e-05
      131.400   3.81981e-05
      131.500   3.80347e-05
      131.600   3.78717e-05
      131.700   3.77091e-05
      131.800   3.75469e-05
      131.900   3.73849e-05
      132.000   3.72234e-05
      132.100   3.70622e-05
      132.200   3.69014e-05
      132.300   3.67410e-05
      132.400   3.65811e-05
      132.500   3.64216e-05
      132.600   3.62626e-05
      132.700   3.61041e-05
      132.800   3.59461e-05
      132.900   3.57888e-05
      133.000   3.56319e-05
      133.100   3.54756e-05
      133.200   3.53198e-05
      133.300   3.51643e-05
      133.400   3.50091e-05
      133.500   3.48543e-05
      133.600   3.46999e-05
      133.700   3.45461e-05
      133.800   3.43928e-05
      133.900   3.42400e-05
      134.000   3.40877e-05
      134.100   3.39358e-05
      134.200   3.37845e-05
      134.300   3.36336e-05
      134.400   3.34833e-05
      134.500   3.33335e-05
      134.600   3.31842e-05
      134.700   3.30354e-05
      134.800   3.28871e-05
      134.900   3.27394e-05
      135.000   3.25922e-05
      135.100   3.24455e-05
      135.200   3.22993e-05
      135.300   3.21536e-05
      135.400   3.20084e-05
      135.500   3.18634e-05
      135.600   3.17184e-05
      135.700   3.15739e-05
      135.800   3.14298e-05
      135.900   3.12862e-05
      136.000   3.11431e-05
      136.100   3.10004e-05
      136.200   3.08584e-05
      136.300   3.07166e-05
      136.400   3.05754e-05
      136.500   3.04347e-05
      136.600   3.02943e-05
      136.700   3.01544e-05
      136.800   3.00150e-05
      136.900   2.98760e-05
      137.000   2.97373e-05
      137.100   2.95990e-05
      137.200   2.94611e-05
      137.300   2.93235e-05
      137.400   2.91864e-05
      137.500   2.90495e-05
      137.600   2.89184e-05
      137.700   2.88007e-05
      137.800   2.86932e-05
      137.900   2.85859e-05
      138.000   2.84787e-05
      138.100   2.83718e-05
      138.200   2.82651e-05
      138.300   2.81586e-05
      138.400   2.80524e-05
      138.500   2.79465e-05
      138.600   2.78408e-05
      138.700   2.77354e-05
      138.800   2.76303e-05
      138.900   2.75256e-05
      139.000   2.74211e-05
      139.100   2.73170e-05
      139.200   2.72132e-05
      139.300   2.71097e-05
      139.400   2.70065e-05
      139.500   2.69037e-05
      139.600   2.68011e-05
      139.700   2.66989e-05
      139.800   2.65971e-05
      139.900   2.64954e-05
      140.000   2.63938e-05
      140.100   2.62925e-05
      140.200   2.61915e-05
      140.300   2.60908e-05
      140.400   2.59904e-05
      140.500   2.58902e-05
      140.600   2.57902e-05
      140.700   2.56904e-05
      140.800   2.55908e-05
      140.900   2.54913e-05
      141.000   2.53920e-05
      141.100   2.52928e-05
      141.200   2.51938e-05
      141.300   2.50949e-05
      141.400   2.49961e-05
      141.500   2.48974e-05
      141.600   2.47989e-05
      141.700   2.47005e-05
      141.800   2.46023e-05
      141.900   2.45043e-05
      142.000   2.44065e-05
      142.100   2.43187e-05
      142.200   2.42589e-05
      142.300   2.42233e-05
      142.400   2.41874e-05
      142.500   2.41513e-05
      142.600   2.41150e-05
      142.700   2.40786e-05
      142.800   2.40421e-05
      142.900   2.40054e-05
      143.000   2.39686e-05
      143.100   2.39316e-05
      143.200   2.38946e-05
      143.300   2.38574e-05
      143.400   2.38202e-05
      143.500   2.37829e-05
      143.600   2.37456e-05
      143.700   2.37082e-05
      143.800   2.36707e-05
      143.900   2.36333e-05
      144.000   2.35957e-05
      144.100   2.35580e-05
      144.200   2.35203e-05
      144.300   2.34825e-05
      144.400   2.34472e-05
      144.500   2.34469e-05
      144.600   2.34575e-05
      144.700   2.34690e-05
      144.800   2.34800e-05
      144.900   2.34906e-05
      145.000   2.35008e-05
      145.100   2.35106e-05
      145.200   2.35199e-05
      145.300   2.35286e-05
      145.400   2.35369e-05
      145.500   2.35447e-05
      145.600   2.35519e-05
      145.700   2.35586e-05
      145.800   2.35648e-05
      145.900   2.35705e-05
      146.000   2.35757e-05
      146.100   2.35803e-05
      146.200   2.35845e-05
      146.300   2.35882e-05
      146.400   2.35914e-05
      146.500   2.35940e-05
      146.600   2.35962e-05
      146.700   2.35980e-05
      146.800   2.35979e-05
      146.900   2.35952e-05
      147.000   2.35922e-05
      147.100   2.35886e-05
      147.200   2.35847e-05
      147.300   2.35804e-05
      147.400   2.35758e-05
      147.500   2.35709e-05
      147.600   2.35657e-05
      147.700   2.35601e-05
      147.800   2.35542e-05
      147.900   2.35480e-05
      148.000   2.35415e-05
      148.100   2.35347e-05
      148.200   2.35277e-05
      148.300   2.35205e-05
      148.400   2.35129e-05
      148.500   2.35050e-05
      148.600   2.34969e-05
      148.700   2.34885e-05
      148.800   2.34796e-05
      148.900   2.34706e-05
      149.000   2.34611e-05
      149.100   2.34513e-05
      149.200   2.34410e-05
      149.300   2.34302e-05
      149.400   2.34191e-05
      149.500   2.34075e-05
      149.600   2.33955e-05
      149.700   2.33830e-05
      149.800   2.33702e-05
      149.900   2.33570e-05
      150.000   2.33434e-05
      150.100   2.33293e-05
      150.200   2.33146e-05
      150.300   2.32996e-05
      150.400   2.32842e-05
      150.500   2.32684e-05
      150.600   2.32521e-05
      150.700   2.32354e-05
      150.800   2.32183e-05
      150.900   2.32007e-05
      151.000   2.31826e-05
      151.100   2.31643e-05
      151.200   2.31454e-05
      151.300   2.31262e-05
      151.400   2.31067e-05
      151.500   2.30867e-05
      151.600   2.30667e-05
      151.700   2.30466e-05
      151.800   2.30263e-05
      151.900   2.30056e-05
      152.000   2.29845e-05
      152.100   2.29632e-05
      152.200   2.29416e-05
      152.300   2.29197e-05
      152.400   2.28974e-05
      152.500   2.28750e-05
      152.600   2.28523e-05
      152.700   2.28293e-05
      152.800   2.28059e-05
      152.900   2.27824e-05
      153.000   2.27586e-05
      153.100   2.27346e-05
      153.200   2.27102e-05
      153.300   2.26857e-05
      153.400   2.26608e-05
      153.500   2.26356e-05
      153.600   2.26102e-05
      153.700   2.25845e-05
      153.800   2.25585e-05
      153.900   2.25322e-05
      154.000   2.24973e-05
      154.100   2.24523e-05
      154.200   2.24058e-05
      154.300   2.23590e-05
      154.400   2.23121e-05
      154.500   2.22648e-05
      154.600   2.22173e-05
      154.700   2.21696e-05
      154.800   2.21217e-05
      154.900   2.20734e-05
      155.000   2.20250e-05
      155.100   2.19764e-05
      155.200   2.19274e-05
      155.300   2.18782e-05
      155.400   2.18288e-05
      155.500   2.17792e-05
      155.600   2.17292e-05
      155.700   2.16791e-05
      155.800   2.16288e-05
      155.900   2.15781e-05
      156.000   2.15274e-05
      156.100   2.14763e-05
      156.200   2.14250e-05
      156.300   2.13736e-05
      156.400   2.13219e-05
      156.500   2.12672e-05
      156.600   2.12050e-05
      156.700   2.11423e-05
      156.800   2.10795e-05
      156.900   2.10165e-05
      157.000   2.09535e-05
      157.100   2.08902e-05
      157.200   2.08269e-05
      157.300   2.07634e-05
      157.400   2.06998e-05
      157.500   2.06361e-05
      157.600   2.05723e-05
      157.700   2.05083e-05
      157.800   2.04443e-05
      157.900   2.03800e-05
      158.000   2.03156e-05
      158.100   2.02511e-05
      158.200   2.01865e-05
      158.300   2.01218e-05
      158.400   2.00569e-05
      158.500   1.99920e-05
      158.600   1.99268e-05
      158.700   1.98616e-05
      158.800   1.97963e-05
      158.900   1.97309e-05
      159.000   1.96653e-05
      159.100   1.95995e-05
      159.200   1.95337e-05
      159.300   1.94677e-05
      159.400   1.94016e-05
      159.500   1.93355e-05
      159.600   1.92693e-05
      159.700   1.92031e-05
      159.800   1.91367e-05
      159.900   1.90704e-05
      160.000   1.90040e-05
      160.100   1.89375e-05
      160.200   1.88709e-05
      160.300   1.88044e-05
      160.400   1.87378e-05
      160.500   1.86712e-05
      160.600   1.86045e-05
      160.700   1.85379e-05
      160.800   1.84712e-05
      160.900   1.84045e-05
      161.000   1.83378e-05
      161.100   1.82712e-05
      161.200   1.82045e-05
      161.300   1.81378e-05
      161.400   1.80711e-05
      161.500   1.80045e-05
      161.600   1.79377e-05
      161.700   1.78708e-05
      161.800   1.78039e-05
      161.900   1.77371e-05
      162.000   1.76701e-05
      162.100   1.76032e-05
      162.200   1.75363e-05
      162.300   1.74694e-05
      162.400   1.74024e-05
      162.500   1.73354e-05
      162.600   1.72684e-05
      162.700   1.72014e-05
      162.800   1.71344e-05
      162.900   1.70673e-05
      163.000   1.70001e-05
      163.100   1.69330e-05
      163.200   1.68658e-05
      163.300   1.67986e-05
      163.400   1.67313e-05
      163.500   1.66641e-05
      163.600   1.65968e-05
      163.700   1.65294e-05
      163.800   1.64622e-05
      163.900   1.63949e-05
      164.000   1.63275e-05
      164.100   1.62603e-05
      164.200   1.61930e-05
      164.300   1.61267e-05
      164.400   1.60605e-05
      164.500   1.59943e-05
      164.600   1.59282e-05
      164.700   1.58621e-05
      164.800   1.57961e-05
      164.900   1.57302e-05
      165.000   1.56643e-05
      165.100   1.55986e-05
      165.200   1.55329e-05
      165.300   1.54673e-05
      165.400   1.54019e-05
      165.500   1.53366e-05
      165.600   1.52714e-05
      165.700   1.52063e-05
      165.800   1.51414e-05
      165.900   1.50766e-05
      166.000   1.50120e-05
      166.100   1.49475e-05
      166.200   1.48832e-05
      166.300   1.48190e-05
      166.400   1.47550e-05
      166.500   1.46912e-05
      166.600   1.46275e-05
      166.700   1.45639e-05
      166.800   1.44993e-05
      166.900   1.44291e-05
      167.000   1.43538e-05
      167.100   1.42786e-05
      167.200   1.42036e-05
      167.300   1.41289e-05
      167.400   1.40544e-05
      167.500   1.39801e-05
      167.600   1.39061e-05
      167.700   1.38323e-05
      167.800   1.37587e-05
      167.900   1.36853e-05
      168.000   1.36121e-05
      168.100   1.35391e-05
      168.200   1.34663e-05
      168.300   1.33937e-05
      168.400   1.33213e-05
      168.500   1.32491e-05
      168.600   1.31771e-05
      168.700   1.31052e-05
      168.800   1.30335e-05
      168.900   1.29621e-05
      169.000   1.28908e-05
      169.100   1.28197e-05
      169.200   1.27488e-05
      169.300   1.26780e-05
      169.400   1.26075e-05
      169.500   1.25337e-05
      169.600   1.24450e-05
      169.700   1.23415e-05
      169.800   1.22376e-05
      169.900   1.21342e-05
      170.000   1.20313e-05
      170.100   1.19291e-05
      170.200   1.18273e-05
      170.300   1.55573e-05
      170.400   3.37194e-05
      170.500   6.43788e-05
      170.600   9.54887e-05
      170.700   0.000120844
      170.800   0.000133205
      170.900   0.000134505
      171.000   0.000133056
      171.100   0.000131614
      171.200   0.000130178
      171.300   0.000128748
      171.400   0.000127326
      171.500   0.000125911
      171.600   0.000124505
      171.700   0.000123107
      171.800   0.000121719
      171.900   0.000120343
      172.000   0.000118980
      172.100   0.000117629
      172.200   0.000116293
      172.300   0.000114968
      172.400   0.000113635
      172.500   0.000112313
      172.600   0.000111007
      172.700   0.000109716
      172.800   0.000108442
      172.900   0.000107182
      173.000   0.000105939
      173.100   0.000104712
      173.200   0.000103499
      173.300   0.000102302
      173.400   0.000101119
      173.500   9.99510e-05
      173.600   9.87978e-05
      173.700   9.76585e-05
      173.800   9.65328e-05
      173.900   9.54213e-05
      174.000   9.43227e-05
      174.100   9.32367e-05
      174.200   9.21638e-05
      174.300   9.11032e-05
      174.400   9.00547e-05
      174.500   8.90180e-05
      174.600   8.79920e-05
      174.700   8.69779e-05
      174.800   8.59749e-05
      174.900   8.49822e-05
      175.000   8.39994e-05
      175.100   8.30270e-05
      175.200   8.20680e-05
      175.300   8.11183e-05
      175.400   8.01781e-05
      175.500   7.92482e-05
      175.600   7.83277e-05
      175.700   7.74170e-05
      175.800   7.65155e-05
      175.900   7.56235e-05
      176.000   7.47410e-05
      176.100   7.38680e-05
      176.200   7.30040e-05
      176.300   7.21490e-05
      176.400   7.13036e-05
      176.500   7.04670e-05
      176.600   6.96391e-05
      176.700   6.88202e-05
      176.800   6.80101e-05
      176.900   6.72089e-05
      177.000   6.64161e-05
      177.100   6.56317e-05
      177.200   6.48560e-05
      177.300   6.40887e-05
      177.400   6.33293e-05
      177.500   6.25778e-05
      177.600   6.18345e-05
      177.700   6.10992e-05
      177.800   6.03717e-05
      177.900   5.96512e-05
      178.000   5.89422e-05
      178.100   5.82411e-05
      178.200   5.75471e-05
      178.300   5.68604e-05
      178.400   5.61811e-05
      178.500   5.55090e-05
      178.600   5.48438e-05
      178.700   5.41854e-05
      178.800   5.35342e-05
      178.900   5.28900e-05
      179.000   5.22526e-05
      179.100   5.16218e-05
      179.200   5.09980e-05
      179.300   5.03810e-05
      179.400   4.97708e-05
      179.500   4.91676e-05
      179.600   4.85709e-05
      179.700   4.79813e-05
      179.800   4.73981e-05
      179.900   4.68218e-05
      180.000   4.62519e-05
      180.100   4.56889e-05
      180.200   4.51326e-05
      180.300   4.45829e-05
      180.400   4.40396e-05
      180.500   4.35031e-05
      180.600   4.29730e-05
      180.700   4.24495e-05
      180.800   4.19212e-05
      180.900   4.13869e-05
      181.000   4.08560e-05
      181.100   4.03320e-05
      181.200   3.98147e-05
      181.300   3.93039e-05
      181.400   3.88000e-05
      181.500   3.83024e-05
      181.600   3.78112e-05
      181.700   3.73261e-05
      181.800   3.68474e-05
      181.900   3.63747e-05
      182.000   3.59082e-05
      182.100   3.54474e-05
      182.200   3.49927e-05
      182.300   3.45436e-05
      182.400   3.41003e-05
      182.500   3.36624e-05
      182.600   3.32299e-05
      182.700   3.28028e-05
      182.800   3.23811e-05
      182.900   3.19644e-05
      183.000   3.15530e-05
      183.100   3.11467e-05
      183.200   3.07454e-05
      183.300   3.03489e-05
      183.400   2.99573e-05
      183.500   2.95705e-05
      183.600   2.91885e-05
      183.700   2.87912e-05
      183.800   2.83204e-05
      183.900   2.78423e-05
      184.000   2.73719e-05
      184.100   2.69089e-05
      184.200   2.64533e-05
      184.300   2.60047e-05
      184.400   2.55633e-05
      184.500   2.51290e-05
      184.600   2.47014e-05
      184.700   2.42805e-05
      184.800   2.38663e-05
      184.900   2.34587e-05
      185.000   2.30575e-05
      185.100   2.26625e-05
      185.200   2.22737e-05
      185.300   2.18913e-05
      185.400   2.15149e-05
      185.500   2.11444e-05
      185.600   2.07797e-05
      185.700   2.04206e-05
      185.800   2.00676e-05
      185.900   1.97204e-05
      186.000   1.93783e-05
      186.100   1.90418e-05
      186.200   1.87105e-05
      186.300   1.83845e-05
      186.400   1.80635e-05
      186.500   1.77475e-05
      186.600   1.74365e-05
      186.700   1.71304e-05
      186.800   1.68290e-05
      186.900   1.65323e-05
      187.000   1.62402e-05
      187.100   1.59527e-05
      187.200   1.56697e-05
      187.300   1.53914e-05
      187.400   1.51176e-05
      187.500   1.48481e-05
      187.600   1.45829e-05
      187.700   1.43220e-05
      187.800   1.40651e-05
      187.900   1.38123e-05
      188.000   1.35638e-05
      188.100   1.33192e-05
      188.200   1.30785e-05
      188.300   1.28417e-05
      188.400   1.26088e-05
      188.500   1.23798e-05
      188.600   1.21547e-05
      188.700   1.19334e-05
      188.800   1.17158e-05
      188.900   1.15020e-05
      189.000   1.12918e-05
      189.100   1.10849e-05
      189.200   1.08817e-05
      189.300   1.06819e-05
      189.400   1.04856e-05
      189.500   1.02926e-05
      189.600   1.01028e-05
      189.700   9.91523e-06
      189.800   9.72400e-06
      189.900   9.53654e-06
      190.000   9.35237e-06
      190.100   9.17162e-06
      190.200   8.99414e-06
      190.300   8.81990e-06
      190.400   8.64873e-06
      190.500   8.48071e-06
      190.600   8.31581e-06
      190.700   8.15386e-06
      190.800   7.99489e-06
      190.900   7.83884e-06
      191.000   7.68570e-06
      191.100   7.53556e-06
      191.200   7.38810e-06
      191.300   7.24335e-06
      191.400   7.10127e-06
      191.500   6.96174e-06
      191.600   6.82480e-06
      191.700   6.69037e-06
      191.800   6.55833e-06
      191.900   6.42877e-06
      192.000   6.30164e-06
      192.100   6.17696e-06
      192.200   6.05468e-06
      192.300   5.93462e-06
      192.400   5.81673e-06
      192.500   5.70102e-06
      192.600   5.58747e-06
      192.700   5.47404e-06
      192.800   5.35226e-06
      192.900   5.21431e-06
      193.000   5.07967e-06
      193.100   4.94829e-06
      193.200   4.82014e-06
      193.300   4.69504e-06
      193.400   4.57295e-06
      193.500   4.45372e-06
      193.600   4.33728e-06
      193.700   4.22359e-06
      193.800   4.11267e-06
      193.900   4.00443e-06
      194.000   3.89874e-06
      194.100   3.79571e-06
      194.200   3.69535e-06
      194.300   3.59740e-06
      194.400   3.50179e-06
      194.500   3.40849e-06
      194.600   3.31743e-06
      194.700   3.22862e-06
      194.800   3.14199e-06
      194.900   3.05743e-06
      195.000   2.97497e-06
      195.100   2.89470e-06
      195.200   2.81644e-06
      195.300   2.74010e-06
      195.400   2.66562e-06
      195.500   2.59296e-06
      195.600   2.52208e-06
      195.700   2.45297e-06
      195.800   2.38556e-06
      195.900   2.31982e-06
      196.000   2.25543e-06
      196.100   2.19266e-06
      196.200   2.13146e-06
      196.300   2.07180e-06
      196.400   2.01364e-06
      196.500   1.95692e-06
      196.600   1.90166e-06
      196.700   1.84780e-06
      196.800   1.79538e-06
      196.900   1.74438e-06
      197.000   1.69469e-06
      197.100   1.64628e-06
      197.200   1.59911e-06
      197.300   1.55314e-06
      197.400   1.50833e-06
      197.500   1.46471e-06
      197.600   1.42222e-06
      197.700   1.38098e-06
      197.800   1.34083e-06
      197.900   1.30170e-06
      198.000   1.26361e-06
      198.100   1.22654e-06
      198.200   1.19043e-06
      198.300   1.15526e-06
      198.400   1.12106e-06
      198.500   1.08786e-06
      198.600   1.05558e-06
      198.700   1.02417e-06
      198.800   9.93591e-07
      198.900   9.63850e-07
      199.000   9.35528e-07
      199.100   9.09814e-07
      199.200   8.87325e-07
      199.300   8.65395e-07
      199.400   8.43983e-07
      199.500   8.23064e-07
      199.600   8.02616e-07
      199.700   7.82633e-07
      199.800   7.63106e-07
      199.900   7.44034e-07
      200.000   7.25396e-07
      200.100   7.07264e-07
      200.200   6.89529e-07
      200.300   6.72213e-07
      200.400   6.55303e-07
      200.500   6.38790e-07
      200.600   6.22664e-07
      200.700   6.06920e-07
      200.800   5.91540e-07
      200.900   5.76526e-07
      201.000   5.61889e-07
      201.100   5.47601e-07
      201.200   5.33653e-07
      201.300   5.20040e-07
      201.400   5.06758e-07
      201.500   4.93781e-07
      201.600   4.81121e-07
      201.700   4.68765e-07
      201.800   4.56701e-07
      201.900   4.44939e-07
      202.000   4.33479e-07
      202.100   4.22285e-07
      202.200   4.11367e-07
      202.300   4.00927e-07
      202.400   3.91043e-07
      202.500   3.81438e-07
      202.600   3.72050e-07
      202.700   3.62879e-07
      202.800   3.53928e-07
      202.900   3.45192e-07
      203.000   3.36663e-07
      203.100   3.28335e-07
      203.200   3.20199e-07
      203.300   3.12250e-07
      203.400   3.04488e-07
      203.500   2.96912e-07
      203.600   2.89512e-07
      203.700   2.82286e-07
      203.800   2.75242e-07
      203.900   2.68368e-07
      204.000   2.61656e-07
      204.100   2.55104e-07
      204.200   2.48711e-07
      204.300   2.42466e-07
      204.400   2.36374e-07
      204.500   2.30426e-07
      204.600   2.24619e-07
      204.700   2.18953e-07
      204.800   2.13430e-07
      204.900   2.08041e-07
      205.000   2.02782e-07
      205.100   1.97652e-07
      205.200   1.92642e-07
      205.300   1.87756e-07
      205.400   1.82988e-07
      205.500   1.78333e-07
      205.600   1.73810e-07
      205.700   1.69416e-07
      205.800   1.65126e-07
      205.900   1.60944e-07
      206.000   1.56868e-07
      206.100   1.52886e-07
      206.200   1.48999e-07
      206.300   1.45208e-07
      206.400   1.41508e-07
      206.500   1.37895e-07
      206.600   1.34370e-07
      206.700   1.30930e-07
      206.800   1.27571e-07
      206.900   1.24293e-07
      207.000   1.21097e-07
      207.100   1.17978e-07
      207.200   1.14937e-07
      207.300   1.11970e-07
      207.400   1.09073e-07
      207.500   1.06247e-07
      207.600   1.03489e-07
      207.700   1.00796e-07
      207.800   9.81697e-08
      207.900   9.56074e-08
      208.000   9.31069e-08
      208.100   9.06671e-08
      208.200   8.82880e-08
      208.300   8.59661e-08
      208.400   8.37035e-08
      208.500   8.14978e-08
      208.600   7.93446e-08
      208.700   7.72439e-08
      208.800   7.51925e-08
      208.900   7.30662e-08
      209.000   7.08300e-08
      209.100   6.86579e-08
      209.200   6.65476e-08
      209.300   6.44966e-08
      209.400   6.25057e-08
      209.500   6.05712e-08
      209.600   5.86919e-08
      209.700   5.68682e-08
      209.800   5.51005e-08
      209.900   5.33822e-08
      210.000   5.17145e-08
      210.100   5.00956e-08
      210.200   4.85236e-08
      210.300   4.69980e-08
      210.400   4.55171e-08
      210.500   4.40794e-08
      210.600   4.26843e-08
      210.700   4.13309e-08
      210.800   4.00173e-08
      210.900   3.87426e-08
      211.000   3.75058e-08
      211.100   3.63066e-08
      211.200   3.51429e-08
      211.300   3.40158e-08
      211.400   3.29234e-08
      211.500   3.18631e-08
      211.600   3.08351e-08
      211.700   2.98386e-08
      211.800   2.88716e-08
      211.900   2.79341e-08
      212.000   2.70258e-08
      212.100   2.61449e-08
      212.200   2.52664e-08
      212.300   2.40474e-08
      212.400   2.26629e-08
      212.500   2.13521e-08
      212.600   2.01121e-08
      212.700   1.89385e-08
      212.800   1.78284e-08
      212.900   1.67793e-08
      213.000   1.57878e-08
      213.100   1.48523e-08
      213.200   1.39682e-08
      213.300   1.31335e-08
      213.400   1.23447e-08
      213.500   1.16000e-08
      213.600   1.08972e-08
      213.700   1.02343e-08
      213.800   9.60861e-09
      213.900   9.01898e-09
      214.000   8.46298e-09
      214.100   7.93879e-09
      214.200   7.44521e-09
      214.300   6.98013e-09
      214.400   6.54205e-09
      214.500   6.12971e-09
      214.600   5.74187e-09
      214.700   5.37688e-09
      214.800   5.03356e-09
      214.900   4.71098e-09
      215.000   4.40751e-09
      215.100   4.12256e-09
      215.200   3.85530e-09
      215.300   3.60452e-09
      215.400   3.36886e-09
      215.500   3.14769e-09
      215.600   2.94034e-09
      215.700   2.74566e-09
      215.800   2.56311e-09
      215.900   2.39208e-09
      216.000   2.23168e-09
      216.100   2.08139e-09
      216.200   1.94068e-09
      216.300   1.80894e-09
      216.400   1.68561e-09
      216.500   1.57016e-09
      216.600   1.46220e-09
      216.700   1.36125e-09
      216.800   1.26684e-09
      216.900   1.17864e-09
      217.000   1.09623e-09
      217.100   1.01922e-09
      217.200   9.47365e-10
      217.300   8.80278e-10
      217.400   8.17651e-10
      217.500   7.59273e-10
      217.600   7.04802e-10
      217.700   6.54020e-10
      217.800   6.06693e-10
      217.900   5.62656e-10
      218.000   5.21662e-10
      218.100   4.83500e-10
      218.200   4.47986e-10
      218.300   4.14957e-10
      218.400   3.84223e-10
      218.500   3.55630e-10
      218.600   3.29075e-10
      218.700   3.04381e-10
      218.800   2.81444e-10
      218.900   2.60159e-10
      219.000   2.40385e-10
      219.100   2.22215e-10
      219.200   2.06834e-10
      219.300   1.94705e-10
      219.400   1.83248e-10
      219.500   1.72436e-10
      219.600   1.62232e-10
      219.700   1.52601e-10
      219.800   1.43519e-10
      219.900   1.34949e-10
      220.000   1.26864e-10
      220.100   1.19241e-10
      220.200   1.12055e-10
      220.300   1.05284e-10
      220.400   9.89000e-11
      220.500   9.28863e-11
      220.600   8.72234e-11
      220.700   8.18874e-11
      220.800   7.68607e-11
      220.900   7.21324e-11
      221.000   6.76797e-11
      221.100   6.34880e-11
      221.200   5.95467e-11
      221.300   5.58379e-11
      221.400   5.23489e-11
      221.500   4.90694e-11
      221.600   4.59855e-11
      221.700   4.30858e-11
      221.800   4.03607e-11
      221.900   3.78016e-11
      222.000   3.53975e-11
      222.100   3.31381e-11
      222.200   3.10184e-11
      222.300   2.90275e-11
      222.400   2.71585e-11
      222.500   2.54043e-11
      222.600   2.37597e-11
      222.700   2.22161e-11
      222.800   2.07685e-11
      222.900   1.94123e-11
      223.000   1.81400e-11
      223.100   1.69475e-11
      223.200   1.58300e-11
      223.300   1.47836e-11
      223.400   1.38032e-11
      223.500   1.28846e-11
      223.600   1.20253e-11
      223.700   1.12205e-11
      223.800   1.04672e-11
      223.900   9.76312e-12
      224.000   9.10375e-12
      224.100   8.48713e-12
      224.200   7.91059e-12
      224.300   7.37185e-12
      224.400   6.86800e-12
      224.500   6.39727e-12
      224.600   5.95732e-12
      224.700   5.54683e-12
      224.800   5.16331e-12
      224.900   4.80507e-12
      225.000   4.47086e-12
      225.100   4.15885e-12
      225.200   3.86772e-12
      225.300   3.59639e-12
      225.400   3.34316e-12
      225.500   3.10702e-12
      225.600   2.88693e-12
      225.700   2.68192e-12
      225.800   2.49080e-12
      225.900   2.31279e-12
      226.000   2.14709e-12
      226.100   1.99272e-12
      226.200   1.84900e-12
      226.300   1.71546e-12
      226.400   1.59126e-12
      226.500   1.47563e-12
      226.600   1.36805e-12
      226.700   1.26809e-12
      226.800   1.17509e-12
      226.900   1.08862e-12
      227.000   1.00834e-12
      227.100   9.33721e-13
      227.200   8.64422e-13
      227.300   8.00087e-13
      227.400   7.40369e-13
      227.500   6.84935e-13
      227.600   6.33505e-13
      227.700   5.85796e-13
      227.800   5.41561e-13
      227.900   5.00550e-13
      228.000   4.62529e-13
      228.100   4.27295e-13
      228.200   3.94645e-13
      228.300   3.64406e-13
      228.400   3.36411e-13
      228.500   3.10483e-13
      228.600   2.86491e-13
      228.700   2.64286e-13
      228.800   2.43741e-13
      228.900   2.24748e-13
      229.000   2.07177e-13
      229.100   1.90934e-13
      229.200   1.75925e-13
      229.300   1.62056e-13
      229.400   1.49245e-13
      229.500   1.37412e-13
      229.600   1.26486e-13
      229.700   1.16402e-13
      229.800   1.07093e-13
      229.900   9.85373e-14
      230.000   9.09052e-14
      230.100   8.43357e-14
      230.200   7.82261e-14
      230.300   7.25491e-14
      230.400   6.72692e-14
      230.500   6.23655e-14
      230.600   5.78143e-14
      230.700   5.35837e-14
      230.800   4.96540e-14
      230.900   4.60047e-14
      231.000   4.26139e-14
      231.100   3.94661e-14
      231.200   3.65433e-14
      231.300   3.38311e-14
      231.400   3.13152e-14
      231.500   2.89792e-14
      231.600   2.68119e-14
      231.700   2.48025e-14
      231.800   2.29393e-14
      231.900   2.12118e-14
      232.000   1.96104e-14
      232.100   1.81260e-14
      232.200   1.67508e-14
      232.300   1.54769e-14
      232.400   1.42967e-14
      232.500   1.32035e-14
      232.600   1.21918e-14
      232.700   1.12553e-14
      232.800   1.03884e-14
      232.900   9.58635e-15
      233.000   8.84428e-15
      233.100   8.15815e-15
      233.200   7.52332e-15
      233.300   6.93659e-15
      233.400   6.39435e-15
      233.500   5.89410e-15
      233.600   5.43244e-15
      233.700   5.00575e-15
      233.800   4.60787e-15
      233.900   4.24030e-15
      234.000   3.90098e-15
      234.100   3.58815e-15
      234.200   3.29968e-15
      234.300   3.03370e-15
      234.400   2.78853e-15
      234.500   2.56263e-15
      234.600   2.35444e-15
      234.700   2.16271e-15
      234.800   1.98619e-15
      234.900   1.82360e-15
      235.000   1.67391e-15
      235.100   1.53619e-15
      235.200   1.40946e-15
      235.300   1.29288e-15
      235.400   1.18567e-15
      235.500   1.08707e-15
      235.600   9.96466e-16
      235.700   9.13241e-16
      235.800   8.37030e-16
      235.900   7.66998e-16
      236.000   7.02660e-16
      236.100   6.43558e-16
      236.200   5.89287e-16
      236.300   5.39454e-16
      236.400   4.93724e-16
      236.500   4.51754e-16
      236.600   4.13254e-16
      236.700   3.77940e-16
      236.800   3.45551e-16
      236.900   3.15864e-16
      237.000   2.88653e-16
      237.100   2.63713e-16
      237.200   2.40875e-16
      237.300   2.19950e-16
      237.400   2.00880e-16
      237.500   1.84226e-16
      237.600   1.70324e-16
      237.700   1.57481e-16
      237.800   1.45579e-16
      237.900   1.34551e-16
      238.000   1.24339e-16
      238.100   1.14877e-16
      238.200   1.06116e-16
      238.300   9.80040e-17
      238.400   9.04950e-17
      238.500   8.35442e-17
      238.600   7.71128e-17
      238.700   7.11644e-17
      238.800   6.56605e-17
      238.900   6.05704e-17
      239.000   5.58635e-17
      239.100   5.15126e-17
      239.200   4.74920e-17
      239.300   4.37862e-17
      239.400   4.03702e-17
      239.500   3.72127e-17
      239.600   3.42950e-17
      239.700   3.16007e-17
      239.800   2.91114e-17
      239.900   2.68128e-17
      240.000   2.46909e-17
      240.100   2.27316e-17
      240.200   2.09234e-17
      240.300   1.92554e-17
      240.400   1.77159e-17
      240.500   1.62970e-17
      240.600   1.49882e-17
      240.700   1.37818e-17
      240.800   1.26730e-17
      240.900   1.16537e-17
      241.000   1.07142e-17
      241.100   9.84838e-18
      241.200   9.05064e-18
      241.300   8.35432e-18
      241.400   7.78099e-18
      241.500   7.28240e-18
      241.600   6.81494e-18
      241.700   6.37663e-18
      241.800   5.96578e-18
      241.900   5.58068e-18
      242.000   5.21982e-18
      242.100   4.88170e-18
      242.200   4.56585e-18
      242.300   4.27055e-18
      242.400   3.99381e-18
      242.500   3.73454e-18
      242.600   3.49167e-18
      242.700   3.26415e-18
      242.800   3.05112e-18
      242.900   2.85161e-18
      243.000   2.66482e-18
      243.100   2.48996e-18
      243.200   2.32621e-18
      243.300   2.17299e-18
      243.400   2.02965e-18
      243.500   1.89586e-18
      243.600   1.77107e-18
      243.700   1.65422e-18
      243.800   1.54488e-18
      243.900   1.44263e-18
      244.000   1.34693e-18
      244.100   1.25742e-18
      244.200   1.17372e-18
      244.300   1.09542e-18
      244.400   1.02224e-18
      244.500   9.53808e-19
      244.600   8.89840e-19
      244.700   8.30186e-19
      244.800   7.74646e-19
      244.900   7.22741e-19
      245.000   6.74202e-19
      245.100   6.28844e-19
      245.200   5.86479e-19
      245.300   5.46891e-19
      245.400   5.09892e-19
      245.500   4.75350e-19
      245.600   4.43083e-19
      245.700   4.12942e-19
      245.800   3.84792e-19
      245.900   3.58646e-19
      246.000   3.34281e-19
      246.100   3.11523e-19
      246.200   2.90277e-19
      246.300   2.70439e-19
      246.400   2.51928e-19
      246.500   2.34647e-19
      246.600   2.18522e-19
      246.700   2.03478e-19
      246.800   1.89437e-19
      246.900   1.76341e-19
      247.000   1.64186e-19
      247.100   1.52873e-19
      247.200   1.42320e-19
      247.300   1.32478e-19
      247.400   1.23297e-19
      247.500   1.14735e-19
      247.600   1.06753e-19
      247.700   9.93106e-20
      247.800   9.23737e-20
      247.900   8.59078e-20
      248.000   7.98836e-20
      248.100   7.43153e-20
      248.200   6.91231e-20
      248.300   6.42842e-20
      248.400   5.97751e-20
      248.500   5.55721e-20
      248.600   5.16570e-20
      248.700   4.80113e-20
      248.800   4.46156e-20
      248.900   4.14540e-20
      249.000   3.85102e-20
      249.100   3.57875e-20
      249.200   3.35564e-20
      249.300   3.17739e-20
      249.400   3.01578e-20
      249.500   2.86222e-20
      249.600   2.71625e-20
      249.700   2.57756e-20
      249.800   2.44580e-20
      249.900   2.32058e-20
      250.000   2.20167e-20
      250.100   2.08909e-20
      250.200   1.98228e-20
      250.300   1.88090e-20
      250.400   1.78459e-20
      250.500   1.69314e-20
      250.600   1.60628e-20
      250.700   1.52378e-20
      250.800   1.44544e-20
      250.900   1.37104e-20
      251.000   1.30041e-20
      251.100   1.23334e-20
      251.200   1.16977e-20
      251.300   1.10956e-20
      251.400   1.05238e-20
      251.500   9.98082e-21
      251.600   9.46540e-21
      251.700   8.97626e-21
      251.800   8.51183e-21
      251.900   8.07095e-21
      252.000   7.65236e-21
      252.100   7.25536e-21
      252.200   6.87834e-21
      252.300   6.52112e-21
      252.400   6.18273e-21
      252.500   5.86175e-21
      252.600   5.55702e-21
      252.700   5.26790e-21
      252.800   4.99356e-21
      252.900   4.73319e-21
      253.000   4.48617e-21
      253.100   4.25185e-21
      253.200   4.04859e-21
      253.300   3.93544e-21
      253.400   3.84365e-21
      253.500   3.75408e-21
      253.600   3.66664e-21
      253.700   3.58120e-21
      253.800   3.49777e-21
      253.900   3.41623e-21
      254.000   3.33658e-21
      254.100   3.25876e-21
      254.200   3.18273e-21
      254.300   3.10845e-21
      254.400   3.03588e-21
      254.500   2.96500e-21
      254.600   2.89572e-21
      254.700   2.82807e-21
      254.800   2.76206e-21
      254.900   2.69754e-21
      255.000   2.63453e-21
      255.100   2.57293e-21
      255.200   2.51277e-21
      255.300   2.45399e-21
      255.400   2.39656e-21
      255.500   2.34047e-21
      255.600   2.28565e-21
      255.700   2.23210e-21
      255.800   2.17977e-21
      255.900   2.12865e-21
      256.000   2.07869e-21
      256.100   2.02994e-21
      256.200   1.98230e-21
      256.300   1.93577e-21
      256.400   1.89034e-21
      256.500   1.84593e-21
      256.600   1.80254e-21
      256.700   1.76015e-21
      256.800   1.71875e-21
      256.900   1.67828e-21
      257.000   1.63876e-21
      257.100   1.60014e-21
      257.200   1.56243e-21
      257.300   1.52558e-21
      257.400   1.48989e-21
      257.500   1.45513e-21
      257.600   1.42121e-21
      257.700   1.38807e-21
      257.800   1.35568e-21
      257.900   1.32404e-21
      258.000   1.29312e-21
      258.100   1.26290e-21
      258.200   1.23338e-21
      258.300   1.20454e-21
      258.400   1.17635e-21
      258.500   1.14880e-21
      258.600   1.12190e-21
      258.700   1.09561e-21
      258.800   1.06992e-21
      258.900   1.04483e-21
      259.000   1.02030e-21
      259.100   9.96347e-22
      259.200   9.72953e-22
      259.300   9.50115e-22
      259.400   9.27801e-22
      259.500   9.05993e-22
      259.600   8.84701e-22
      259.700   8.63896e-22
      259.800   8.43569e-22
      259.900   8.23704e-22
      260.000   8.04307e-22
      260.100   7.85361e-22
      260.200   7.66853e-22
      260.300   7.48774e-22
      260.400   7.31114e-22
      260.500   7.13870e-22
      260.600   6.97015e-22
      260.700   6.80557e-22
      260.800   6.64491e-22
      260.900   6.48786e-22
      261.000   6.33458e-22
      261.100   6.18501e-22
      261.200   6.03880e-22
      261.300   5.89604e-22
      261.400   5.75665e-22
      261.500   5.62064e-22
      261.600   5.48827e-22
      261.700   5.35901e-22
      261.800   5.23282e-22
      261.900   5.10949e-22
      262.000   4.98906e-22
      262.100   4.87142e-22
      262.200   4.75659e-22
      262.300   4.64439e-22
      262.400   4.53485e-22
      262.500   4.42783e-22
      262.600   4.32331e-22
      262.700   4.22125e-22
      262.800   4.12158e-22
      262.900   4.02418e-22
      263.000   3.92919e-22
      263.100   3.83638e-22
      263.200   3.74581e-22
      263.300   3.65733e-22
      263.400   3.57093e-22
      263.500   3.48658e-22
      263.600   3.40421e-22
      263.700   3.32376e-22
      263.800   3.24520e-22
      263.900   3.16855e-22
      264.000   3.09365e-22
      264.100   3.02050e-22
      264.200   2.94906e-22
      264.300   2.87935e-22
      264.400   2.81127e-22
      264.500   2.74477e-22
      264.600   2.67985e-22
      264.700   2.61648e-22
      264.800   2.55456e-22
      264.900   2.49414e-22
      265.000   2.43514e-22
      265.100   2.37751e-22
      265.200   2.32125e-22
      265.300   2.26632e-22
      265.400   2.21272e-22
      265.500   2.16035e-22
      265.600   2.10924e-22
      265.700   2.06515e-22
      265.800   2.04678e-22
      265.900   2.02939e-22
      266.000   2.01213e-22
      266.100   1.99503e-22
      266.200   1.97808e-22
      266.300   1.96127e-22
      266.400   1.94461e-22
      266.500   1.92810e-22
      266.600   1.91173e-22
      266.700   1.89548e-22
      266.800   1.87940e-22
      266.900   1.86346e-22
      267.000   1.84765e-22
      267.100   1.83199e-22
      267.200   1.81646e-22
      267.300   1.80107e-22
      267.400   1.78580e-22
      267.500   1.77067e-22
      267.600   1.75568e-22
      267.700   1.74083e-22
      267.800   1.72608e-22
      267.900   1.71148e-22
      268.000   1.69702e-22
      268.100   1.68268e-22
      268.200   1.66847e-22
      268.300   1.65439e-22
      268.400   1.64042e-22
      268.500   1.62657e-22
      268.600   1.61284e-22
      268.700   1.59926e-22
      268.800   1.58578e-22
      268.900   1.57242e-22
      269.000   1.55919e-22
      269.100   1.54605e-22
      269.200   1.53305e-22
      269.300   1.52017e-22
      269.400   1.50739e-22
      269.500   1.49472e-22
      269.600   1.48218e-22
      269.700   1.46972e-22
      269.800   1.45739e-22
      269.900   1.44517e-22
      270.000   1.43306e-22
      270.100   1.42111e-22
      270.200   1.40927e-22
      270.300   1.39754e-22
      270.400   1.38590e-22
      270.500   1.37437e-22
      270.600   1.36292e-22
      270.700   1.35160e-22
      270.800   1.34037e-22
      270.900   1.32923e-22
      271.000   1.31819e-22
      271.100   1.30724e-22
      271.200   1.29638e-22
      271.300   1.28562e-22
      271.400   1.27496e-22
      271.500   1.26439e-22
      271.600   1.25390e-22
      271.700   1.24349e-22
      271.800   1.23319e-22
      271.900   1.22296e-22
      272.000   1.21283e-22
      272.100   1.20278e-22
      272.200   1.19281e-22
      272.300   1.18292e-22
      272.400   1.17311e-22
      272.500   1.16339e-22
      272.600   1.15375e-22
      272.700   1.14419e-22
      272.800   1.13470e-22
      272.900   1.12530e-22
      273.000   1.11597e-22
      273.100   1.10672e-22
      273.200   1.09755e-22
      273.300   1.08845e-22
      273.400   1.07942e-22
      273.500   1.07046e-22
      273.600   1.06158e-22
      273.700   1.05277e-22
      273.800   1.04402e-22
      273.900   1.03535e-22
      274.000   1.02676e-22
      274.100   1.01823e-22
      274.200   1.00976e-22
      274.300   1.00136e-22
      274.400   9.92784e-23
      274.500   9.83687e-23
      274.600   9.74553e-23
      274.700   9.65504e-23
      274.800   9.56535e-23
      274.900   9.47643e-23
      275.000   9.38825e-23
      275.100   9.30084e-23
      275.200   9.21417e-23
      275.300   9.12822e-23
      275.400   9.04310e-23
      275.500   8.95866e-23
      275.600   8.87497e-23
      275.700   8.79198e-23
      275.800   8.70971e-23
      275.900   8.62821e-23
      276.000   8.54741e-23
      276.100   8.46725e-23
      276.200   8.38773e-23
      276.300   8.30892e-23
      276.400   8.23084e-23
      276.500   8.15341e-23
      276.600   8.07668e-23
      276.700   8.00054e-23
      276.800   7.92508e-23
      276.900   7.85020e-23
      277.000   7.77602e-23
      277.100   7.70245e-23
      277.200   7.62955e-23
      277.300   7.55725e-23
      277.400   7.48560e-23
      277.500   7.41446e-23
      277.600   7.34402e-23
      277.700   7.27408e-23
      277.800   7.20473e-23
      277.900   7.13612e-23
      278.000   7.06807e-23
      278.100   7.00056e-23
      278.200   6.93364e-23
      278.300   6.86730e-23
      278.400   6.80153e-23
      278.500   6.73628e-23
      278.600   6.67159e-23
      278.700   6.60752e-23
      278.800   6.54664e-23
      278.900   6.49860e-23
      279.000   6.45113e-23
      279.100   6.40394e-23
      279.200   6.35693e-23
      279.300   6.31030e-23
      279.400   6.26388e-23
      279.500   6.21770e-23
      279.600   6.17186e-23
      279.700   6.12625e-23
      279.800   6.08093e-23
      279.900   6.03591e-23
      280.000   5.99111e-23
      280.100   5.94655e-23
      280.200   5.90229e-23
      280.300   5.85828e-23
      280.400   5.81456e-23
      280.500   5.77109e-23
      280.600   5.72789e-23
      280.700   5.68496e-23
      280.800   5.64226e-23
      280.900   5.59981e-23
      281.000   5.55764e-23
      281.100   5.51571e-23
      281.200   5.47405e-23
      281.300   5.43264e-23
      281.400   5.39152e-23
      281.500   5.35063e-23
      281.600   5.30994e-23
      281.700   5.26952e-23
      281.800   5.22943e-23
      281.900   5.18955e-23
      282.000   5.14989e-23
      282.100   5.11051e-23
      282.200   5.07142e-23
      282.300   5.03249e-23
      282.400   4.99383e-23
      282.500   4.95539e-23
      282.600   4.91727e-23
      282.700   4.87938e-23
      282.800   4.84168e-23
      282.900   4.80431e-23
      283.000   4.76715e-23
      283.100   4.73017e-23
      283.200   4.69351e-23
      283.300   4.66657e-23
      283.400   4.69145e-23
      283.500   4.72266e-23
      283.600   4.75394e-23
      283.700   4.78538e-23
      283.800   4.81688e-23
      283.900   4.84846e-23
      284.000   4.88016e-23
      284.100   4.91193e-23
      284.200   4.94387e-23
      284.300   4.97595e-23
      284.400   5.00806e-23
      284.500   5.04028e-23
      284.600   5.07267e-23
      284.700   5.10511e-23
      284.800   5.13767e-23
      284.900   5.17038e-23
      285.000   5.20315e-23
      285.100   5.23603e-23
      285.200   5.26898e-23
      285.300   5.30210e-23
      285.400   5.33538e-23
      285.500   5.36866e-23
      285.600   5.40214e-23
      285.700   5.43566e-23
      285.800   5.46934e-23
      285.900   5.50313e-23
      286.000   5.53696e-23
      286.100   5.57102e-23
      286.200   5.60518e-23
      286.300   5.63947e-23
      286.400   5.67378e-23
      286.500   5.70826e-23
      286.600   5.74285e-23
      286.700   5.77755e-23
      286.800   5.81239e-23
      286.900   5.84739e-23
      287.000   5.88245e-23
      287.100   5.91764e-23
      287.200   5.95295e-23
      287.300   5.98833e-23
      287.400   6.02387e-23
      287.500   6.05957e-23
      287.600   6.09539e-23
      287.700   6.13135e-23
      287.800   6.16743e-23
      287.900   6.20366e-23
      288.000   6.24007e-23
      288.100   6.27666e-23
      288.200   6.31332e-23
      288.300   6.35015e-23
      288.400   6.38725e-23
      288.500   6.42434e-23
      288.600   6.46160e-23
      288.700   6.49906e-23
      288.800   6.53657e-23
      288.900   6.57422e-23
      289.000   6.61208e-23
      289.100   6.65000e-23
      289.200   6.68802e-23
      289.300   6.72624e-23
      289.400   6.76467e-23
      289.500   6.80319e-23
      289.600   6.84181e-23
      289.700   6.88062e-23
      289.800   6.91957e-23
      289.900   6.95859e-23
      290.000   6.99793e-23
      290.100   7.03719e-23
      290.200   7.07679e-23
      290.300   7.11649e-23
      290.400   7.15629e-23
      290.500   7.19628e-23
      290.600   7.23636e-23
      290.700   7.27662e-23
      290.800   7.31706e-23
      290.900   7.35765e-23
      291.000   7.39841e-23
      291.100   7.43927e-23
      291.200   7.48026e-23
      291.300   7.52148e-23
      291.400   7.56276e-23
      291.500   7.60419e-23
      291.600   7.64585e-23
      291.700   7.68757e-23
      291.800   7.72949e-23
      291.900   7.77156e-23
      292.000   7.81386e-23
      292.100   7.85633e-23
      292.200   7.89884e-23
      292.300   7.94153e-23
      292.400   7.98437e-23
      292.500   8.02738e-23
      292.600   8.07038e-23
      292.700   8.11339e-23
      292.800   8.15654e-23
      292.900   8.19977e-23
      293.000   8.24320e-23
      293.100   8.28684e-23
      293.200   8.33053e-23
      293.300   8.37433e-23
      293.400   8.41838e-23
      293.500   8.46252e-23
      293.600   8.50683e-23
      293.700   8.55133e-23
      293.800   8.59598e-23
      293.900   8.64067e-23
      294.000   8.68550e-23
      294.100   8.73052e-23
      294.200   8.77568e-23
      294.300   8.82098e-23
      294.400   8.86644e-23
      294.500   8.91195e-23
      294.600   8.95758e-23
      294.700   9.00346e-23
      294.800   9.04941e-23
      294.900   9.09539e-23
      295.000   9.14167e-23
      295.100   9.18810e-23
      295.200   9.23459e-23
      295.300   9.28115e-23
      295.400   9.32788e-23
      295.500   9.37472e-23
      295.600   9.42165e-23
      295.700   9.46871e-23
      295.800   9.51587e-23
      295.900   9.56317e-23
      296.000   9.61069e-23
      296.100   9.65815e-23
      296.200   9.70585e-23
      296.300   9.75357e-23
      296.400   9.80146e-23
      296.500   9.84939e-23
      296.600   9.89751e-23
      296.700   9.94566e-23
      296.800   9.99391e-23
      296.900   1.00423e-22
      297.000   1.00908e-22
      297.100   1.01394e-22
      297.200   1.01942e-22
      297.300   1.02950e-22
      297.400   1.05093e-22
      297.500   1.07277e-22
      297.600   1.09503e-22
      297.700   1.11776e-22
      297.800   1.14089e-22
      297.900   1.16445e-22
      298.000   1.18843e-22
      298.100   1.21286e-22
      298.200   1.23773e-22
      298.300   1.26306e-22
      298.400   1.28886e-22
      298.500   1.31512e-22
      298.600   1.34187e-22
      298.700   1.36909e-22
      298.800   1.39680e-22
      298.900   1.42504e-22
      299.000   1.45382e-22
      299.100   1.48310e-22
      299.200   1.51291e-22
      299.300   1.54324e-22
      299.400   1.57412e-22
      299.500   1.60554e-22
      299.600   1.63749e-22
      299.700   1.67001e-22
      299.800   1.70312e-22
      299.900   1.73681e-22
      300.000   1.77105e-22
      300.100   1.80596e-22
      300.192   1.83860e-22
      300.285   1.87213e-22
      300.377   1.90582e-22
      300.470   1.94044e-22
      300.562   1.97519e-22
      300.654   2.01051e-22
      300.747   2.04682e-22
      300.839   2.08327e-22
      300.932   2.12070e-22
      301.025   2.15877e-22
      301.117   2.19698e-22
      301.210   2.23619e-22
      301.303   2.27608e-22
      301.395   2.31607e-22
      301.488   2.35720e-22
      301.581   2.39888e-22
      301.674   2.44129e-22
      301.766   2.48385e-22
      301.859   2.52758e-22
      301.952   2.57193e-22
      302.045   2.61700e-22
      302.138   2.74336e-22
      302.231   2.90893e-22
      302.324   3.08529e-22
      302.417   3.27197e-22
      302.510   3.46929e-22
      302.603   3.67771e-22
      302.696   3.89810e-22
      302.789   4.13115e-22
      302.882   4.37734e-22
      302.976   4.64025e-22
      303.069   4.91508e-22
      303.162   5.20532e-22
      303.255   5.51184e-22
      303.349   5.83905e-22
      303.442   6.18096e-22
      303.535   6.54145e-22
      303.629   6.92610e-22
      303.722   7.32785e-22
      303.816   7.75632e-22
      303.909   8.20365e-22
      304.003   8.68034e-22
      304.096   9.17806e-22
      304.190   9.70851e-22
      304.283   1.02617e-21
      304.377   1.08506e-21
      304.471   1.14719e-21
      304.564   1.21196e-21
      304.658   1.28093e-21
      304.752   1.35367e-21
      304.846   1.43021e-21
      304.939   1.51000e-21
      305.033   1.59491e-21
      305.127   1.68431e-21
      305.221   1.77842e-21
      305.315   1.87756e-21
      305.409   1.98182e-21
      305.503   2.09155e-21
      305.597   2.20707e-21
      305.691   2.32853e-21
      305.785   2.45639e-21
      305.879   2.59080e-21
      305.973   2.73202e-21
      306.067   2.88064e-21
      306.161   3.03679e-21
      306.255   3.20093e-21
      306.350   3.37530e-21
      306.444   3.55663e-21
      306.538   3.74719e-21
      306.633   3.94940e-21
      306.727   4.15971e-21
      306.821   4.38054e-21
      306.916   4.61483e-21
      307.010   4.85952e-21
      307.105   5.12023e-21
      307.199   5.39131e-21
      307.294   5.67901e-21
      307.388   5.97783e-21
      307.483   6.29481e-21
      307.577   6.62408e-21
      307.672   6.97328e-21
      307.767   7.33965e-21
      307.861   7.71974e-21
      307.956   8.12304e-21
      308.051   8.54604e-21
      308.146   8.98958e-21
      308.240   9.44951e-21
      308.335   9.93678e-21
      308.430   1.04478e-20
      308.525   1.09837e-20
      308.620   1.15449e-20
      308.715   1.21332e-20
      308.810   1.27495e-20
      308.905   1.33951e-20
      309.000   1.40710e-20
      309.095   1.47790e-20
      309.190   1.55203e-20
      309.285   1.62967e-20
      309.380   1.71093e-20
      309.476   1.79687e-20
      309.571   1.88590e-20
      309.666   1.97913e-20
      309.761   2.07661e-20
      309.857   2.17965e-20
      309.952   2.28632e-20
      310.047   2.39783e-20
      310.143   2.51574e-20
      310.238   2.63774e-20
      310.334   2.76661e-20
      310.429   2.90004e-20
      310.525   3.04082e-20
      310.620   3.18650e-20
      310.716   3.34032e-20
      310.811   3.49939e-20
      310.907   3.66717e-20
      311.003   3.84247e-20
      311.098   4.02374e-20
      311.194   4.21502e-20
      311.290   4.41480e-20
      311.386   4.62331e-20
      311.481   4.83871e-20
      311.577   5.06576e-20
      311.673   5.30293e-20
      311.769   5.55043e-20
      311.865   5.80842e-20
      311.961   6.07895e-20
      312.057   6.36374e-20
      312.153   6.66157e-20
      312.249   6.97246e-20
      312.345   7.29689e-20
      312.441   7.63544e-20
      312.537   7.98839e-20
      312.633   8.35653e-20
      312.730   8.74483e-20
      312.826   9.14548e-20
      312.922   9.56308e-20
      313.018   9.99857e-20
      313.115   1.04573e-19
      313.211   1.09309e-19
      313.307   1.14242e-19
      313.404   1.19436e-19
      313.500   1.24794e-19
      313.597   1.30434e-19
      313.693   1.36245e-19
      313.790   1.42365e-19
      313.886   1.48674e-19
      313.983   1.55314e-19
      314.079   1.62157e-19
      314.176   1.69351e-19
      314.273   1.76845e-19
      314.369   1.84564e-19
      314.466   1.92683e-19
      314.563   2.01133e-19
      314.660   2.09918e-19
      314.756   2.18973e-19
      314.853   2.28486e-19
      314.950   2.38383e-19
      315.047   2.48677e-19
      315.144   2.59388e-19
      315.241   2.70521e-19
      315.338   2.82102e-19
      315.435   2.94138e-19
      315.532   3.06649e-19
      315.629   3.19650e-19
      315.726   3.33163e-19
      315.823   3.47216e-19
      315.921   3.61954e-19
      316.018   3.77123e-19
      316.115   3.92879e-19
      316.212   4.09245e-19
      316.310   4.26415e-19
      316.407   4.44063e-19
      316.504   4.62397e-19
      316.602   4.81624e-19
      316.699   5.01384e-19
      316.796   5.21881e-19
      316.894   5.43382e-19
      316.991   5.65495e-19
      317.089   5.88845e-19
      317.187   6.13188e-19
      317.284   6.38188e-19
      317.382   6.64399e-19
      317.479   6.91330e-19
      317.577   7.19546e-19
      317.675   7.48814e-19
      317.773   7.79203e-19
      317.870   8.10399e-19
      317.968   8.43113e-19
      318.066   8.77024e-19
      318.164   9.12193e-19
      318.262   9.48663e-19
      318.360   9.86493e-19
      318.458   1.02570e-18
      318.556   1.06634e-18
      318.654   1.10846e-18
      318.752   1.15211e-18
      318.850   1.19734e-18
      318.948   1.24423e-18
      319.046   1.29281e-18
      319.144   1.34313e-18
      319.242   1.39524e-18
      319.341   1.44979e-18
      319.439   1.50571e-18
      319.537   1.56361e-18
      319.635   1.62356e-18
      319.734   1.68626e-18
      319.832   1.75051e-18
      319.930   1.81703e-18
      320.029   1.88657e-18
      320.127   1.95781e-18
      320.226   2.03231e-18
      320.324   2.10863e-18
      320.423   2.18838e-18
      320.522   2.27088e-18
      320.620   2.35534e-18
      320.719   2.44361e-18
      320.818   2.53491e-18
      320.916   2.62837e-18
      321.015   2.72601e-18
      321.114   2.82694e-18
      321.213   2.93131e-18
      321.311   3.03807e-18
      321.410   3.14948e-18
      321.509   3.26470e-18
      321.608   3.38369e-18
      321.707   3.50670e-18
      321.806   3.63383e-18
      321.905   3.76507e-18
      322.004   3.90078e-18
      322.103   4.06090e-18
      322.202   4.26179e-18
      322.301   4.48701e-18
      322.401   4.72567e-18
      322.500   4.97351e-18
      322.599   5.23327e-18
      322.698   5.50553e-18
      322.798   5.79398e-18
      322.897   6.09330e-18
      322.996   6.40671e-18
      323.096   6.73861e-18
      323.195   7.08267e-18
      323.294   7.44285e-18
      323.394   7.82374e-18
      323.493   8.21865e-18
      323.593   8.63618e-18
      323.692   9.06867e-18
      323.792   9.52574e-18
      323.892   1.00039e-17
      323.991   1.04993e-17
      324.091   1.10224e-17
      324.191   1.15697e-17
      324.291   1.21416e-17
      324.390   1.27331e-17
      324.490   1.33582e-17
      324.590   1.40107e-17
      324.690   1.46924e-17
      324.790   1.54047e-17
      324.890   1.61485e-17
      324.990   1.69257e-17
      325.090   1.77371e-17
      325.190   1.85834e-17
      325.290   1.94665e-17
      325.390   2.03888e-17
      325.490   2.13504e-17
      325.590   2.23532e-17
      325.690   2.33994e-17
      325.790   2.44902e-17
      325.891   2.56389e-17
      325.991   2.68245e-17
      326.091   2.80605e-17
      326.192   2.93613e-17
      326.292   3.07033e-17
      326.392   3.21005e-17
      326.493   3.35710e-17
      326.593   3.50871e-17
      326.694   3.66803e-17
      326.794   3.83234e-17
      326.895   4.00509e-17
      326.995   4.18311e-17
      327.096   4.37005e-17
      327.197   4.56465e-17
      327.297   4.76540e-17
      327.398   4.97690e-17
      327.499   5.19727e-17
      327.599   5.42429e-17
      327.700   5.66264e-17
      327.801   5.91033e-17
      327.902   6.16775e-17
      328.003   6.43547e-17
      328.104   6.71365e-17
      328.205   7.00266e-17
      328.306   7.30282e-17
      328.407   7.61449e-17
      328.508   7.93821e-17
      328.609   8.27426e-17
      328.710   8.62300e-17
      328.811   8.98504e-17
      328.912   9.36080e-17
      329.013   9.75048e-17
      329.115   1.01589e-16
      329.216   1.05784e-16
      329.317   1.10133e-16
      329.419   1.14687e-16
      329.520   1.19364e-16
      329.621   1.24212e-16
      329.723   1.29288e-16
      329.824   1.34488e-16
      329.926   1.39934e-16
      330.027   1.45521e-16
      330.129   1.51366e-16
      330.230   1.57355e-16
      330.332   1.63622e-16
      330.434   1.70107e-16
      330.535   1.76757e-16
      330.637   1.83706e-16
      330.739   1.90890e-16
      330.840   1.98254e-16
      330.942   2.05949e-16
      331.044   2.13906e-16
      331.146   2.22134e-16
      331.248   2.30642e-16
      331.350   2.39437e-16
      331.452   2.48536e-16
      331.554   2.58072e-16
      331.656   2.68162e-16
      331.758   2.78598e-16
      331.860   2.89402e-16
      331.962   3.00574e-16
      332.064   3.12128e-16
      332.166   3.24072e-16
      332.268   3.36427e-16
      332.371   3.49319e-16
      332.473   3.62519e-16
      332.575   3.75586e-16
      332.677   3.87148e-16
      332.780   3.97586e-16
      332.882   4.08165e-16
      332.985   4.19086e-16
      333.087   4.30153e-16
      333.190   4.41580e-16
      333.292   4.53014e-16
      333.395   4.64452e-16
      333.497   4.75869e-16
      333.600   4.87636e-16
      333.702   4.99526e-16
      333.805   5.11768e-16
      333.908   5.24279e-16
      334.011   5.37030e-16
      334.113   5.49907e-16
      334.216   5.63176e-16
      334.319   5.76706e-16
      334.422   5.90503e-16
      334.525   6.04575e-16
      334.628   6.18924e-16
      334.731   6.33541e-16
      334.834   6.48450e-16
      334.937   6.63651e-16
      335.040   6.79148e-16
      335.143   6.94924e-16
      335.246   7.11008e-16
      335.349   7.27389e-16
      335.452   7.44075e-16
      335.555   7.61074e-16
      335.659   7.78568e-16
      335.762   7.96221e-16
      335.865   8.14182e-16
      335.969   8.32657e-16
      336.072   8.51293e-16
      336.175   8.70248e-16
      336.279   8.89735e-16
      336.382   9.09390e-16
      336.486   9.29595e-16
      336.589   9.49944e-16
      336.693   9.70865e-16
      336.796   9.91930e-16
      336.900   1.01360e-15
      337.004   1.03565e-15
      337.107   1.05782e-15
      337.211   1.08063e-15
      337.315   1.10382e-15
      337.419   1.12741e-15
      337.523   1.15138e-15
      337.626   1.17553e-15
      337.730   1.20033e-15
      337.834   1.22552e-15
      337.938   1.25109e-15
      338.042   1.27690e-15
      338.146   1.30312e-15
      338.250   1.32976e-15
      338.354   1.35684e-15
      338.458   1.38435e-15
      338.562   1.41230e-15
      338.667   1.44095e-15
      338.771   1.46980e-15
      338.875   1.49908e-15
      338.979   1.52882e-15
      339.084   1.55931e-15
      339.188   1.58995e-15
      339.292   1.62110e-15
      339.397   1.65302e-15
      339.501   1.68511e-15
      339.606   1.71803e-15
      339.710   1.75108e-15
      339.815   1.78498e-15
      339.919   1.81903e-15
      340.024   1.85394e-15
      340.128   1.88899e-15
      340.233   1.92494e-15
      340.338   1.96137e-15
      340.442   1.99799e-15
      340.547   2.03550e-15
      340.652   2.07355e-15
      340.757   2.11213e-15
      340.862   2.15127e-15
      340.966   2.19058e-15
      341.071   2.23078e-15
      341.176   2.27157e-15
      341.281   2.31293e-15
      341.386   2.35485e-15
      341.491   2.39736e-15
      341.596   2.44044e-15
      341.702   2.48454e-15
      341.807   2.52877e-15
      341.912   2.57362e-15
      342.017   2.61909e-15
      342.122   2.66514e-15
      342.228   2.71221e-15
      342.333   2.75948e-15
      342.438   2.80738e-15
      342.544   2.85633e-15
      342.649   2.90544e-15
      342.754   2.95519e-15
      342.860   3.00604e-15
      342.965   3.05710e-15
      343.071   3.10921e-15
      343.176   3.16154e-15
      343.282   3.21504e-15
      343.388   3.26918e-15
      343.493   3.32381e-15
      343.599   3.38258e-15
      343.705   3.44248e-15
      343.810   3.50256e-15
      343.916   3.56401e-15
      344.022   3.62633e-15
      344.128   3.68943e-15
      344.234   3.75342e-15
      344.340   3.81821e-15
      344.446   3.88385e-15
      344.552   3.95035e-15
      344.658   4.01778e-15
      344.764   4.08595e-15
      344.870   4.15510e-15
      344.976   4.22505e-15
      345.082   4.29594e-15
      345.188   4.36770e-15
      345.294   4.44038e-15
      345.401   4.51467e-15
      345.507   4.58917e-15
      345.613   4.66456e-15
      345.719   4.74091e-15
      345.826   4.81894e-15
      345.932   4.89717e-15
      346.039   4.97709e-15
      346.145   5.05723e-15
      346.252   5.13908e-15
      346.358   5.22114e-15
      346.465   5.30489e-15
      346.571   5.38893e-15
      346.678   5.47472e-15
      346.785   5.56156e-15
      346.891   5.64851e-15
      346.998   5.73726e-15
      347.105   5.82712e-15
      347.212   5.91803e-15
      347.319   6.00996e-15
      347.425   6.10203e-15
      347.532   6.19606e-15
      347.639   6.29109e-15
      347.746   6.38719e-15
      347.853   6.48448e-15
      347.960   6.58270e-15
      348.067   6.68207e-15
      348.174   6.78247e-15
      348.281   6.88391e-15
      348.389   6.98753e-15
      348.496   7.09115e-15
      348.603   7.19602e-15
      348.710   7.30186e-15
      348.818   7.40996e-15
      348.925   7.51735e-15
      349.032   7.58850e-15
      349.140   7.56985e-15
      349.247   7.55127e-15
      349.355   7.53257e-15
      349.462   7.51402e-15
      349.570   7.49528e-15
      349.677   7.47673e-15
      349.785   7.45799e-15
      349.892   7.43945e-15
      350.000   7.42078e-15
      350.100   7.40347e-15
      350.193   7.38740e-15
      350.287   7.37110e-15
      350.380   7.35500e-15
      350.473   7.33894e-15
      350.567   7.32266e-15
      350.660   7.30656e-15
      350.754   7.29034e-15
      350.847   7.27429e-15
      350.941   7.25802e-15
      351.034   7.24196e-15
      351.128   7.22578e-15
      351.221   7.20971e-15
      351.315   7.19353e-15
      351.409   7.17732e-15
      351.502   7.16129e-15
      351.596   7.14508e-15
      351.690   7.12889e-15
      351.783   7.11291e-15
      351.877   7.09677e-15
      351.971   7.08059e-15
      352.065   7.06446e-15
      352.159   7.04833e-15
      352.252   7.03238e-15
      352.346   7.01621e-15
      352.440   7.00009e-15
      352.534   6.98399e-15
      352.628   6.96792e-15
      352.722   6.95181e-15
      352.816   6.93573e-15
      352.910   6.91964e-15
      353.004   6.90360e-15
      353.098   6.88752e-15
      353.192   6.87146e-15
      353.287   6.85524e-15
      353.381   6.83920e-15
      353.475   6.82322e-15
      353.569   6.80717e-15
      353.663   6.79113e-15
      353.758   6.77500e-15
      353.852   6.75902e-15
      353.946   6.74303e-15
      354.041   6.72687e-15
      354.135   6.71091e-15
      354.229   6.69491e-15
      354.324   6.67883e-15
      354.418   6.66284e-15
      354.513   6.64672e-15
      354.607   6.63083e-15
      354.702   6.60453e-15
      354.796   6.57210e-15
      354.891   6.53887e-15
      354.985   6.50617e-15
      355.080   6.47326e-15
      355.175   6.44050e-15
      355.269   6.40822e-15
      355.364   6.37576e-15
      355.459   6.34346e-15
      355.553   6.31165e-15
      355.648   6.27963e-15
      355.743   6.24778e-15
      355.838   6.21603e-15
      355.933   6.18449e-15
      356.027   6.15338e-15
      356.122   6.12210e-15
      356.217   6.09094e-15
      356.312   6.05996e-15
      356.407   6.02908e-15
      356.502   5.99836e-15
      356.597   5.96776e-15
      356.692   5.93733e-15
      356.787   5.90703e-15
      356.882   5.87683e-15
      356.977   5.84682e-15
      357.073   5.81660e-15
      357.168   5.78680e-15
      357.263   5.75716e-15
      357.358   5.72766e-15
      357.453   5.69830e-15
      357.549   5.66875e-15
      357.644   5.63964e-15
      357.739   5.61067e-15
      357.835   5.58151e-15
      357.930   5.55277e-15
      358.025   5.52416e-15
      358.121   5.49538e-15
      358.216   5.46702e-15
      358.312   5.43850e-15
      358.407   5.41039e-15
      358.503   5.38212e-15
      358.598   5.35428e-15
      358.694   5.32624e-15
      358.790   5.29833e-15
      358.885   5.27082e-15
      358.981   5.24316e-15
      359.076   5.21589e-15
      359.172   5.18848e-15
      359.268   5.16114e-15
      359.364   5.13394e-15
      359.459   5.10717e-15
      359.555   5.08022e-15
      359.651   5.05335e-15
      359.747   5.02660e-15
      359.843   4.99999e-15
      359.939   4.97347e-15
      360.035   4.94710e-15
      360.131   4.92082e-15
      360.227   4.89464e-15
      360.323   4.86860e-15
      360.419   4.87068e-15
      360.515   4.89764e-15
      360.611   4.92939e-15
      360.707   4.96122e-15
      360.803   4.99302e-15
      360.899   5.02492e-15
      360.995   5.05687e-15
      361.092   5.08918e-15
      361.188   5.12120e-15
      361.284   5.15325e-15
      361.380   5.18534e-15
      361.477   5.21780e-15
      361.573   5.24997e-15
      361.669   5.28213e-15
      361.766   5.31465e-15
      361.862   5.34686e-15
      361.959   5.37943e-15
      362.055   5.41169e-15
      362.152   5.44430e-15
      362.248   5.47659e-15
      362.345   5.50924e-15
      362.441   5.54155e-15
      362.538   5.57420e-15
      362.635   5.60687e-15
      362.731   5.63919e-15
      362.828   5.67182e-15
      362.925   5.70447e-15
      363.021   5.73683e-15
      363.118   5.76947e-15
      363.215   5.80211e-15
      363.312   5.83474e-15
      363.409   5.86736e-15
      363.505   5.89960e-15
      363.602   5.93221e-15
      363.699   5.96481e-15
      363.796   5.99734e-15
      363.893   6.02984e-15
      363.990   6.06232e-15
      364.087   6.09478e-15
      364.184   6.12720e-15
      364.281   6.15960e-15
      364.378   6.19199e-15
      364.475   6.22429e-15
      364.573   6.25691e-15
      364.670   6.28912e-15
      364.767   6.32130e-15
      364.864   6.35346e-15
      364.961   6.38550e-15
      365.059   6.41786e-15
      365.156   6.44982e-15
      365.253   6.48175e-15
      365.351   6.51392e-15
      365.448   6.54570e-15
      365.545   6.57744e-15
      365.643   6.60941e-15
      365.740   6.64099e-15
      365.838   6.67283e-15
      365.935   6.70421e-15
      366.033   6.73591e-15
      366.130   6.76718e-15
      366.228   6.81123e-15
      366.326   6.87296e-15
      366.423   6.93985e-15
      366.521   7.00779e-15
      366.618   7.07531e-15
      366.716   7.14374e-15
      366.814   7.21243e-15
      366.912   7.28139e-15
      367.010   7.35074e-15
      367.107   7.41955e-15
      367.205   7.48935e-15
      367.303   7.55938e-15
      367.401   7.62963e-15
      367.499   7.70017e-15
      367.597   7.77093e-15
      367.695   7.84186e-15
      367.793   7.91302e-15
      367.891   7.98446e-15
      367.989   8.05619e-15
      368.087   8.12804e-15
      368.185   8.20005e-15
      368.283   8.27235e-15
      368.381   8.34487e-15
      368.480   8.41821e-15
      368.578   8.49110e-15
      368.676   8.56411e-15
      368.774   8.63732e-15
      368.873   8.71147e-15
      368.971   8.78501e-15
      369.069   8.85876e-15
      369.168   8.93341e-15
      369.266   9.00735e-15
      369.364   9.08151e-15
      369.463   9.15665e-15
      369.561   9.23109e-15
      369.660   9.30638e-15
      369.758   9.38102e-15
      369.857   9.45660e-15
      369.955   9.53152e-15
      370.054   9.60730e-15
      370.153   9.68315e-15
      370.251   9.75836e-15
      370.350   9.83445e-15
      370.449   9.91059e-15
      370.547   9.98600e-15
      370.646   1.00623e-14
      370.745   1.01387e-14
      370.844   1.02151e-14
      370.943   1.02916e-14
      371.041   1.03673e-14
      371.140   1.04439e-14
      371.239   1.05205e-14
      371.338   1.05972e-14
      371.437   1.06738e-14
      371.536   1.07504e-14
      371.635   1.08271e-14
      371.734   1.09038e-14
      371.833   1.09805e-14
      371.932   1.10571e-14
      372.032   1.11346e-14
      372.131   1.12890e-14
      372.230   1.16096e-14
      372.329   1.20223e-14
      372.428   1.24464e-14
      372.528   1.28863e-14
      372.627   1.33338e-14
      372.726   1.37933e-14
      372.826   1.42700e-14
      372.925   1.47545e-14
      373.024   1.52516e-14
      373.124   1.57668e-14
      373.223   1.62894e-14
      373.323   1.68311e-14
      373.422   1.73809e-14
      373.522   1.79500e-14
      373.621   1.85269e-14
      373.721   1.91243e-14
      373.820   1.97295e-14
      373.920   2.03555e-14
      374.020   2.09968e-14
      374.119   2.16456e-14
      374.219   2.23169e-14
      374.319   2.30031e-14
      374.419   2.37044e-14
      374.518   2.44146e-14
      374.618   2.51478e-14
      374.718   2.58975e-14
      374.818   2.66623e-14
      374.918   2.74434e-14
      375.018   2.82418e-14
      375.118   2.90563e-14
      375.218   2.98881e-14
      375.318   3.07367e-14
      375.418   3.16027e-14
      375.518   3.24852e-14
      375.618   3.33851e-14
      375.718   3.43026e-14
      375.818   3.52375e-14
      375.918   3.61903e-14
      376.019   3.71707e-14
      376.119   3.81599e-14
      376.219   3.91662e-14
      376.319   4.01915e-14
      376.420   4.12448e-14
      376.520   4.23060e-14
      376.620   4.33854e-14
      376.721   4.44949e-14
      376.821   4.56114e-14
      376.922   4.67674e-14
      377.022   4.80499e-14
      377.122   4.94887e-14
      377.223   5.09728e-14
      377.323   5.24718e-14
      377.424   5.40180e-14
      377.525   5.55940e-14
      377.625   5.71847e-14
      377.726   5.88228e-14
      377.827   6.04930e-14
      377.927   6.21781e-14
      378.028   6.39105e-14
      378.129   6.56759e-14
      378.230   6.74736e-14
      378.330   6.92849e-14
      378.431   7.11461e-14
      378.532   7.30387e-14
      378.633   7.49652e-14
      378.734   7.69243e-14
      378.835   7.89144e-14
      378.936   8.09373e-14
      379.037   8.29924e-14
      379.138   8.50793e-14
      379.239   8.71999e-14
      379.340   8.93516e-14
      379.441   9.15363e-14
      379.542   9.37529e-14
      379.643   9.60010e-14
      379.745   9.83046e-14
      379.846   1.00618e-13
      379.947   1.02961e-13
      380.048   1.05336e-13
      380.150   1.07768e-13
      380.251   1.10207e-13
      380.352   1.12676e-13
      380.454   1.15200e-13
      380.555   1.17731e-13
      380.656   1.20292e-13
      380.758   1.22910e-13
      380.859   1.25530e-13
      380.961   1.28206e-13
      381.062   1.30884e-13
      381.164   1.33621e-13
      381.266   1.36385e-13
      381.367   1.39150e-13
      381.469   1.41971e-13
      381.570   1.44791e-13
      381.672   1.47666e-13
      381.774   1.50570e-13
      381.876   1.53499e-13
      381.977   1.56466e-13
      382.079   1.59624e-13
      382.181   1.62929e-13
      382.283   1.66265e-13
      382.385   1.69634e-13
      382.487   1.73038e-13
      382.589   1.76468e-13
      382.691   1.79928e-13
      382.793   1.83418e-13
      382.895   1.86939e-13
      382.997   1.90488e-13
      383.099   1.94065e-13
      383.201   1.97667e-13
      383.303   2.01300e-13
      383.405   2.04955e-13
      383.507   2.08633e-13
      383.610   2.12375e-13
      383.712   2.16106e-13
      383.814   2.19855e-13
      383.916   2.23629e-13
      384.019   2.27462e-13
      384.121   2.31279e-13
      384.223   2.35113e-13
      384.326   2.39007e-13
      384.428   2.42876e-13
      384.531   2.46799e-13
      384.633   2.50703e-13
      384.736   2.54661e-13
      384.838   2.58595e-13
      384.941   2.62582e-13
      385.043   2.66544e-13
      385.146   2.70558e-13
      385.249   2.74583e-13
      385.351   2.78581e-13
      385.454   2.82630e-13
      385.557   2.86685e-13
      385.660   2.90753e-13
      385.762   2.94786e-13
      385.865   2.98865e-13
      385.968   3.02953e-13
      386.071   3.07047e-13
      386.174   3.11145e-13
      386.277   3.15244e-13
      386.380   3.19346e-13
      386.483   3.23450e-13
      386.586   3.27556e-13
      386.689   3.31662e-13
      386.792   3.35767e-13
      386.895   3.39871e-13
      386.998   3.43972e-13
      387.101   3.46488e-13
      387.204   3.43558e-13
      387.308   3.38791e-13
      387.411   3.34136e-13
      387.514   3.29545e-13
      387.617   3.25020e-13
      387.721   3.20515e-13
      387.824   3.16114e-13
      387.927   3.11770e-13
      388.031   3.07449e-13
      388.134   3.03229e-13
      388.238   2.99029e-13
      388.341   2.94923e-13
      388.445   2.90837e-13
      388.548   2.86843e-13
      388.652   2.82870e-13
      388.755   2.78988e-13
      388.859   2.75123e-13
      388.962   2.71347e-13
      389.066   2.67586e-13
      389.170   2.63881e-13
      389.274   2.60224e-13
      389.377   2.56652e-13
      389.481   2.53093e-13
      389.585   2.49586e-13
      389.689   2.46127e-13
      389.793   2.42713e-13
      389.897   2.39350e-13
      390.000   2.36062e-13
      390.104   2.32790e-13
      390.208   2.29561e-13
      390.312   2.26377e-13
      390.416   2.23236e-13
      390.520   2.20135e-13
      390.625   2.17046e-13
      390.729   2.14033e-13
      390.833   2.11059e-13
      390.937   2.08126e-13
      391.041   2.05235e-13
      391.145   2.02383e-13
      391.250   1.99542e-13
      391.354   1.96767e-13
      391.458   1.94028e-13
      391.563   1.91301e-13
      391.667   1.88639e-13
      391.771   1.86014e-13
      391.876   1.83400e-13
      391.980   1.80846e-13
      392.085   1.78305e-13
      392.189   1.75824e-13
      392.294   1.73353e-13
      392.398   1.70940e-13
      392.503   1.68539e-13
      392.607   1.66193e-13
      392.712   1.63859e-13
      392.817   1.61555e-13
      392.921   1.59308e-13
      393.026   1.57070e-13
      393.131   1.54864e-13
      393.236   1.52687e-13
      393.340   1.50563e-13
      393.445   1.48449e-13
      393.550   1.46364e-13
      393.655   1.44308e-13
      393.760   1.42282e-13
      393.865   1.40284e-13
      393.970   1.38315e-13
      394.075   1.36372e-13
      394.180   1.34458e-13
      394.285   1.32571e-13
      394.390   1.30710e-13
      394.495   1.28875e-13
      394.600   1.27066e-13
      394.706   1.25266e-13
      394.811   1.23509e-13
      394.916   1.21775e-13
      395.021   1.20066e-13
      395.126   1.18383e-13
      395.232   1.16706e-13
      395.337   1.15069e-13
      395.443   1.13440e-13
      395.548   1.11849e-13
      395.653   1.10281e-13
      395.759   1.08720e-13
      395.864   1.07196e-13
      395.970   1.05679e-13
      396.075   1.04198e-13
      396.181   1.02723e-13
      396.286   1.01283e-13
      396.392   9.98508e-14
      396.498   9.84388e-14
      396.603   9.70585e-14
      396.709   9.56861e-14
      396.815   9.43323e-14
      396.921   9.29975e-14
      397.026   9.16950e-14
      397.132   9.03978e-14
      397.238   8.91201e-14
      397.344   8.78589e-14
      397.450   8.66180e-14
      397.556   8.53925e-14
      397.662   8.41844e-14
      397.768   8.29938e-14
      397.874   8.18194e-14
      397.980   8.06617e-14
      398.086   7.95199e-14
      398.192   7.83950e-14
      398.298   7.72854e-14
      398.404   7.61918e-14
      398.510   7.51132e-14
      398.617   7.40409e-14
      398.723   7.29928e-14
      398.829   7.19592e-14
      398.935   7.09403e-14
      399.042   6.99269e-14
      399.148   6.89363e-14
      399.255   6.79514e-14
      399.361   6.69893e-14
      399.467   6.60395e-14
      399.574   6.50958e-14
      399.680   6.41733e-14
      399.787   6.32552e-14
      399.893       0.00000
      400.000       0.00000
