Filter Ti-poly
observation_date 22-Sept-2022 22:45:45
wavelength effective area
      1.00000   2.76776e-10
      1.10000   7.88638e-10
      1.20000   2.04568e-09
      1.30000   4.87933e-09
      1.40000   1.10399e-08
      1.50000   2.34772e-08
      1.60000   4.73585e-08
      1.70000   9.15812e-08
      1.80000   1.69776e-07
      1.90000   3.03738e-07
      2.00000   5.25446e-07
      2.10000   8.82844e-07
      2.20000   1.44759e-06
      2.30000   2.31333e-06
      2.40000   3.60944e-06
      2.50000   5.78519e-06
      2.60000   8.95634e-06
      2.70000   1.33526e-05
      2.80000   1.95262e-05
      2.90000   2.82608e-05
      3.00000   4.02649e-05
      3.10000   5.66308e-05
      3.20000   7.87801e-05
      3.30000   0.000108479
      3.40000   0.000147818
      3.50000   0.000199476
      3.60000   0.000267952
      3.70000   0.000356115
      3.80000   0.000471332
      3.90000   0.000620371
      4.00000   0.000811466
      4.10000    0.00105652
      4.20000    0.00137068
      4.30000    0.00177322
      4.40000    0.00228789
      4.50000    0.00294387
      4.60000    0.00377528
      4.70000    0.00484137
      4.80000    0.00620224
      4.90000    0.00784357
      5.00000     0.0101806
      5.10000     0.0130277
      5.20000     0.0167207
      5.30000     0.0212793
      5.40000     0.0270375
      5.50000     0.0344144
      5.60000     0.0424607
      5.70000     0.0551927
      5.80000     0.0647038
      5.90000     0.0987904
      6.00000      0.132796
      6.10000      0.169720
      6.20000      0.208409
      6.30000      0.245307
      6.40000      0.276963
      6.50000      0.300265
      6.60000      0.310799
      6.70000      0.320482
      6.80000      0.320900
      6.90000      0.420985
      7.00000      0.457802
      7.10000      0.484146
      7.20000      0.505063
      7.30000      0.522113
      7.40000      0.535117
      7.50000      0.545454
      7.60000      0.553236
      7.70000      0.556999
      7.80000      0.555664
      7.90000      0.554989
      8.00000      0.802346
      8.10000      0.877982
      8.20000      0.891880
      8.30000      0.901693
      8.40000      0.908031
      8.50000      0.912920
      8.60000      0.916083
      8.70000      0.918118
      8.80000      0.918729
      8.90000      0.918377
      9.00000      0.917000
      9.10000      0.914648
      9.20000      0.911501
      9.30000      0.907483
      9.40000      0.902736
      9.50000      0.897319
      9.60000      0.891185
      9.70000      0.884442
      9.80000      0.877236
      9.90000      0.869596
      10.0000      0.861584
      10.1000      0.853211
      10.2000      0.844501
      10.3000      0.835400
      10.4000      0.825936
      10.5000      0.816134
      10.6000      0.806033
      10.7000      0.795657
      10.8000      0.785016
      10.9000      0.774143
      11.0000      0.763051
      11.1000      0.751774
      11.2000      0.740317
      11.3000      0.728714
      11.4000      0.716960
      11.5000      0.705057
      11.6000      0.693023
      11.7000      0.680809
      11.8000      0.668492
      11.9000      0.655995
      12.0000      0.642639
      12.1000      0.631627
      12.2000      0.631674
      12.3000      0.625041
      12.4000      0.613790
      12.5000      0.602159
      12.6000      0.590395
      12.7000      0.578596
      12.8000      0.566798
      12.9000      0.555015
      13.0000      0.543286
      13.1000      0.531644
      13.2000      0.520103
      13.3000      0.508678
      13.4000      0.497385
      13.5000      0.486355
      13.6000      0.475563
      13.7000      0.464897
      13.8000      0.454354
      13.9000      0.443953
      14.0000      0.433691
      14.1000      0.423556
      14.2000      0.413547
      14.3000      0.403664
      14.4000      0.393894
      14.5000      0.384253
      14.6000      0.374740
      14.7000      0.365348
      14.8000      0.356081
      14.9000      0.346941
      15.0000      0.337931
      15.1000      0.329057
      15.2000      0.320345
      15.3000      0.311778
      15.4000      0.303349
      15.5000      0.295062
      15.6000      0.286933
      15.7000      0.278960
      15.8000      0.271180
      15.9000      0.263563
      16.0000      0.256107
      16.1000      0.248814
      16.2000      0.241722
      16.3000      0.234782
      16.4000      0.227979
      16.5000      0.221310
      16.6000      0.214788
      16.7000      0.208417
      16.8000      0.202169
      16.9000      0.196042
      17.0000      0.190060
      17.1000      0.184221
      17.2000      0.178495
      17.3000      0.172889
      17.4000      0.167527
      17.5000      0.162376
      17.6000      0.157405
      17.7000      0.152643
      17.8000      0.148178
      17.9000      0.143813
      18.0000      0.139515
      18.1000      0.135328
      18.2000      0.131183
      18.3000      0.127070
      18.4000      0.122982
      18.5000      0.118929
      18.6000      0.114896
      18.7000      0.110870
      18.8000      0.106954
      18.9000      0.103121
      19.0000     0.0994038
      19.1000     0.0958080
      19.2000     0.0923006
      19.3000     0.0889337
      19.4000     0.0856797
      19.5000     0.0825108
      19.6000     0.0795023
      19.7000     0.0765778
      19.8000     0.0737293
      19.9000     0.0710218
      20.0000     0.0683731
      20.1000     0.0658043
      20.2000     0.0633228
      20.3000     0.0608918
      20.4000     0.0585562
      20.5000     0.0562784
      20.6000     0.0540534
      20.7000     0.0519204
      20.8000     0.0498280
      20.9000     0.0478076
      21.0000     0.0459405
      21.1000     0.0441914
      21.2000     0.0427928
      21.3000     0.0414956
      21.4000     0.0404166
      21.5000     0.0395836
      21.6000     0.0389981
      21.7000     0.0383844
      21.8000     0.0377610
      21.9000     0.0370587
      22.0000     0.0363086
      22.1000     0.0354403
      22.2000     0.0343611
      22.3000     0.0331008
      22.4000     0.0311734
      22.5000     0.0290443
      22.6000     0.0244568
      22.7000     0.0216396
      22.8000     0.0277934
      22.9000     0.0355269
      23.0000     0.0445415
      23.1000     0.0500067
      23.2000     0.0520974
      23.3000     0.0519168
      23.4000     0.0505926
      23.5000     0.0492384
      23.6000     0.0478822
      23.7000     0.0464437
      23.8000     0.0450067
      23.9000     0.0436076
      24.0000     0.0422178
      24.1000     0.0408491
      24.2000     0.0394975
      24.3000     0.0381910
      24.4000     0.0369026
      24.5000     0.0356516
      24.6000     0.0344239
      24.7000     0.0332391
      24.8000     0.0320776
      24.9000     0.0309544
      25.0000     0.0298562
      25.1000     0.0287975
      25.2000     0.0277621
      25.3000     0.0267638
      25.4000     0.0257883
      25.5000     0.0248516
      25.6000     0.0239355
      25.7000     0.0230586
      25.8000     0.0221986
      25.9000     0.0213781
      26.0000     0.0205705
      26.1000     0.0198027
      26.2000     0.0190439
      26.3000     0.0183277
      26.4000     0.0176160
      26.5000     0.0169476
      26.6000     0.0162830
      26.7000     0.0156573
      26.8000     0.0150399
      26.9000     0.0144528
      27.0000     0.0138773
      27.1000     0.0133235
      27.2000     0.0127848
      27.3000     0.0551070
      27.4000      0.150757
      27.5000      0.220316
      27.6000      0.216659
      27.7000      0.213015
      27.8000      0.209297
      27.9000      0.205598
      28.0000      0.201969
      28.1000      0.198370
      28.2000      0.194829
      28.3000      0.191333
      28.4000      0.187879
      28.5000      0.184489
      28.6000      0.181124
      28.7000      0.177866
      28.8000      0.174625
      28.9000      0.171451
      29.0000      0.168308
      29.1000      0.165209
      29.2000      0.162159
      29.3000      0.159134
      29.4000      0.156180
      29.5000      0.153242
      29.6000      0.150368
      29.7000      0.147523
      29.8000      0.144720
      29.9000      0.141969
      30.0000      0.139235
      30.1000      0.136574
      30.2000      0.133929
      30.3000      0.136497
      30.4000      0.142021
      30.5000      0.145775
      30.6000      0.143079
      30.7000      0.140397
      30.8000      0.137777
      30.9000      0.135186
      31.0000      0.132628
      31.1000      0.130130
      31.2000      0.127645
      31.3000      0.125224
      31.4000      0.122827
      31.5000      0.120466
      31.6000      0.118167
      31.7000      0.115881
      31.8000      0.113650
      31.9000      0.111442
      32.0000      0.109245
      32.1000      0.107057
      32.2000      0.104881
      32.3000      0.102760
      32.4000      0.100669
      32.5000     0.0985998
      32.6000     0.0966136
      32.7000     0.0946416
      32.8000     0.0927103
      32.9000     0.0908172
      33.0000     0.0889354
      33.1000     0.0871629
      33.2000     0.0854169
      33.3000     0.0836943
      33.4000     0.0820179
      33.5000     0.0803527
      33.6000     0.0787272
      33.7000     0.0771322
      33.8000     0.0755465
      33.9000     0.0740130
      34.0000     0.0724944
      34.1000     0.0710029
      34.2000     0.0695539
      34.3000     0.0681128
      34.4000     0.0667001
      34.5000     0.0653212
      34.6000     0.0639500
      34.7000     0.0626100
      34.8000     0.0612885
      34.9000     0.0599744
      35.0000     0.0587083
      35.1000     0.0574536
      35.2000     0.0562142
      35.3000     0.0550492
      35.4000     0.0538908
      35.5000     0.0527505
      35.6000     0.0516447
      35.7000     0.0505452
      35.8000     0.0494690
      35.9000     0.0484203
      36.0000     0.0473775
      36.1000     0.0463624
      36.2000     0.0453688
      36.3000     0.0443810
      36.4000     0.0434235
      36.5000     0.0424827
      36.6000     0.0415473
      36.7000     0.0406446
      36.8000     0.0397548
      36.9000     0.0388703
      37.0000     0.0380194
      37.1000     0.0371789
      37.2000     0.0363432
      37.3000     0.0355415
      37.4000     0.0347483
      37.5000     0.0339598
      37.6000     0.0332042
      37.7000     0.0324561
      37.8000     0.0317125
      37.9000     0.0310006
      38.0000     0.0302963
      38.1000     0.0295961
      38.2000     0.0289253
      38.3000     0.0282626
      38.4000     0.0276037
      38.5000     0.0269715
      38.6000     0.0263486
      38.7000     0.0257294
      38.8000     0.0251336
      38.9000     0.0245488
      39.0000     0.0239674
      39.1000     0.0234059
      39.2000     0.0228576
      39.3000     0.0223125
      39.4000     0.0217830
      39.5000     0.0212693
      39.6000     0.0207587
      39.7000     0.0202593
      39.8000     0.0197788
      39.9000     0.0193012
      40.0000     0.0188303
      40.1000     0.0183819
      40.2000     0.0179363
      40.3000     0.0174934
      40.4000     0.0170739
      40.5000     0.0166579
      40.6000     0.0162444
      40.7000     0.0158485
      40.8000     0.0154607
      40.9000     0.0150753
      41.0000     0.0147014
      41.1000     0.0143401
      41.2000     0.0139811
      41.3000     0.0136281
      41.4000     0.0132926
      41.5000     0.0129591
      41.6000     0.0126277
      41.7000     0.0123138
      41.8000     0.0120040
      41.9000     0.0116961
      42.0000     0.0113995
      42.1000     0.0111124
      42.2000     0.0108270
      42.3000     0.0105462
      42.4000     0.0102802
      42.5000     0.0100158
      42.6000    0.00975304
      42.7000    0.00950357
      42.8000    0.00925877
      42.9000    0.00901546
      43.0000    0.00877896
      43.1000    0.00855276
      43.2000    0.00832797
      43.3000    0.00810458
      43.4000     0.0247133
      43.5000     0.0455009
      43.6000     0.0723151
      43.7000     0.0960532
      43.8000      0.106512
      43.9000      0.107859
      44.0000      0.105823
      44.1000      0.100606
      44.2000     0.0989304
      44.3000     0.0975647
      44.4000     0.0962201
      44.5000     0.0949020
      44.6000     0.0935873
      44.7000     0.0922761
      44.8000     0.0910067
      44.9000     0.0897463
      45.0000     0.0884891
      45.1000     0.0872466
      45.2000     0.0860352
      45.3000     0.0848269
      45.4000     0.0836216
      45.5000     0.0824460
      45.6000     0.0812858
      45.7000     0.0801287
      45.8000     0.0789759
      45.9000     0.0778624
      46.0000     0.0767518
      46.1000     0.0756440
      46.2000     0.0745860
      46.3000     0.0736116
      46.4000     0.0726397
      46.5000     0.0716702
      46.6000     0.0707359
      46.7000     0.0698202
      46.8000     0.0689068
      46.9000     0.0679957
      47.0000     0.0671327
      47.1000     0.0662750
      47.2000     0.0654195
      47.3000     0.0645716
      47.4000     0.0637517
      47.5000     0.0629337
      47.6000     0.0621179
      47.7000     0.0613178
      47.8000     0.0605414
      47.9000     0.0597669
      48.0000     0.0589944
      48.1000     0.0582392
      48.2000     0.0574978
      48.3000     0.0567583
      48.4000     0.0560206
      48.5000     0.0553094
      48.6000     0.0546098
      48.7000     0.0539120
      48.8000     0.0532159
      48.9000     0.0525431
      49.0000     0.0518762
      49.1000     0.0512109
      49.2000     0.0505475
      49.3000     0.0499066
      49.4000     0.0492690
      49.5000     0.0486330
      49.6000     0.0479985
      49.7000     0.0473868
      49.8000     0.0467770
      49.9000     0.0461687
      50.0000     0.0455625
      50.1000     0.0449752
      50.2000     0.0444015
      50.3000     0.0438345
      50.4000     0.0432738
      50.5000     0.0427190
      50.6000     0.0421709
      50.7000     0.0416294
      50.8000     0.0410939
      50.9000     0.0405651
      51.0000     0.0400427
      51.1000     0.0395267
      51.2000     0.0390165
      51.3000     0.0385130
      51.4000     0.0380162
      51.5000     0.0375238
      51.6000     0.0370366
      51.7000     0.0365545
      51.8000     0.0360729
      51.9000     0.0355966
      52.0000     0.0351253
      52.1000     0.0346596
      52.2000     0.0341990
      52.3000     0.0337431
      52.4000     0.0332940
      52.5000     0.0328501
      52.6000     0.0324009
      52.7000     0.0319466
      52.8000     0.0314973
      52.9000     0.0310541
      53.0000     0.0306169
      53.1000     0.0301844
      53.2000     0.0297579
      53.3000     0.0293365
      53.4000     0.0289197
      53.5000     0.0285085
      53.6000     0.0281024
      53.7000     0.0277009
      53.8000     0.0273045
      53.9000     0.0269130
      54.0000     0.0265268
      54.1000     0.0261466
      54.2000     0.0257707
      54.3000     0.0253987
      54.4000     0.0250316
      54.5000     0.0246689
      54.6000     0.0243109
      54.7000     0.0239586
      54.8000     0.0236108
      54.9000     0.0232671
      55.0000     0.0229277
      55.1000     0.0225920
      55.2000     0.0222503
      55.3000     0.0219045
      55.4000     0.0215635
      55.5000     0.0212265
      55.6000     0.0208942
      55.7000     0.0205665
      55.8000     0.0202430
      55.9000     0.0199243
      56.0000     0.0196131
      56.1000     0.0193024
      56.2000     0.0189924
      56.3000     0.0186870
      56.4000     0.0183854
      56.5000     0.0180881
      56.6000     0.0177953
      56.7000     0.0175069
      56.8000     0.0172221
      56.9000     0.0169420
      57.0000     0.0166726
      57.1000     0.0164112
      57.2000     0.0161534
      57.3000     0.0158990
      57.4000     0.0156480
      57.5000     0.0154004
      57.6000     0.0151563
      57.7000     0.0149154
      57.8000     0.0146784
      57.9000     0.0144452
      58.0000     0.0142152
      58.1000     0.0139878
      58.2000     0.0137638
      58.3000     0.0135430
      58.4000     0.0133252
      58.5000     0.0131106
      58.6000     0.0128995
      58.7000     0.0126913
      58.8000     0.0124859
      58.9000     0.0122833
      59.0000     0.0120837
      59.1000     0.0118869
      59.2000     0.0116930
      59.3000     0.0115021
      59.4000     0.0113139
      59.5000     0.0111285
      59.6000     0.0109458
      59.7000     0.0107657
      59.8000     0.0105881
      59.9000     0.0104130
      60.0000     0.0102408
      60.1000     0.0100711
      60.2000    0.00990388
      60.3000    0.00973920
      60.4000    0.00957706
      60.5000    0.00941746
      60.6000    0.00925999
      60.7000    0.00910465
      60.8000    0.00895154
      60.9000    0.00880053
      61.0000    0.00865192
      61.1000    0.00850578
      61.2000    0.00836186
      61.3000    0.00822008
      61.4000    0.00808045
      61.5000    0.00794295
      61.6000    0.00780741
      61.7000    0.00767432
      61.8000    0.00754555
      61.9000    0.00741955
      62.0000    0.00729542
      62.1000    0.00717313
      62.2000    0.00705289
      62.3000    0.00693446
      62.4000    0.00681770
      62.5000    0.00670264
      62.6000    0.00658933
      62.7000    0.00647814
      62.8000    0.00637369
      62.9000    0.00627091
      63.0000    0.00616970
      63.1000    0.00606996
      63.2000    0.00597160
      63.3000    0.00587459
      63.4000    0.00577905
      63.5000    0.00568502
      63.6000    0.00559229
      63.7000    0.00550089
      63.8000    0.00541094
      63.9000    0.00532238
      64.0000    0.00523512
      64.1000    0.00514916
      64.2000    0.00506460
      64.3000    0.00498135
      64.4000    0.00489926
      64.5000    0.00481829
      64.6000    0.00473848
      64.7000    0.00465983
      64.8000    0.00458235
      64.9000    0.00450602
      65.0000    0.00443092
      65.1000    0.00435713
      65.2000    0.00428450
      65.3000    0.00421289
      65.4000    0.00414232
      65.5000    0.00407276
      65.6000    0.00400419
      65.7000    0.00393669
      65.8000    0.00387028
      65.9000    0.00380498
      66.0000    0.00374078
      66.1000    0.00367761
      66.2000    0.00361538
      66.3000    0.00355408
      66.4000    0.00349371
      66.5000    0.00343421
      66.6000    0.00337558
      66.7000    0.00331788
      66.8000    0.00326117
      66.9000    0.00320575
      67.0000    0.00315153
      67.1000    0.00309818
      67.2000    0.00304566
      67.3000    0.00299399
      67.4000    0.00294309
      67.5000    0.00289294
      67.6000    0.00284357
      67.7000    0.00279499
      67.8000    0.00274710
      67.9000    0.00269978
      68.0000    0.00265320
      68.1000    0.00260743
      68.2000    0.00256238
      68.3000    0.00251805
      68.4000    0.00247443
      68.5000    0.00243152
      68.6000    0.00238931
      68.7000    0.00234779
      68.8000    0.00230692
      68.9000    0.00226728
      69.0000    0.00223144
      69.1000    0.00219907
      69.2000    0.00216768
      69.3000    0.00213711
      69.4000    0.00210774
      69.5000    0.00207783
      69.6000    0.00204704
      69.7000    0.00201751
      69.8000    0.00198941
      69.9000    0.00196169
      70.0000    0.00193428
      70.1000    0.00190668
      70.2000    0.00188044
      70.3000    0.00185554
      70.4000    0.00183075
      70.5000    0.00180659
      70.6000    0.00178304
      70.7000    0.00175981
      70.8000    0.00173683
      70.9000    0.00171332
      71.0000    0.00168936
      71.1000    0.00166651
      71.2000    0.00164475
      71.3000    0.00162171
      71.4000    0.00159709
      71.5000    0.00157440
      71.6000    0.00155452
      71.7000    0.00153450
      71.8000    0.00151385
      71.9000    0.00149390
      72.0000    0.00147545
      72.1000    0.00145661
      72.2000    0.00143504
      72.3000    0.00141385
      72.4000    0.00139524
      72.5000    0.00137692
      72.6000    0.00135884
      72.7000    0.00134100
      72.8000    0.00132339
      72.9000    0.00130601
      73.0000    0.00128926
      73.1000    0.00127291
      73.2000    0.00125677
      73.3000    0.00124084
      73.4000    0.00122526
      73.5000    0.00121013
      73.6000    0.00119520
      73.7000    0.00118046
      73.8000    0.00116590
      73.9000    0.00115151
      74.0000    0.00113737
      74.1000    0.00112452
      74.2000    0.00111214
      74.3000    0.00109878
      74.4000    0.00108472
      74.5000    0.00107107
      74.6000    0.00105809
      74.7000    0.00104528
      74.8000    0.00103268
      74.9000    0.00102036
      75.0000    0.00100809
      75.1000   0.000995924
      75.2000   0.000983878
      75.3000   0.000971964
      75.4000   0.000960301
      75.5000   0.000949023
      75.6000   0.000937882
      75.7000   0.000926875
      75.8000   0.000916013
      75.9000   0.000905417
      76.0000   0.000895066
      76.1000   0.000885494
      76.2000   0.000876118
      76.3000   0.000866852
      76.4000   0.000857851
      76.5000   0.000848957
      76.6000   0.000840143
      76.7000   0.000831411
      76.8000   0.000822763
      76.9000   0.000814208
      77.0000   0.000805748
      77.1000   0.000797385
      77.2000   0.000789115
      77.3000   0.000780927
      77.4000   0.000772816
      77.5000   0.000764761
      77.6000   0.000756609
      77.7000   0.000748538
      77.8000   0.000740542
      77.9000   0.000732617
      78.0000   0.000724661
      78.1000   0.000716475
      78.2000   0.000708396
      78.3000   0.000701097
      78.4000   0.000694123
      78.5000   0.000687146
      78.6000   0.000680021
      78.7000   0.000672966
      78.8000   0.000665713
      78.9000   0.000658465
      79.0000   0.000651292
      79.1000   0.000644189
      79.2000   0.000637175
      79.3000   0.000630449
      79.4000   0.000623872
      79.5000   0.000617298
      79.6000   0.000610567
      79.7000   0.000603897
      79.8000   0.000597181
      79.9000   0.000590475
      80.0000   0.000583810
      80.1000   0.000576956
      80.2000   0.000570160
      80.3000   0.000563157
      80.4000   0.000555969
      80.5000   0.000548851
      80.6000   0.000541821
      80.7000   0.000534874
      80.8000   0.000528052
      80.9000   0.000521410
      81.0000   0.000514841
      81.1000   0.000508354
      81.2000   0.000501946
      81.3000   0.000495626
      81.4000   0.000489878
      81.5000   0.000484224
      81.6000   0.000478776
      81.7000   0.000473686
      81.8000   0.000468664
      81.9000   0.000463893
      82.0000   0.000459277
      82.1000   0.000454723
      82.2000   0.000450054
      82.3000   0.000445435
      82.4000   0.000440970
      82.5000   0.000436714
      82.6000   0.000432487
      82.7000   0.000428166
      82.8000   0.000423731
      82.9000   0.000419331
      83.0000   0.000415020
      83.1000   0.000410773
      83.2000   0.000406568
      83.3000   0.000402407
      83.4000   0.000398295
      83.5000   0.000394244
      83.6000   0.000390338
      83.7000   0.000386470
      83.8000   0.000382611
      83.9000   0.000378718
      84.0000   0.000374859
      84.1000   0.000371098
      84.2000   0.000367464
      84.3000   0.000363862
      84.4000   0.000360247
      84.5000   0.000356630
      84.6000   0.000353048
      84.7000   0.000349570
      84.8000   0.000346165
      84.9000   0.000342797
      85.0000   0.000339366
      85.1000   0.000335941
      85.2000   0.000332552
      85.3000   0.000329345
      85.4000   0.000326192
      85.5000   0.000323071
      85.6000   0.000319905
      85.7000   0.000316763
      85.8000   0.000313648
      85.9000   0.000310560
      86.0000   0.000307498
      86.1000   0.000304465
      86.2000   0.000301556
      86.3000   0.000298677
      86.4000   0.000295824
      86.5000   0.000292996
      86.6000   0.000290193
      86.7000   0.000287414
      86.8000   0.000284437
      86.9000   0.000281483
      87.0000   0.000278561
      87.1000   0.000275717
      87.2000   0.000272909
      87.3000   0.000270131
      87.4000   0.000267301
      87.5000   0.000264484
      87.6000   0.000261691
      87.7000   0.000258970
      87.8000   0.000256286
      87.9000   0.000253624
      88.0000   0.000250987
      88.1000   0.000248374
      88.2000   0.000245789
      88.3000   0.000243288
      88.4000   0.000240866
      88.5000   0.000238475
      88.6000   0.000236088
      88.7000   0.000233693
      88.8000   0.000231325
      88.9000   0.000228977
      89.0000   0.000226641
      89.1000   0.000224329
      89.2000   0.000222051
      89.3000   0.000219826
      89.4000   0.000217665
      89.5000   0.000215523
      89.6000   0.000213402
      89.7000   0.000211297
      89.8000   0.000209209
      89.9000   0.000207137
      90.0000   0.000205082
      90.1000   0.000203049
      90.2000   0.000200985
      90.3000   0.000198829
      90.4000   0.000196694
      90.5000   0.000194584
      90.6000   0.000192536
      90.7000   0.000190500
      90.8000   0.000188464
      90.9000   0.000186403
      91.0000   0.000184351
      91.1000   0.000182320
      91.2000   0.000180281
      91.3000   0.000178216
      91.4000   0.000176168
      91.5000   0.000174141
      91.6000   0.000172136
      91.7000   0.000170332
      91.8000   0.000168827
      91.9000   0.000167668
      92.0000   0.000166311
      92.1000   0.000164922
      92.2000   0.000163431
      92.3000   0.000161854
      92.4000   0.000160233
      92.5000   0.000158631
      92.6000   0.000157043
      92.7000   0.000155472
      92.8000   0.000153916
      92.9000   0.000152396
      93.0000   0.000150937
      93.1000   0.000149490
      93.2000   0.000148057
      93.3000   0.000146696
      93.4000   0.000145367
      93.5000   0.000144049
      93.6000   0.000142739
      93.7000   0.000141431
      93.8000   0.000140121
      93.9000   0.000138823
      94.0000   0.000137535
      94.1000   0.000136256
      94.2000   0.000134990
      94.3000   0.000133747
      94.4000   0.000132554
      94.5000   0.000131376
      94.6000   0.000130208
      94.7000   0.000129053
      94.8000   0.000127907
      94.9000   0.000126769
      95.0000   0.000125641
      95.1000   0.000124524
      95.2000   0.000123413
      95.3000   0.000122309
      95.4000   0.000121218
      95.5000   0.000120156
      95.6000   0.000119102
      95.7000   0.000118056
      95.8000   0.000117004
      95.9000   0.000115953
      96.0000   0.000114909
      96.1000   0.000113872
      96.2000   0.000112843
      96.3000   0.000111824
      96.4000   0.000110813
      96.5000   0.000109811
      96.6000   0.000108822
      96.7000   0.000107843
      96.8000   0.000106870
      96.9000   0.000105903
      97.0000   0.000104945
      97.1000   0.000103998
      97.2000   0.000103059
      97.3000   0.000102113
      97.4000   0.000101163
      97.5000   0.000100224
      97.6000   9.92935e-05
      97.7000   9.83780e-05
      97.8000   9.74746e-05
      97.9000   9.65796e-05
      98.0000   9.56909e-05
      98.1000   9.48083e-05
      98.2000   9.39333e-05
      98.3000   9.31368e-05
      98.4000   9.23808e-05
      98.5000   9.16534e-05
      98.6000   9.09318e-05
      98.7000   9.02152e-05
      98.8000   8.95032e-05
      98.9000   8.87962e-05
      99.0000   8.80970e-05
      99.1000   8.74035e-05
      99.2000   8.67101e-05
      99.3000   8.59957e-05
      99.4000   8.52879e-05
      99.5000   8.45859e-05
      99.6000   8.38954e-05
      99.7000   8.32494e-05
      99.8000   8.26259e-05
      99.9000   8.21634e-05
      100.000   8.19451e-05
      100.100   8.16987e-05
      100.200   8.14519e-05
      100.300   8.12048e-05
      100.400   8.09579e-05
      100.500   8.07222e-05
      100.600   8.04852e-05
      100.700   8.02480e-05
      100.800   8.00102e-05
      100.900   7.97723e-05
      101.000   7.95348e-05
      101.100   7.92980e-05
      101.200   7.90623e-05
      101.300   7.88275e-05
      101.400   7.85937e-05
      101.500   7.83337e-05
      101.600   7.80401e-05
      101.700   7.77550e-05
      101.800   7.74728e-05
      101.900   7.71909e-05
      102.000   7.69108e-05
      102.100   7.66430e-05
      102.200   7.63812e-05
      102.300   7.61196e-05
      102.400   7.58583e-05
      102.500   7.55969e-05
      102.600   7.53352e-05
      102.700   7.50731e-05
      102.800   7.48108e-05
      102.900   7.45485e-05
      103.000   7.42863e-05
      103.100   7.40246e-05
      103.200   7.37636e-05
      103.300   7.35033e-05
      103.400   7.32437e-05
      103.500   7.29848e-05
      103.600   7.27265e-05
      103.700   7.24674e-05
      103.800   7.21914e-05
      103.900   7.18954e-05
      104.000   7.15991e-05
      104.100   7.13040e-05
      104.200   7.10181e-05
      104.300   7.07850e-05
      104.400   7.05542e-05
      104.500   7.03241e-05
      104.600   7.00937e-05
      104.700   6.98471e-05
      104.800   6.95938e-05
      104.900   6.93407e-05
      105.000   6.90881e-05
      105.100   6.88476e-05
      105.200   6.86365e-05
      105.300   6.84262e-05
      105.400   6.82163e-05
      105.500   6.80066e-05
      105.600   6.78040e-05
      105.700   6.76029e-05
      105.800   6.74017e-05
      105.900   6.72008e-05
      106.000   6.70098e-05
      106.100   6.68394e-05
      106.200   6.66704e-05
      106.300   6.65010e-05
      106.400   6.63313e-05
      106.500   6.61615e-05
      106.600   6.59918e-05
      106.700   6.58220e-05
      106.800   6.56522e-05
      106.900   6.54827e-05
      107.000   6.53133e-05
      107.100   6.51440e-05
      107.200   6.49749e-05
      107.300   6.48062e-05
      107.400   6.46365e-05
      107.500   6.44664e-05
      107.600   6.42968e-05
      107.700   6.41277e-05
      107.800   6.39596e-05
      107.900   6.37875e-05
      108.000   6.36155e-05
      108.100   6.34431e-05
      108.200   6.32702e-05
      108.300   6.30958e-05
      108.400   6.29158e-05
      108.500   6.27351e-05
      108.600   6.25538e-05
      108.700   6.23716e-05
      108.800   6.21736e-05
      108.900   6.19531e-05
      109.000   6.17322e-05
      109.100   6.15114e-05
      109.200   6.12908e-05
      109.300   6.10706e-05
      109.400   6.08508e-05
      109.500   6.06317e-05
      109.600   6.04132e-05
      109.700   6.01955e-05
      109.800   5.99788e-05
      109.900   5.97632e-05
      110.000   5.95487e-05
      110.100   5.93351e-05
      110.200   5.91221e-05
      110.300   5.89194e-05
      110.400   5.87178e-05
      110.500   5.85164e-05
      110.600   5.83149e-05
      110.700   5.81132e-05
      110.800   5.79111e-05
      110.900   5.77088e-05
      111.000   5.75062e-05
      111.100   5.73034e-05
      111.200   5.71014e-05
      111.300   5.69190e-05
      111.400   5.67368e-05
      111.500   5.65542e-05
      111.600   5.63716e-05
      111.700   5.61898e-05
      111.800   5.60204e-05
      111.900   5.58517e-05
      112.000   5.56832e-05
      112.100   5.55149e-05
      112.200   5.53471e-05
      112.300   5.51673e-05
      112.400   5.49878e-05
      112.500   5.48091e-05
      112.600   5.46311e-05
      112.700   5.44559e-05
      112.800   5.42933e-05
      112.900   5.41013e-05
      113.000   5.39197e-05
      113.100   5.37427e-05
      113.200   5.35598e-05
      113.300   5.33835e-05
      113.400   5.31392e-05
      113.500   5.28782e-05
      113.600   5.26765e-05
      113.700   5.24568e-05
      113.800   5.21973e-05
      113.900   5.19962e-05
      114.000   5.17948e-05
      114.100   5.15522e-05
      114.200   5.13306e-05
      114.300   5.11425e-05
      114.400   5.09458e-05
      114.500   5.07403e-05
      114.600   5.05783e-05
      114.700   5.03840e-05
      114.800   5.02120e-05
      114.900   5.00912e-05
      115.000   4.99337e-05
      115.100   4.97546e-05
      115.200   4.95735e-05
      115.300   4.94387e-05
      115.400   4.92598e-05
      115.500   4.91027e-05
      115.600   4.89271e-05
      115.700   4.87237e-05
      115.800   4.85576e-05
      115.900   4.83718e-05
      116.000   4.82183e-05
      116.100   4.81145e-05
      116.200   4.80066e-05
      116.300   4.78893e-05
      116.400   4.77558e-05
      116.500   4.76577e-05
      116.600   4.75481e-05
      116.700   4.74472e-05
      116.800   4.73355e-05
      116.900   4.71799e-05
      117.000   4.70735e-05
      117.100   4.71087e-05
      117.200   4.72439e-05
      117.300   4.72810e-05
      117.400   4.73116e-05
      117.500   4.73436e-05
      117.600   4.73178e-05
      117.700   4.72694e-05
      117.800   4.71905e-05
      117.900   4.70961e-05
      118.000   4.69726e-05
      118.100   4.68212e-05
      118.200   4.66918e-05
      118.300   4.65719e-05
      118.400   4.63418e-05
      118.500   4.61207e-05
      118.600   4.59504e-05
      118.700   4.57622e-05
      118.800   4.55495e-05
      118.900   4.53539e-05
      119.000   4.50985e-05
      119.100   4.47759e-05
      119.200   4.45136e-05
      119.300   4.43015e-05
      119.400   4.41175e-05
      119.500   4.39460e-05
      119.600   4.37351e-05
      119.700   4.34781e-05
      119.800   4.31296e-05
      119.900   4.26599e-05
      120.000   4.22303e-05
      120.100   4.18329e-05
      120.200   4.15871e-05
      120.300   4.14286e-05
      120.400   4.12692e-05
      120.500   4.09872e-05
      120.600   4.06121e-05
      120.700   4.02077e-05
      120.800   3.98239e-05
      120.900   3.96015e-05
      121.000   3.96307e-05
      121.100   3.96149e-05
      121.200   3.94728e-05
      121.300   3.92407e-05
      121.400   3.89402e-05
      121.500   3.85883e-05
      121.600   3.80357e-05
      121.700   3.75644e-05
      121.800   3.70229e-05
      121.900   3.64735e-05
      122.000   3.58770e-05
      122.100   3.53182e-05
      122.200   3.47674e-05
      122.300   3.43886e-05
      122.400   3.41959e-05
      122.500   3.40429e-05
      122.600   3.38663e-05
      122.700   3.36881e-05
      122.800   3.34679e-05
      122.900   3.32724e-05
      123.000   3.32946e-05
      123.100   3.36957e-05
      123.200   3.41231e-05
      123.300   3.47472e-05
      123.400   3.55350e-05
      123.500   3.65571e-05
      123.600   3.74493e-05
      123.700   3.79510e-05
      123.800   3.83420e-05
      123.900   3.88469e-05
      124.000   3.95365e-05
      124.100   4.08255e-05
      124.200   4.33941e-05
      124.300   4.72159e-05
      124.400   5.09193e-05
      124.500   5.20689e-05
      124.600   5.20314e-05
      124.700   5.18567e-05
      124.800   5.16960e-05
      124.900   5.15344e-05
      125.000   5.13710e-05
      125.100   5.11947e-05
      125.200   5.10170e-05
      125.300   5.08392e-05
      125.400   5.06616e-05
      125.500   5.04843e-05
      125.600   5.03070e-05
      125.700   5.01301e-05
      125.800   4.99533e-05
      125.900   4.97771e-05
      126.000   4.96014e-05
      126.100   4.94263e-05
      126.200   4.92516e-05
      126.300   4.90776e-05
      126.400   4.89041e-05
      126.500   4.87309e-05
      126.600   4.85585e-05
      126.700   4.83864e-05
      126.800   4.82148e-05
      126.900   4.80434e-05
      127.000   4.78709e-05
      127.100   4.76939e-05
      127.200   4.75149e-05
      127.300   4.73355e-05
      127.400   4.71562e-05
      127.500   4.69769e-05
      127.600   4.67978e-05
      127.700   4.66188e-05
      127.800   4.64398e-05
      127.900   4.62609e-05
      128.000   4.60822e-05
      128.100   4.59036e-05
      128.200   4.57251e-05
      128.300   4.55468e-05
      128.400   4.53688e-05
      128.500   4.51908e-05
      128.600   4.50130e-05
      128.700   4.48357e-05
      128.800   4.46585e-05
      128.900   4.44817e-05
      129.000   4.43053e-05
      129.100   4.41285e-05
      129.200   4.39495e-05
      129.300   4.37709e-05
      129.400   4.35931e-05
      129.500   4.34159e-05
      129.600   4.32395e-05
      129.700   4.30637e-05
      129.800   4.28885e-05
      129.900   4.27141e-05
      130.000   4.25403e-05
      130.100   4.23673e-05
      130.200   4.21947e-05
      130.300   4.20227e-05
      130.400   4.18513e-05
      130.500   4.16803e-05
      130.600   4.15096e-05
      130.700   4.13394e-05
      130.800   4.11698e-05
      130.900   4.10005e-05
      131.000   4.08315e-05
      131.100   4.06629e-05
      131.200   4.04943e-05
      131.300   4.03254e-05
      131.400   4.01569e-05
      131.500   3.99887e-05
      131.600   3.98209e-05
      131.700   3.96534e-05
      131.800   3.94863e-05
      131.900   3.93195e-05
      132.000   3.91531e-05
      132.100   3.89870e-05
      132.200   3.88214e-05
      132.300   3.86561e-05
      132.400   3.84912e-05
      132.500   3.83268e-05
      132.600   3.81629e-05
      132.700   3.79994e-05
      132.800   3.78365e-05
      132.900   3.76741e-05
      133.000   3.75123e-05
      133.100   3.73509e-05
      133.200   3.71901e-05
      133.300   3.70296e-05
      133.400   3.68693e-05
      133.500   3.67094e-05
      133.600   3.65499e-05
      133.700   3.63909e-05
      133.800   3.62324e-05
      133.900   3.60744e-05
      134.000   3.59169e-05
      134.100   3.57598e-05
      134.200   3.56032e-05
      134.300   3.54470e-05
      134.400   3.52914e-05
      134.500   3.51363e-05
      134.600   3.49817e-05
      134.700   3.48275e-05
      134.800   3.46739e-05
      134.900   3.45208e-05
      135.000   3.43682e-05
      135.100   3.42161e-05
      135.200   3.40645e-05
      135.300   3.39135e-05
      135.400   3.37628e-05
      135.500   3.36124e-05
      135.600   3.34619e-05
      135.700   3.33119e-05
      135.800   3.31623e-05
      135.900   3.30133e-05
      136.000   3.28646e-05
      136.100   3.27165e-05
      136.200   3.25689e-05
      136.300   3.24217e-05
      136.400   3.22749e-05
      136.500   3.21287e-05
      136.600   3.19828e-05
      136.700   3.18375e-05
      136.800   3.16925e-05
      136.900   3.15480e-05
      137.000   3.14039e-05
      137.100   3.12601e-05
      137.200   3.11167e-05
      137.300   3.09737e-05
      137.400   3.08311e-05
      137.500   3.06888e-05
      137.600   3.05525e-05
      137.700   3.04304e-05
      137.800   3.03191e-05
      137.900   3.02079e-05
      138.000   3.00969e-05
      138.100   2.99862e-05
      138.200   2.98757e-05
      138.300   2.97654e-05
      138.400   2.96554e-05
      138.500   2.95457e-05
      138.600   2.94363e-05
      138.700   2.93271e-05
      138.800   2.92183e-05
      138.900   2.91098e-05
      139.000   2.90016e-05
      139.100   2.88938e-05
      139.200   2.87863e-05
      139.300   2.86791e-05
      139.400   2.85723e-05
      139.500   2.84658e-05
      139.600   2.83596e-05
      139.700   2.82538e-05
      139.800   2.81483e-05
      139.900   2.80430e-05
      140.000   2.79379e-05
      140.100   2.78330e-05
      140.200   2.77284e-05
      140.300   2.76241e-05
      140.400   2.75201e-05
      140.500   2.74163e-05
      140.600   2.73127e-05
      140.700   2.72094e-05
      140.800   2.71062e-05
      140.900   2.70032e-05
      141.000   2.69003e-05
      141.100   2.67975e-05
      141.200   2.66949e-05
      141.300   2.65924e-05
      141.400   2.64900e-05
      141.500   2.63878e-05
      141.600   2.62857e-05
      141.700   2.61836e-05
      141.800   2.60818e-05
      141.900   2.59802e-05
      142.000   2.58787e-05
      142.100   2.57878e-05
      142.200   2.57267e-05
      142.300   2.56912e-05
      142.400   2.56554e-05
      142.500   2.56193e-05
      142.600   2.55830e-05
      142.700   2.55466e-05
      142.800   2.55101e-05
      142.900   2.54734e-05
      143.000   2.54366e-05
      143.100   2.53995e-05
      143.200   2.53624e-05
      143.300   2.53251e-05
      143.400   2.52878e-05
      143.500   2.52504e-05
      143.600   2.52129e-05
      143.700   2.51754e-05
      143.800   2.51378e-05
      143.900   2.51001e-05
      144.000   2.50624e-05
      144.100   2.50245e-05
      144.200   2.49865e-05
      144.300   2.49485e-05
      144.400   2.49132e-05
      144.500   2.49150e-05
      144.600   2.49283e-05
      144.700   2.49426e-05
      144.800   2.49565e-05
      144.900   2.49699e-05
      145.000   2.49829e-05
      145.100   2.49954e-05
      145.200   2.50073e-05
      145.300   2.50187e-05
      145.400   2.50297e-05
      145.500   2.50401e-05
      145.600   2.50499e-05
      145.700   2.50591e-05
      145.800   2.50678e-05
      145.900   2.50760e-05
      146.000   2.50837e-05
      146.100   2.50907e-05
      146.200   2.50973e-05
      146.300   2.51034e-05
      146.400   2.51090e-05
      146.500   2.51139e-05
      146.600   2.51184e-05
      146.700   2.51225e-05
      146.800   2.51245e-05
      146.900   2.51238e-05
      147.000   2.51227e-05
      147.100   2.51211e-05
      147.200   2.51192e-05
      147.300   2.51168e-05
      147.400   2.51141e-05
      147.500   2.51111e-05
      147.600   2.51077e-05
      147.700   2.51040e-05
      147.800   2.50999e-05
      147.900   2.50955e-05
      148.000   2.50908e-05
      148.100   2.50858e-05
      148.200   2.50806e-05
      148.300   2.50752e-05
      148.400   2.50694e-05
      148.500   2.50632e-05
      148.600   2.50569e-05
      148.700   2.50501e-05
      148.800   2.50430e-05
      148.900   2.50356e-05
      149.000   2.50278e-05
      149.100   2.50197e-05
      149.200   2.50109e-05
      149.300   2.50018e-05
      149.400   2.49922e-05
      149.500   2.49822e-05
      149.600   2.49717e-05
      149.700   2.49607e-05
      149.800   2.49493e-05
      149.900   2.49375e-05
      150.000   2.49253e-05
      150.100   2.49126e-05
      150.200   2.48993e-05
      150.300   2.48856e-05
      150.400   2.48714e-05
      150.500   2.48569e-05
      150.600   2.48418e-05
      150.700   2.48263e-05
      150.800   2.48103e-05
      150.900   2.47938e-05
      151.000   2.47769e-05
      151.100   2.47596e-05
      151.200   2.47418e-05
      151.300   2.47236e-05
      151.400   2.47050e-05
      151.500   2.46859e-05
      151.600   2.46668e-05
      151.700   2.46477e-05
      151.800   2.46282e-05
      151.900   2.46083e-05
      152.000   2.45881e-05
      152.100   2.45675e-05
      152.200   2.45467e-05
      152.300   2.45255e-05
      152.400   2.45039e-05
      152.500   2.44821e-05
      152.600   2.44600e-05
      152.700   2.44376e-05
      152.800   2.44149e-05
      152.900   2.43919e-05
      153.000   2.43686e-05
      153.100   2.43450e-05
      153.200   2.43211e-05
      153.300   2.42969e-05
      153.400   2.42724e-05
      153.500   2.42476e-05
      153.600   2.42225e-05
      153.700   2.41971e-05
      153.800   2.41713e-05
      153.900   2.41453e-05
      154.000   2.41099e-05
      154.100   2.40638e-05
      154.200   2.40160e-05
      154.300   2.39679e-05
      154.400   2.39196e-05
      154.500   2.38710e-05
      154.600   2.38221e-05
      154.700   2.37729e-05
      154.800   2.37235e-05
      154.900   2.36737e-05
      155.000   2.36237e-05
      155.100   2.35735e-05
      155.200   2.35229e-05
      155.300   2.34721e-05
      155.400   2.34210e-05
      155.500   2.33697e-05
      155.600   2.33181e-05
      155.700   2.32661e-05
      155.800   2.32141e-05
      155.900   2.31616e-05
      156.000   2.31090e-05
      156.100   2.30561e-05
      156.200   2.30029e-05
      156.300   2.29496e-05
      156.400   2.28959e-05
      156.500   2.28391e-05
      156.600   2.27742e-05
      156.700   2.27087e-05
      156.800   2.26431e-05
      156.900   2.25773e-05
      157.000   2.25115e-05
      157.100   2.24453e-05
      157.200   2.23792e-05
      157.300   2.23128e-05
      157.400   2.22464e-05
      157.500   2.21798e-05
      157.600   2.21130e-05
      157.700   2.20461e-05
      157.800   2.19791e-05
      157.900   2.19119e-05
      158.000   2.18446e-05
      158.100   2.17772e-05
      158.200   2.17095e-05
      158.300   2.16418e-05
      158.400   2.15740e-05
      158.500   2.15060e-05
      158.600   2.14378e-05
      158.700   2.13696e-05
      158.800   2.13013e-05
      158.900   2.12327e-05
      159.000   2.11642e-05
      159.100   2.10953e-05
      159.200   2.10264e-05
      159.300   2.09573e-05
      159.400   2.08881e-05
      159.500   2.08189e-05
      159.600   2.07496e-05
      159.700   2.06803e-05
      159.800   2.06108e-05
      159.900   2.05414e-05
      160.000   2.04718e-05
      160.100   2.04022e-05
      160.200   2.03325e-05
      160.300   2.02628e-05
      160.400   2.01931e-05
      160.500   2.01234e-05
      160.600   2.00536e-05
      160.700   1.99839e-05
      160.800   1.99140e-05
      160.900   1.98442e-05
      161.000   1.97743e-05
      161.100   1.97045e-05
      161.200   1.96347e-05
      161.300   1.95649e-05
      161.400   1.94950e-05
      161.500   1.94252e-05
      161.600   1.93553e-05
      161.700   1.92852e-05
      161.800   1.92152e-05
      161.900   1.91451e-05
      162.000   1.90749e-05
      162.100   1.90048e-05
      162.200   1.89347e-05
      162.300   1.88645e-05
      162.400   1.87943e-05
      162.500   1.87241e-05
      162.600   1.86538e-05
      162.700   1.85835e-05
      162.800   1.85132e-05
      162.900   1.84428e-05
      163.000   1.83723e-05
      163.100   1.83019e-05
      163.200   1.82313e-05
      163.300   1.81607e-05
      163.400   1.80901e-05
      163.500   1.80194e-05
      163.600   1.79487e-05
      163.700   1.78779e-05
      163.800   1.78072e-05
      163.900   1.77364e-05
      164.000   1.76656e-05
      164.100   1.75948e-05
      164.200   1.75240e-05
      164.300   1.74543e-05
      164.400   1.73846e-05
      164.500   1.73149e-05
      164.600   1.72453e-05
      164.700   1.71757e-05
      164.800   1.71062e-05
      164.900   1.70366e-05
      165.000   1.69672e-05
      165.100   1.68979e-05
      165.200   1.68286e-05
      165.300   1.67594e-05
      165.400   1.66904e-05
      165.500   1.66214e-05
      165.600   1.65526e-05
      165.700   1.64838e-05
      165.800   1.64152e-05
      165.900   1.63467e-05
      166.000   1.62784e-05
      166.100   1.62102e-05
      166.200   1.61422e-05
      166.300   1.60743e-05
      166.400   1.60065e-05
      166.500   1.59389e-05
      166.600   1.58714e-05
      166.700   1.58041e-05
      166.800   1.57355e-05
      166.900   1.56609e-05
      167.000   1.55808e-05
      167.100   1.55007e-05
      167.200   1.54208e-05
      167.300   1.53411e-05
      167.400   1.52618e-05
      167.500   1.51826e-05
      167.600   1.51036e-05
      167.700   1.50248e-05
      167.800   1.49463e-05
      167.900   1.48680e-05
      168.000   1.47898e-05
      168.100   1.47119e-05
      168.200   1.46341e-05
      168.300   1.45565e-05
      168.400   1.44791e-05
      168.500   1.44019e-05
      168.600   1.43249e-05
      168.700   1.42480e-05
      168.800   1.41713e-05
      168.900   1.40949e-05
      169.000   1.40185e-05
      169.100   1.39424e-05
      169.200   1.38665e-05
      169.300   1.37907e-05
      169.400   1.37151e-05
      169.500   1.36360e-05
      169.600   1.35406e-05
      169.700   1.34291e-05
      169.800   1.33171e-05
      169.900   1.32057e-05
      170.000   1.30948e-05
      170.100   1.29845e-05
      170.200   1.28748e-05
      170.300   1.69365e-05
      170.400   3.67118e-05
      170.500   7.00975e-05
      170.600   0.000103979
      170.700   0.000131599
      170.800   0.000145072
      170.900   0.000146500
      171.000   0.000144933
      171.100   0.000143373
      171.200   0.000141820
      171.300   0.000140274
      171.400   0.000138736
      171.500   0.000137205
      171.600   0.000135683
      171.700   0.000134171
      171.800   0.000132669
      171.900   0.000131180
      172.000   0.000129704
      172.100   0.000128242
      172.200   0.000126796
      172.300   0.000125361
      172.400   0.000123918
      172.500   0.000122487
      172.600   0.000121072
      172.700   0.000119675
      172.800   0.000118294
      172.900   0.000116930
      173.000   0.000115584
      173.100   0.000114255
      173.200   0.000112941
      173.300   0.000111645
      173.400   0.000110363
      173.500   0.000109098
      173.600   0.000107849
      173.700   0.000106615
      173.800   0.000105396
      173.900   0.000104192
      174.000   0.000103002
      174.100   0.000101826
      174.200   0.000100663
      174.300   9.95144e-05
      174.400   9.83786e-05
      174.500   9.72555e-05
      174.600   9.61441e-05
      174.700   9.50454e-05
      174.800   9.39587e-05
      174.900   9.28832e-05
      175.000   9.18184e-05
      175.100   9.07648e-05
      175.200   8.97258e-05
      175.300   8.86967e-05
      175.400   8.76781e-05
      175.500   8.66704e-05
      175.600   8.56729e-05
      175.700   8.46861e-05
      175.800   8.37091e-05
      175.900   8.27424e-05
      176.000   8.17859e-05
      176.100   8.08397e-05
      176.200   7.99034e-05
      176.300   7.89766e-05
      176.400   7.80602e-05
      176.500   7.71532e-05
      176.600   7.62558e-05
      176.700   7.53680e-05
      176.800   7.44897e-05
      176.900   7.36210e-05
      177.000   7.27614e-05
      177.100   7.19108e-05
      177.200   7.10696e-05
      177.300   7.02375e-05
      177.400   6.94138e-05
      177.500   6.85987e-05
      177.600   6.77924e-05
      177.700   6.69947e-05
      177.800   6.62054e-05
      177.900   6.54237e-05
      178.000   6.46544e-05
      178.100   6.38936e-05
      178.200   6.31404e-05
      178.300   6.23951e-05
      178.400   6.16579e-05
      178.500   6.09282e-05
      178.600   6.02060e-05
      178.700   5.94911e-05
      178.800   5.87840e-05
      178.900   5.80844e-05
      179.000   5.73921e-05
      179.100   5.67069e-05
      179.200   5.60291e-05
      179.300   5.53588e-05
      179.400   5.46956e-05
      179.500   5.40400e-05
      179.600   5.33914e-05
      179.700   5.27504e-05
      179.800   5.21164e-05
      179.900   5.14896e-05
      180.000   5.08698e-05
      180.100   5.02575e-05
      180.200   4.96522e-05
      180.300   4.90541e-05
      180.400   4.84630e-05
      180.500   4.78791e-05
      180.600   4.73021e-05
      180.700   4.67321e-05
      180.800   4.61568e-05
      180.900   4.55746e-05
      181.000   4.49960e-05
      181.100   4.44249e-05
      181.200   4.38610e-05
      181.300   4.33041e-05
      181.400   4.27545e-05
      181.500   4.22118e-05
      181.600   4.16760e-05
      181.700   4.11468e-05
      181.800   4.06243e-05
      181.900   4.01084e-05
      182.000   3.95992e-05
      182.100   3.90961e-05
      182.200   3.85996e-05
      182.300   3.81091e-05
      182.400   3.76248e-05
      182.500   3.71464e-05
      182.600   3.66738e-05
      182.700   3.62070e-05
      182.800   3.57459e-05
      182.900   3.52904e-05
      183.000   3.48404e-05
      183.100   3.43961e-05
      183.200   3.39570e-05
      183.300   3.35231e-05
      183.400   3.30945e-05
      183.500   3.26712e-05
      183.600   3.22530e-05
      183.700   3.18176e-05
      183.800   3.13011e-05
      183.900   3.07762e-05
      184.000   3.02597e-05
      184.100   2.97512e-05
      184.200   2.92509e-05
      184.300   2.87581e-05
      184.400   2.82731e-05
      184.500   2.77958e-05
      184.600   2.73258e-05
      184.700   2.68632e-05
      184.800   2.64078e-05
      184.900   2.59595e-05
      185.000   2.55183e-05
      185.100   2.50838e-05
      185.200   2.46560e-05
      185.300   2.42353e-05
      185.400   2.38209e-05
      185.500   2.34131e-05
      185.600   2.30117e-05
      185.700   2.26163e-05
      185.800   2.22276e-05
      185.900   2.18451e-05
      186.000   2.14683e-05
      186.100   2.10975e-05
      186.200   2.07325e-05
      186.300   2.03731e-05
      186.400   2.00194e-05
      186.500   1.96711e-05
      186.600   1.93282e-05
      186.700   1.89906e-05
      186.800   1.86582e-05
      186.900   1.83309e-05
      187.000   1.80086e-05
      187.100   1.76914e-05
      187.200   1.73792e-05
      187.300   1.70721e-05
      187.400   1.67699e-05
      187.500   1.64724e-05
      187.600   1.61796e-05
      187.700   1.58915e-05
      187.800   1.56078e-05
      187.900   1.53287e-05
      188.000   1.50541e-05
      188.100   1.47840e-05
      188.200   1.45181e-05
      188.300   1.42564e-05
      188.400   1.39990e-05
      188.500   1.37459e-05
      188.600   1.34971e-05
      188.700   1.32525e-05
      188.800   1.30120e-05
      188.900   1.27756e-05
      189.000   1.25431e-05
      189.100   1.23145e-05
      189.200   1.20897e-05
      189.300   1.18688e-05
      189.400   1.16516e-05
      189.500   1.14381e-05
      189.600   1.12281e-05
      189.700   1.10206e-05
      189.800   1.08090e-05
      189.900   1.06015e-05
      190.000   1.03976e-05
      190.100   1.01976e-05
      190.200   1.00011e-05
      190.300   9.80820e-06
      190.400   9.61869e-06
      190.500   9.43264e-06
      190.600   9.25004e-06
      190.700   9.07070e-06
      190.800   8.89464e-06
      190.900   8.72180e-06
      191.000   8.55217e-06
      191.100   8.38585e-06
      191.200   8.22250e-06
      191.300   8.06214e-06
      191.400   7.90472e-06
      191.500   7.75012e-06
      191.600   7.59837e-06
      191.700   7.44940e-06
      191.800   7.30307e-06
      191.900   7.15947e-06
      192.000   7.01857e-06
      192.100   6.88037e-06
      192.200   6.74481e-06
      192.300   6.61171e-06
      192.400   6.48101e-06
      192.500   6.35272e-06
      192.600   6.22681e-06
      192.700   6.10102e-06
      192.800   5.96590e-06
      192.900   5.81274e-06
      193.000   5.66322e-06
      193.100   5.51733e-06
      193.200   5.37501e-06
      193.300   5.23606e-06
      193.400   5.10045e-06
      193.500   4.96801e-06
      193.600   4.83865e-06
      193.700   4.71234e-06
      193.800   4.58909e-06
      193.900   4.46881e-06
      194.000   4.35136e-06
      194.100   4.23685e-06
      194.200   4.12530e-06
      194.300   4.01641e-06
      194.400   3.91013e-06
      194.500   3.80639e-06
      194.600   3.70514e-06
      194.700   3.60638e-06
      194.800   3.51004e-06
      194.900   3.41600e-06
      195.000   3.32428e-06
      195.100   3.23498e-06
      195.200   3.14790e-06
      195.300   3.06297e-06
      195.400   2.98009e-06
      195.500   2.89922e-06
      195.600   2.82033e-06
      195.700   2.74341e-06
      195.800   2.66836e-06
      195.900   2.59517e-06
      196.000   2.52347e-06
      196.100   2.45356e-06
      196.200   2.38540e-06
      196.300   2.31895e-06
      196.400   2.25415e-06
      196.500   2.19095e-06
      196.600   2.12938e-06
      196.700   2.06936e-06
      196.800   2.01093e-06
      196.900   1.95407e-06
      197.000   1.89868e-06
      197.100   1.84469e-06
      197.200   1.79209e-06
      197.300   1.74082e-06
      197.400   1.69084e-06
      197.500   1.64218e-06
      197.600   1.59477e-06
      197.700   1.54874e-06
      197.800   1.50393e-06
      197.900   1.46026e-06
      198.000   1.41774e-06
      198.100   1.37635e-06
      198.200   1.33602e-06
      198.300   1.29675e-06
      198.400   1.25854e-06
      198.500   1.22145e-06
      198.600   1.18539e-06
      198.700   1.15028e-06
      198.800   1.11611e-06
      198.900   1.08286e-06
      199.000   1.05120e-06
      199.100   1.02246e-06
      199.200   9.97339e-07
      199.300   9.72836e-07
      199.400   9.48910e-07
      199.500   9.25530e-07
      199.600   9.02674e-07
      199.700   8.80333e-07
      199.800   8.58499e-07
      199.900   8.37170e-07
      200.000   8.16323e-07
      200.100   7.96039e-07
      200.200   7.76196e-07
      200.300   7.56819e-07
      200.400   7.37893e-07
      200.500   7.19409e-07
      200.600   7.01353e-07
      200.700   6.83724e-07
      200.800   6.66499e-07
      200.900   6.49680e-07
      201.000   6.33282e-07
      201.100   6.17273e-07
      201.200   6.01641e-07
      201.300   5.86382e-07
      201.400   5.71491e-07
      201.500   5.56940e-07
      201.600   5.42743e-07
      201.700   5.28884e-07
      201.800   5.15349e-07
      201.900   5.02152e-07
      202.000   4.89291e-07
      202.100   4.76726e-07
      202.200   4.64469e-07
      202.300   4.52746e-07
      202.400   4.41646e-07
      202.500   4.30855e-07
      202.600   4.20307e-07
      202.700   4.10001e-07
      202.800   3.99941e-07
      202.900   3.90121e-07
      203.000   3.80532e-07
      203.100   3.71167e-07
      203.200   3.62016e-07
      203.300   3.53075e-07
      203.400   3.44343e-07
      203.500   3.35818e-07
      203.600   3.27491e-07
      203.700   3.19358e-07
      203.800   3.11428e-07
      203.900   3.03689e-07
      204.000   2.96130e-07
      204.100   2.88751e-07
      204.200   2.81550e-07
      204.300   2.74514e-07
      204.400   2.67649e-07
      204.500   2.60946e-07
      204.600   2.54401e-07
      204.700   2.48013e-07
      204.800   2.41786e-07
      204.900   2.35709e-07
      205.000   2.29778e-07
      205.100   2.23991e-07
      205.200   2.18339e-07
      205.300   2.12827e-07
      205.400   2.07446e-07
      205.500   2.02192e-07
      205.600   1.97086e-07
      205.700   1.92124e-07
      205.800   1.87279e-07
      205.900   1.82555e-07
      206.000   1.77951e-07
      206.100   1.73452e-07
      206.200   1.69060e-07
      206.300   1.64775e-07
      206.400   1.60594e-07
      206.500   1.56509e-07
      206.600   1.52524e-07
      206.700   1.48634e-07
      206.800   1.44835e-07
      206.900   1.41128e-07
      207.000   1.37512e-07
      207.100   1.33984e-07
      207.200   1.30544e-07
      207.300   1.27186e-07
      207.400   1.23907e-07
      207.500   1.20708e-07
      207.600   1.17586e-07
      207.700   1.14537e-07
      207.800   1.11563e-07
      207.900   1.08661e-07
      208.000   1.05829e-07
      208.100   1.03065e-07
      208.200   1.00370e-07
      208.300   9.77393e-08
      208.400   9.51755e-08
      208.500   9.26757e-08
      208.600   9.02353e-08
      208.700   8.78541e-08
      208.800   8.55284e-08
      208.900   8.31171e-08
      209.000   8.05803e-08
      209.100   7.81160e-08
      209.200   7.57215e-08
      209.300   7.33942e-08
      209.400   7.11347e-08
      209.500   6.89391e-08
      209.600   6.68058e-08
      209.700   6.47354e-08
      209.800   6.27284e-08
      209.900   6.07774e-08
      210.000   5.88836e-08
      210.100   5.70451e-08
      210.200   5.52596e-08
      210.300   5.35266e-08
      210.400   5.18443e-08
      210.500   5.02109e-08
      210.600   4.86258e-08
      210.700   4.70879e-08
      210.800   4.55950e-08
      210.900   4.41463e-08
      211.000   4.27405e-08
      211.100   4.13773e-08
      211.200   4.00544e-08
      211.300   3.87729e-08
      211.400   3.75308e-08
      211.500   3.63251e-08
      211.600   3.51560e-08
      211.700   3.40226e-08
      211.800   3.29227e-08
      211.900   3.18563e-08
      212.000   3.08229e-08
      212.100   2.98208e-08
      212.200   2.88211e-08
      212.300   2.74328e-08
      212.400   2.58556e-08
      212.500   2.43621e-08
      212.600   2.29492e-08
      212.700   2.16118e-08
      212.800   2.03467e-08
      212.900   1.91510e-08
      213.000   1.80209e-08
      213.100   1.69545e-08
      213.200   1.59466e-08
      213.300   1.49949e-08
      213.400   1.40955e-08
      213.500   1.32464e-08
      213.600   1.24449e-08
      213.700   1.16889e-08
      213.800   1.09751e-08
      213.900   1.03025e-08
      214.000   9.66826e-09
      214.100   9.07020e-09
      214.200   8.50702e-09
      214.300   7.97631e-09
      214.400   7.47638e-09
      214.500   7.00577e-09
      214.600   6.56309e-09
      214.700   6.14645e-09
      214.800   5.75451e-09
      214.900   5.38622e-09
      215.000   5.03971e-09
      215.100   4.71433e-09
      215.200   4.40911e-09
      215.300   4.12269e-09
      215.400   3.85351e-09
      215.500   3.60086e-09
      215.600   3.36398e-09
      215.700   3.14155e-09
      215.800   2.93296e-09
      215.900   2.73751e-09
      216.000   2.55421e-09
      216.100   2.38242e-09
      216.200   2.22158e-09
      216.300   2.07098e-09
      216.400   1.92998e-09
      216.500   1.79797e-09
      216.600   1.67452e-09
      216.700   1.55907e-09
      216.800   1.45108e-09
      216.900   1.35020e-09
      217.000   1.25593e-09
      217.100   1.16781e-09
      217.200   1.08560e-09
      217.300   1.00883e-09
      217.400   9.37155e-10
      217.500   8.70338e-10
      217.600   8.07985e-10
      217.700   7.49850e-10
      217.800   6.95664e-10
      217.900   6.45240e-10
      218.000   5.98296e-10
      218.100   5.54589e-10
      218.200   5.13911e-10
      218.300   4.76074e-10
      218.400   4.40863e-10
      218.500   4.08102e-10
      218.600   3.77672e-10
      218.700   3.49372e-10
      218.800   3.23081e-10
      218.900   2.98682e-10
      219.000   2.76012e-10
      219.100   2.55180e-10
      219.200   2.37545e-10
      219.300   2.23642e-10
      219.400   2.10507e-10
      219.500   1.98111e-10
      219.600   1.86410e-10
      219.700   1.75365e-10
      219.800   1.64947e-10
      219.900   1.55118e-10
      220.000   1.45842e-10
      220.100   1.37095e-10
      220.200   1.28850e-10
      220.300   1.21079e-10
      220.400   1.13751e-10
      220.500   1.06848e-10
      220.600   1.00347e-10
      220.700   9.42200e-11
      220.800   8.84474e-11
      220.900   8.30170e-11
      221.000   7.79025e-11
      221.100   7.30870e-11
      221.200   6.85587e-11
      221.300   6.42970e-11
      221.400   6.02873e-11
      221.500   5.65179e-11
      221.600   5.29728e-11
      221.700   4.96391e-11
      221.800   4.65057e-11
      221.900   4.35627e-11
      222.000   4.07976e-11
      222.100   3.81987e-11
      222.200   3.57601e-11
      222.300   3.34693e-11
      222.400   3.13186e-11
      222.500   2.92996e-11
      222.600   2.74065e-11
      222.700   2.56295e-11
      222.800   2.39628e-11
      222.900   2.24010e-11
      223.000   2.09357e-11
      223.100   1.95621e-11
      223.200   1.82747e-11
      223.300   1.70690e-11
      223.400   1.59393e-11
      223.500   1.48806e-11
      223.600   1.38901e-11
      223.700   1.29623e-11
      223.800   1.20937e-11
      223.900   1.12818e-11
      224.000   1.05213e-11
      224.100   9.81004e-12
      224.200   9.14490e-12
      224.300   8.52329e-12
      224.400   7.94184e-12
      224.500   7.39855e-12
      224.600   6.89071e-12
      224.700   6.41679e-12
      224.800   5.97396e-12
      224.900   5.56025e-12
      225.000   5.17424e-12
      225.100   4.81381e-12
      225.200   4.47746e-12
      225.300   4.16394e-12
      225.400   3.87129e-12
      225.500   3.59835e-12
      225.600   3.34392e-12
      225.700   3.10689e-12
      225.800   2.88589e-12
      225.900   2.68002e-12
      226.000   2.48836e-12
      226.100   2.30977e-12
      226.200   2.14349e-12
      226.300   1.98895e-12
      226.400   1.84521e-12
      226.500   1.71136e-12
      226.600   1.58682e-12
      226.700   1.47107e-12
      226.800   1.36338e-12
      226.900   1.26323e-12
      227.000   1.17023e-12
      227.100   1.08378e-12
      227.200   1.00349e-12
      227.300   9.28930e-13
      227.400   8.59713e-13
      227.500   7.95453e-13
      227.600   7.35825e-13
      227.700   6.80503e-13
      227.800   6.29202e-13
      227.900   5.81634e-13
      228.000   5.37527e-13
      228.100   4.96647e-13
      228.200   4.58760e-13
      228.300   4.23665e-13
      228.400   3.91171e-13
      228.500   3.61071e-13
      228.600   3.33214e-13
      228.700   3.07430e-13
      228.800   2.83568e-13
      228.900   2.61507e-13
      229.000   2.41093e-13
      229.100   2.22221e-13
      229.200   2.04779e-13
      229.300   1.88661e-13
      229.400   1.73769e-13
      229.500   1.60013e-13
      229.600   1.47309e-13
      229.700   1.35582e-13
      229.800   1.24756e-13
      229.900   1.14804e-13
      230.000   1.05926e-13
      230.100   9.82842e-14
      230.200   9.11764e-14
      230.300   8.45709e-14
      230.400   7.84266e-14
      230.500   7.27194e-14
      230.600   6.74215e-14
      230.700   6.24962e-14
      230.800   5.79206e-14
      230.900   5.36709e-14
      231.000   4.97215e-14
      231.100   4.60548e-14
      231.200   4.26496e-14
      231.300   3.94894e-14
      231.400   3.65575e-14
      231.500   3.38348e-14
      231.600   3.13084e-14
      231.700   2.89658e-14
      231.800   2.67933e-14
      231.900   2.47787e-14
      232.000   2.29109e-14
      232.100   2.11794e-14
      232.200   1.95751e-14
      232.300   1.80886e-14
      232.400   1.67114e-14
      232.500   1.54355e-14
      232.600   1.42546e-14
      232.700   1.31612e-14
      232.800   1.21491e-14
      232.900   1.12125e-14
      233.000   1.03458e-14
      233.100   9.54438e-15
      233.200   8.80277e-15
      233.300   8.11725e-15
      233.400   7.48363e-15
      233.500   6.89900e-15
      233.600   6.35941e-15
      233.700   5.86063e-15
      233.800   5.39549e-15
      233.900   4.96573e-15
      234.000   4.56895e-15
      234.100   4.20309e-15
      234.200   3.86567e-15
      234.300   3.55453e-15
      234.400   3.26768e-15
      234.500   3.00334e-15
      234.600   2.75970e-15
      234.700   2.53529e-15
      234.800   2.32865e-15
      234.900   2.13830e-15
      235.000   1.96303e-15
      235.100   1.80174e-15
      235.200   1.65331e-15
      235.300   1.51675e-15
      235.400   1.39114e-15
      235.500   1.27562e-15
      235.600   1.16944e-15
      235.700   1.07191e-15
      235.800   9.82576e-16
      235.900   9.00477e-16
      236.000   8.25044e-16
      236.100   7.55741e-16
      236.200   6.92095e-16
      236.300   6.33645e-16
      236.400   5.80002e-16
      236.500   5.30763e-16
      236.600   4.85588e-16
      236.700   4.44147e-16
      236.800   4.06134e-16
      236.900   3.71287e-16
      237.000   3.39343e-16
      237.100   3.10060e-16
      237.200   2.83243e-16
      237.300   2.58669e-16
      237.400   2.36271e-16
      237.500   2.16708e-16
      237.600   2.00379e-16
      237.700   1.85293e-16
      237.800   1.71309e-16
      237.900   1.58351e-16
      238.000   1.46351e-16
      238.100   1.35230e-16
      238.200   1.24932e-16
      238.300   1.15395e-16
      238.400   1.06567e-16
      238.500   9.83932e-17
      238.600   9.08296e-17
      238.700   8.38332e-17
      238.800   7.73587e-17
      238.900   7.13704e-17
      239.000   6.58322e-17
      239.100   6.07122e-17
      239.200   5.59803e-17
      239.300   5.16184e-17
      239.400   4.75971e-17
      239.500   4.38796e-17
      239.600   4.04441e-17
      239.700   3.72712e-17
      239.800   3.43394e-17
      239.900   3.16318e-17
      240.000   2.91320e-17
      240.100   2.68236e-17
      240.200   2.46928e-17
      240.300   2.27271e-17
      240.400   2.09126e-17
      240.500   1.92399e-17
      240.600   1.76970e-17
      240.700   1.62746e-17
      240.800   1.49670e-17
      240.900   1.37648e-17
      241.000   1.26567e-17
      241.100   1.16354e-17
      241.200   1.06942e-17
      241.300   9.87264e-18
      241.400   9.19624e-18
      241.500   8.60802e-18
      241.600   8.05646e-18
      241.700   7.53923e-18
      241.800   7.05435e-18
      241.900   6.59979e-18
      242.000   6.17381e-18
      242.100   5.77461e-18
      242.200   5.40165e-18
      242.300   5.05293e-18
      242.400   4.72608e-18
      242.500   4.41983e-18
      242.600   4.13292e-18
      242.700   3.86409e-18
      242.800   3.61236e-18
      242.900   3.37658e-18
      243.000   3.15580e-18
      243.100   2.94910e-18
      243.200   2.75551e-18
      243.300   2.57434e-18
      243.400   2.40483e-18
      243.500   2.24660e-18
      243.600   2.09899e-18
      243.700   1.96076e-18
      243.800   1.83139e-18
      243.900   1.71039e-18
      244.000   1.59714e-18
      244.100   1.49120e-18
      244.200   1.39212e-18
      244.300   1.29942e-18
      244.400   1.21277e-18
      244.500   1.13173e-18
      244.600   1.05597e-18
      244.700   9.85305e-19
      244.800   9.19508e-19
      244.900   8.58010e-19
      245.000   8.00492e-19
      245.100   7.46737e-19
      245.200   6.96522e-19
      245.300   6.49592e-19
      245.400   6.05727e-19
      245.500   5.64768e-19
      245.600   5.26502e-19
      245.700   4.90752e-19
      245.800   4.57359e-19
      245.900   4.26340e-19
      246.000   3.97430e-19
      246.100   3.70424e-19
      246.200   3.45208e-19
      246.300   3.21660e-19
      246.400   2.99683e-19
      246.500   2.79166e-19
      246.600   2.60016e-19
      246.700   2.42150e-19
      246.800   2.25471e-19
      246.900   2.09913e-19
      247.000   1.95470e-19
      247.100   1.82027e-19
      247.200   1.69486e-19
      247.300   1.57787e-19
      247.400   1.46872e-19
      247.500   1.36693e-19
      247.600   1.27201e-19
      247.700   1.18350e-19
      247.800   1.10099e-19
      247.900   1.02406e-19
      248.000   9.52388e-20
      248.100   8.86128e-20
      248.200   8.24334e-20
      248.300   7.66736e-20
      248.400   7.13057e-20
      248.500   6.63014e-20
      248.600   6.16393e-20
      248.700   5.72974e-20
      248.800   5.32526e-20
      248.900   4.94861e-20
      249.000   4.59786e-20
      249.100   4.27341e-20
      249.200   4.00757e-20
      249.300   3.79524e-20
      249.400   3.60273e-20
      249.500   3.41978e-20
      249.600   3.24585e-20
      249.700   3.08058e-20
      249.800   2.92354e-20
      249.900   2.77426e-20
      250.000   2.63250e-20
      250.100   2.49825e-20
      250.200   2.37088e-20
      250.300   2.24996e-20
      250.400   2.13507e-20
      250.500   2.02595e-20
      250.600   1.92231e-20
      250.700   1.82385e-20
      250.800   1.73034e-20
      250.900   1.64153e-20
      251.000   1.55720e-20
      251.100   1.47710e-20
      251.200   1.40117e-20
      251.300   1.32926e-20
      251.400   1.26095e-20
      251.500   1.19607e-20
      251.600   1.13447e-20
      251.700   1.07601e-20
      251.800   1.02049e-20
      251.900   9.67782e-21
      252.000   9.17729e-21
      252.100   8.70249e-21
      252.200   8.25153e-21
      252.300   7.82420e-21
      252.400   7.41932e-21
      252.500   7.03522e-21
      252.600   6.67051e-21
      252.700   6.32443e-21
      252.800   5.99598e-21
      252.900   5.68422e-21
      253.000   5.38839e-21
      253.100   5.10773e-21
      253.200   4.86431e-21
      253.300   4.72907e-21
      253.400   4.61945e-21
      253.500   4.51247e-21
      253.600   4.40802e-21
      253.700   4.30594e-21
      253.800   4.20624e-21
      253.900   4.10880e-21
      254.000   4.01360e-21
      254.100   3.92057e-21
      254.200   3.82966e-21
      254.300   3.74084e-21
      254.400   3.65405e-21
      254.500   3.56927e-21
      254.600   3.48639e-21
      254.700   3.40545e-21
      254.800   3.32646e-21
      254.900   3.24925e-21
      255.000   3.17382e-21
      255.100   3.10007e-21
      255.200   3.02805e-21
      255.300   2.95765e-21
      255.400   2.88887e-21
      255.500   2.82168e-21
      255.600   2.75600e-21
      255.700   2.69183e-21
      255.800   2.62912e-21
      255.900   2.56784e-21
      256.000   2.50795e-21
      256.100   2.44950e-21
      256.200   2.39238e-21
      256.300   2.33657e-21
      256.400   2.28207e-21
      256.500   2.22879e-21
      256.600   2.17673e-21
      256.700   2.12587e-21
      256.800   2.07617e-21
      256.900   2.02759e-21
      257.000   1.98014e-21
      257.100   1.93377e-21
      257.200   1.88848e-21
      257.300   1.84421e-21
      257.400   1.80133e-21
      257.500   1.75957e-21
      257.600   1.71881e-21
      257.700   1.67897e-21
      257.800   1.64004e-21
      257.900   1.60199e-21
      258.000   1.56482e-21
      258.100   1.52847e-21
      258.200   1.49297e-21
      258.300   1.45827e-21
      258.400   1.42435e-21
      258.500   1.39120e-21
      258.600   1.35882e-21
      258.700   1.32717e-21
      258.800   1.29624e-21
      258.900   1.26603e-21
      259.000   1.23650e-21
      259.100   1.20764e-21
      259.200   1.17946e-21
      259.300   1.15194e-21
      259.400   1.12505e-21
      259.500   1.09877e-21
      259.600   1.07311e-21
      259.700   1.04802e-21
      259.800   1.02351e-21
      259.900   9.99559e-22
      260.000   9.76164e-22
      260.100   9.53309e-22
      260.200   9.30980e-22
      260.300   9.09164e-22
      260.400   8.87851e-22
      260.500   8.67037e-22
      260.600   8.46691e-22
      260.700   8.26820e-22
      260.800   8.07419e-22
      260.900   7.88451e-22
      261.000   7.69936e-22
      261.100   7.51866e-22
      261.200   7.34199e-22
      261.300   7.16948e-22
      261.400   7.00101e-22
      261.500   6.83659e-22
      261.600   6.67655e-22
      261.700   6.52027e-22
      261.800   6.36766e-22
      261.900   6.21849e-22
      262.000   6.07281e-22
      262.100   5.93048e-22
      262.200   5.79152e-22
      262.300   5.65574e-22
      262.400   5.52315e-22
      262.500   5.39359e-22
      262.600   5.26704e-22
      262.700   5.14345e-22
      262.800   5.02274e-22
      262.900   4.90475e-22
      263.000   4.78967e-22
      263.100   4.67722e-22
      263.200   4.56746e-22
      263.300   4.46022e-22
      263.400   4.35548e-22
      263.500   4.25321e-22
      263.600   4.15334e-22
      263.700   4.05578e-22
      263.800   3.96048e-22
      263.900   3.86750e-22
      264.000   3.77663e-22
      264.100   3.68787e-22
      264.200   3.60116e-22
      264.300   3.51654e-22
      264.400   3.43390e-22
      264.500   3.35316e-22
      264.600   3.27432e-22
      264.700   3.19735e-22
      264.800   3.12214e-22
      264.900   3.04874e-22
      265.000   2.97705e-22
      265.100   2.90701e-22
      265.200   2.83864e-22
      265.300   2.77186e-22
      265.400   2.70669e-22
      265.500   2.64301e-22
      265.600   2.58086e-22
      265.700   2.52728e-22
      265.800   2.50516e-22
      265.900   2.48423e-22
      266.000   2.46346e-22
      266.100   2.44288e-22
      266.200   2.42247e-22
      266.300   2.40223e-22
      266.400   2.38218e-22
      266.500   2.36229e-22
      266.600   2.34257e-22
      266.700   2.32299e-22
      266.800   2.30362e-22
      266.900   2.28441e-22
      267.000   2.26536e-22
      267.100   2.24648e-22
      267.200   2.22776e-22
      267.300   2.20920e-22
      267.400   2.19079e-22
      267.500   2.17255e-22
      267.600   2.15447e-22
      267.700   2.13655e-22
      267.800   2.11875e-22
      267.900   2.10113e-22
      268.000   2.08368e-22
      268.100   2.06638e-22
      268.200   2.04922e-22
      268.300   2.03223e-22
      268.400   2.01536e-22
      268.500   1.99863e-22
      268.600   1.98204e-22
      268.700   1.96564e-22
      268.800   1.94936e-22
      268.900   1.93321e-22
      269.000   1.91722e-22
      269.100   1.90134e-22
      269.200   1.88563e-22
      269.300   1.87005e-22
      269.400   1.85460e-22
      269.500   1.83928e-22
      269.600   1.82412e-22
      269.700   1.80904e-22
      269.800   1.79413e-22
      269.900   1.77934e-22
      270.000   1.76469e-22
      270.100   1.75023e-22
      270.200   1.73590e-22
      270.300   1.72171e-22
      270.400   1.70762e-22
      270.500   1.69365e-22
      270.600   1.67979e-22
      270.700   1.66608e-22
      270.800   1.65247e-22
      270.900   1.63898e-22
      271.000   1.62561e-22
      271.100   1.61234e-22
      271.200   1.59918e-22
      271.300   1.58614e-22
      271.400   1.57321e-22
      271.500   1.56040e-22
      271.600   1.54768e-22
      271.700   1.53506e-22
      271.800   1.52256e-22
      271.900   1.51016e-22
      272.000   1.49786e-22
      272.100   1.48567e-22
      272.200   1.47357e-22
      272.300   1.46156e-22
      272.400   1.44966e-22
      272.500   1.43786e-22
      272.600   1.42616e-22
      272.700   1.41455e-22
      272.800   1.40302e-22
      272.900   1.39161e-22
      273.000   1.38027e-22
      273.100   1.36903e-22
      273.200   1.35789e-22
      273.300   1.34683e-22
      273.400   1.33586e-22
      273.500   1.32496e-22
      273.600   1.31417e-22
      273.700   1.30345e-22
      273.800   1.29281e-22
      273.900   1.28227e-22
      274.000   1.27181e-22
      274.100   1.26143e-22
      274.200   1.25113e-22
      274.300   1.24090e-22
      274.400   1.23046e-22
      274.500   1.21939e-22
      274.600   1.20827e-22
      274.700   1.19726e-22
      274.800   1.18633e-22
      274.900   1.17550e-22
      275.000   1.16476e-22
      275.100   1.15411e-22
      275.200   1.14355e-22
      275.300   1.13307e-22
      275.400   1.12270e-22
      275.500   1.11240e-22
      275.600   1.10220e-22
      275.700   1.09208e-22
      275.800   1.08204e-22
      275.900   1.07210e-22
      276.000   1.06224e-22
      276.100   1.05245e-22
      276.200   1.04275e-22
      276.300   1.03313e-22
      276.400   1.02359e-22
      276.500   1.01413e-22
      276.600   1.00476e-22
      276.700   9.95460e-23
      276.800   9.86239e-23
      276.900   9.77088e-23
      277.000   9.68021e-23
      277.100   9.59026e-23
      277.200   9.50112e-23
      277.300   9.41269e-23
      277.400   9.32505e-23
      277.500   9.23801e-23
      277.600   9.15182e-23
      277.700   9.06622e-23
      277.800   8.98132e-23
      277.900   8.89732e-23
      278.000   8.81399e-23
      278.100   8.73130e-23
      278.200   8.64933e-23
      278.300   8.56805e-23
      278.400   8.48746e-23
      278.500   8.40749e-23
      278.600   8.32818e-23
      278.700   8.24962e-23
      278.800   8.17503e-23
      278.900   8.11645e-23
      279.000   8.05857e-23
      279.100   8.00103e-23
      279.200   7.94368e-23
      279.300   7.88679e-23
      279.400   7.83015e-23
      279.500   7.77379e-23
      279.600   7.71782e-23
      279.700   7.66213e-23
      279.800   7.60679e-23
      279.900   7.55180e-23
      280.000   7.49707e-23
      280.100   7.44261e-23
      280.200   7.38852e-23
      280.300   7.33472e-23
      280.400   7.28127e-23
      280.500   7.22810e-23
      280.600   7.17526e-23
      280.700   7.12274e-23
      280.800   7.07048e-23
      280.900   7.01852e-23
      281.000   6.96690e-23
      281.100   6.91556e-23
      281.200   6.86454e-23
      281.300   6.81382e-23
      281.400   6.76343e-23
      281.500   6.71334e-23
      281.600   6.66345e-23
      281.700   6.61391e-23
      281.800   6.56475e-23
      281.900   6.51584e-23
      282.000   6.46719e-23
      282.100   6.41887e-23
      282.200   6.37090e-23
      282.300   6.32312e-23
      282.400   6.27566e-23
      282.500   6.22846e-23
      282.600   6.18164e-23
      282.700   6.13510e-23
      282.800   6.08877e-23
      282.900   6.04286e-23
      283.000   5.99718e-23
      283.100   5.95172e-23
      283.200   5.90664e-23
      283.300   5.87378e-23
      283.400   5.90615e-23
      283.500   5.94650e-23
      283.600   5.98695e-23
      283.700   6.02761e-23
      283.800   6.06838e-23
      283.900   6.10925e-23
      284.000   6.15028e-23
      284.100   6.19142e-23
      284.200   6.23279e-23
      284.300   6.27435e-23
      284.400   6.31597e-23
      284.500   6.35774e-23
      284.600   6.39974e-23
      284.700   6.44182e-23
      284.800   6.48405e-23
      284.900   6.52649e-23
      285.000   6.56903e-23
      285.100   6.61173e-23
      285.200   6.65452e-23
      285.300   6.69754e-23
      285.400   6.74078e-23
      285.500   6.78404e-23
      285.600   6.82756e-23
      285.700   6.87115e-23
      285.800   6.91496e-23
      285.900   6.95892e-23
      286.000   7.00295e-23
      286.100   7.04728e-23
      286.200   7.09176e-23
      286.300   7.13642e-23
      286.400   7.18112e-23
      286.500   7.22604e-23
      286.600   7.27113e-23
      286.700   7.31637e-23
      286.800   7.36180e-23
      286.900   7.40745e-23
      287.000   7.45319e-23
      287.100   7.49911e-23
      287.200   7.54521e-23
      287.300   7.59141e-23
      287.400   7.63782e-23
      287.500   7.68446e-23
      287.600   7.73126e-23
      287.700   7.77826e-23
      287.800   7.82542e-23
      287.900   7.87280e-23
      288.000   7.92041e-23
      288.100   7.96828e-23
      288.200   8.01624e-23
      288.300   8.06445e-23
      288.400   8.11301e-23
      288.500   8.16157e-23
      288.600   8.21037e-23
      288.700   8.25943e-23
      288.800   8.30859e-23
      288.900   8.35793e-23
      289.000   8.40755e-23
      289.100   8.45729e-23
      289.200   8.50714e-23
      289.300   8.55728e-23
      289.400   8.60771e-23
      289.500   8.65827e-23
      289.600   8.70896e-23
      289.700   8.75992e-23
      289.800   8.81108e-23
      289.900   8.86233e-23
      290.000   8.91402e-23
      290.100   8.96562e-23
      290.200   9.01768e-23
      290.300   9.06989e-23
      290.400   9.12222e-23
      290.500   9.17484e-23
      290.600   9.22757e-23
      290.700   9.28056e-23
      290.800   9.33379e-23
      290.900   9.38724e-23
      291.000   9.44091e-23
      291.100   9.49474e-23
      291.200   9.54875e-23
      291.300   9.60307e-23
      291.400   9.65749e-23
      291.500   9.71212e-23
      291.600   9.76706e-23
      291.700   9.82209e-23
      291.800   9.87741e-23
      291.900   9.93292e-23
      292.000   9.98877e-23
      292.100   1.00448e-22
      292.200   1.01010e-22
      292.300   1.01574e-22
      292.400   1.02140e-22
      292.500   1.02708e-22
      292.600   1.03277e-22
      292.700   1.03845e-22
      292.800   1.04416e-22
      292.900   1.04988e-22
      293.000   1.05563e-22
      293.100   1.06141e-22
      293.200   1.06719e-22
      293.300   1.07299e-22
      293.400   1.07883e-22
      293.500   1.08468e-22
      293.600   1.09055e-22
      293.700   1.09645e-22
      293.800   1.10237e-22
      293.900   1.10829e-22
      294.000   1.11424e-22
      294.100   1.12021e-22
      294.200   1.12621e-22
      294.300   1.13222e-22
      294.400   1.13826e-22
      294.500   1.14430e-22
      294.600   1.15037e-22
      294.700   1.15646e-22
      294.800   1.16257e-22
      294.900   1.16869e-22
      295.000   1.17484e-22
      295.100   1.18102e-22
      295.200   1.18720e-22
      295.300   1.19340e-22
      295.400   1.19962e-22
      295.500   1.20586e-22
      295.600   1.21211e-22
      295.700   1.21838e-22
      295.800   1.22466e-22
      295.900   1.23097e-22
      296.000   1.23730e-22
      296.100   1.24364e-22
      296.200   1.25000e-22
      296.300   1.25637e-22
      296.400   1.26276e-22
      296.500   1.26916e-22
      296.600   1.27559e-22
      296.700   1.28202e-22
      296.800   1.28847e-22
      296.900   1.29494e-22
      297.000   1.30143e-22
      297.100   1.30792e-22
      297.200   1.31522e-22
      297.300   1.32846e-22
      297.400   1.35636e-22
      297.500   1.38479e-22
      297.600   1.41378e-22
      297.700   1.44338e-22
      297.800   1.47351e-22
      297.900   1.50421e-22
      298.000   1.53546e-22
      298.100   1.56730e-22
      298.200   1.59973e-22
      298.300   1.63275e-22
      298.400   1.66640e-22
      298.500   1.70066e-22
      298.600   1.73556e-22
      298.700   1.77107e-22
      298.800   1.80724e-22
      298.900   1.84412e-22
      299.000   1.88169e-22
      299.100   1.91993e-22
      299.200   1.95888e-22
      299.300   1.99850e-22
      299.400   2.03885e-22
      299.500   2.07992e-22
      299.600   2.12170e-22
      299.700   2.16422e-22
      299.800   2.20753e-22
      299.900   2.25159e-22
      300.000   2.29640e-22
      300.100   2.34208e-22
      300.192   2.38481e-22
      300.285   2.42870e-22
      300.377   2.47282e-22
      300.470   2.51816e-22
      300.562   2.56369e-22
      300.654   2.60995e-22
      300.747   2.65754e-22
      300.839   2.70532e-22
      300.932   2.75438e-22
      301.025   2.80430e-22
      301.117   2.85441e-22
      301.210   2.90584e-22
      301.303   2.95817e-22
      301.395   3.01065e-22
      301.488   3.06463e-22
      301.581   3.11935e-22
      301.674   3.17503e-22
      301.766   3.23091e-22
      301.859   3.28836e-22
      301.952   3.34662e-22
      302.045   3.40585e-22
      302.138   3.57089e-22
      302.231   3.78706e-22
      302.324   4.01732e-22
      302.417   4.26113e-22
      302.510   4.51887e-22
      302.603   4.79115e-22
      302.696   5.07912e-22
      302.789   5.38371e-22
      302.882   5.70551e-22
      302.976   6.04923e-22
      303.069   6.40860e-22
      303.162   6.78820e-22
      303.255   7.18914e-22
      303.349   7.61724e-22
      303.442   8.06466e-22
      303.535   8.53648e-22
      303.629   9.03999e-22
      303.722   9.56600e-22
      303.816   1.01271e-21
      303.909   1.07130e-21
      304.003   1.13375e-21
      304.096   1.19896e-21
      304.190   1.26847e-21
      304.283   1.34099e-21
      304.377   1.41819e-21
      304.471   1.49965e-21
      304.564   1.58460e-21
      304.658   1.67506e-21
      304.752   1.77050e-21
      304.846   1.87094e-21
      304.939   1.97565e-21
      305.033   2.08712e-21
      305.127   2.20450e-21
      305.221   2.32807e-21
      305.315   2.45829e-21
      305.409   2.59525e-21
      305.503   2.73944e-21
      305.597   2.89125e-21
      305.691   3.05090e-21
      305.785   3.21899e-21
      305.879   3.39573e-21
      305.973   3.58146e-21
      306.067   3.77696e-21
      306.161   3.98241e-21
      306.255   4.19841e-21
      306.350   4.42791e-21
      306.444   4.66662e-21
      306.538   4.91754e-21
      306.633   5.18384e-21
      306.727   5.46086e-21
      306.821   5.75180e-21
      306.916   6.06052e-21
      307.010   6.38301e-21
      307.105   6.72668e-21
      307.199   7.08408e-21
      307.294   7.46348e-21
      307.388   7.85760e-21
      307.483   8.27578e-21
      307.577   8.71024e-21
      307.672   9.17109e-21
      307.767   9.65470e-21
      307.861   1.01565e-20
      307.956   1.06891e-20
      308.051   1.12478e-20
      308.146   1.18337e-20
      308.240   1.24414e-20
      308.335   1.30854e-20
      308.430   1.37609e-20
      308.525   1.44694e-20
      308.620   1.52115e-20
      308.715   1.59896e-20
      308.810   1.68049e-20
      308.905   1.76592e-20
      309.000   1.85536e-20
      309.095   1.94908e-20
      309.190   2.04723e-20
      309.285   2.15004e-20
      309.380   2.25767e-20
      309.476   2.37151e-20
      309.571   2.48949e-20
      309.666   2.61305e-20
      309.761   2.74227e-20
      309.857   2.87888e-20
      309.952   3.02034e-20
      310.047   3.16825e-20
      310.143   3.32467e-20
      310.238   3.48657e-20
      310.334   3.65760e-20
      310.429   3.83473e-20
      310.525   4.02165e-20
      310.620   4.21513e-20
      310.716   4.41945e-20
      310.811   4.63079e-20
      310.907   4.85376e-20
      311.003   5.08676e-20
      311.098   5.32774e-20
      311.194   5.58209e-20
      311.290   5.84779e-20
      311.386   6.12517e-20
      311.481   6.41178e-20
      311.577   6.71395e-20
      311.673   7.02965e-20
      311.769   7.35917e-20
      311.865   7.70274e-20
      311.961   8.06307e-20
      312.057   8.44240e-20
      312.153   8.83917e-20
      312.249   9.25343e-20
      312.345   9.68582e-20
      312.441   1.01371e-19
      312.537   1.06077e-19
      312.633   1.10987e-19
      312.730   1.16166e-19
      312.826   1.21511e-19
      312.922   1.27084e-19
      313.018   1.32896e-19
      313.115   1.39021e-19
      313.211   1.45343e-19
      313.307   1.51932e-19
      313.404   1.58871e-19
      313.500   1.66030e-19
      313.597   1.73566e-19
      313.693   1.81333e-19
      313.790   1.89516e-19
      313.886   1.97952e-19
      313.983   2.06833e-19
      314.079   2.15987e-19
      314.176   2.25614e-19
      314.273   2.35643e-19
      314.369   2.45977e-19
      314.466   2.56847e-19
      314.563   2.68163e-19
      314.660   2.79931e-19
      314.756   2.92063e-19
      314.853   3.04811e-19
      314.950   3.18077e-19
      315.047   3.31878e-19
      315.144   3.46240e-19
      315.241   3.61173e-19
      315.338   3.76709e-19
      315.435   3.92858e-19
      315.532   4.09649e-19
      315.629   4.27101e-19
      315.726   4.45246e-19
      315.823   4.64119e-19
      315.921   4.83915e-19
      316.018   5.04296e-19
      316.115   5.25471e-19
      316.212   5.47469e-19
      316.310   5.70553e-19
      316.407   5.94285e-19
      316.504   6.18945e-19
      316.602   6.44812e-19
      316.699   6.71402e-19
      316.796   6.98989e-19
      316.894   7.27934e-19
      316.991   7.57710e-19
      317.089   7.89153e-19
      317.187   8.21935e-19
      317.284   8.55611e-19
      317.382   8.90925e-19
      317.479   9.27218e-19
      317.577   9.65250e-19
      317.675   1.00471e-18
      317.773   1.04569e-18
      317.870   1.08776e-18
      317.968   1.13189e-18
      318.066   1.17765e-18
      318.164   1.22512e-18
      318.262   1.27435e-18
      318.360   1.32542e-18
      318.458   1.37838e-18
      318.556   1.43327e-18
      318.654   1.49018e-18
      318.752   1.54916e-18
      318.850   1.61030e-18
      318.948   1.67369e-18
      319.046   1.73938e-18
      319.144   1.80745e-18
      319.242   1.87795e-18
      319.341   1.95176e-18
      319.439   2.02743e-18
      319.537   2.10582e-18
      319.635   2.18700e-18
      319.734   2.27190e-18
      319.832   2.35895e-18
      319.930   2.44907e-18
      320.029   2.54332e-18
      320.127   2.63988e-18
      320.226   2.74089e-18
      320.324   2.84439e-18
      320.423   2.95257e-18
      320.522   3.06450e-18
      320.620   3.17911e-18
      320.719   3.29891e-18
      320.818   3.42287e-18
      320.916   3.54977e-18
      321.015   3.68240e-18
      321.114   3.81950e-18
      321.213   3.96132e-18
      321.311   4.10642e-18
      321.410   4.25788e-18
      321.509   4.41455e-18
      321.608   4.57638e-18
      321.707   4.74372e-18
      321.806   4.91669e-18
      321.905   5.09531e-18
      322.004   5.28004e-18
      322.103   5.49790e-18
      322.202   5.77106e-18
      322.301   6.07728e-18
      322.401   6.40184e-18
      322.500   6.73897e-18
      322.599   7.09240e-18
      322.698   7.46290e-18
      322.798   7.85554e-18
      322.897   8.26306e-18
      322.996   8.68985e-18
      323.096   9.14192e-18
      323.195   9.61066e-18
      323.294   1.01015e-17
      323.394   1.06206e-17
      323.493   1.11590e-17
      323.593   1.17284e-17
      323.692   1.23182e-17
      323.792   1.29418e-17
      323.892   1.35943e-17
      323.991   1.42704e-17
      324.091   1.49844e-17
      324.191   1.57317e-17
      324.291   1.65128e-17
      324.390   1.73208e-17
      324.490   1.81750e-17
      324.590   1.90668e-17
      324.690   1.99986e-17
      324.790   2.09726e-17
      324.890   2.19898e-17
      324.990   2.30529e-17
      325.090   2.41632e-17
      325.190   2.53213e-17
      325.290   2.65302e-17
      325.390   2.77929e-17
      325.490   2.91098e-17
      325.590   3.04834e-17
      325.690   3.19169e-17
      325.790   3.34116e-17
      325.891   3.49863e-17
      325.991   3.66117e-17
      326.091   3.83067e-17
      326.192   4.00910e-17
      326.292   4.19321e-17
      326.392   4.38495e-17
      326.493   4.58678e-17
      326.593   4.79494e-17
      326.694   5.01372e-17
      326.794   5.23941e-17
      326.895   5.47674e-17
      326.995   5.72137e-17
      327.096   5.97832e-17
      327.197   6.24585e-17
      327.297   6.52190e-17
      327.398   6.81280e-17
      327.499   7.11598e-17
      327.599   7.42836e-17
      327.700   7.75640e-17
      327.801   8.09739e-17
      327.902   8.45186e-17
      328.003   8.82058e-17
      328.104   9.20380e-17
      328.205   9.60204e-17
      328.306   1.00157e-16
      328.407   1.04454e-16
      328.508   1.08918e-16
      328.609   1.13553e-16
      328.710   1.18363e-16
      328.811   1.23359e-16
      328.912   1.28545e-16
      329.013   1.33925e-16
      329.115   1.39564e-16
      329.216   1.45359e-16
      329.317   1.51366e-16
      329.419   1.57658e-16
      329.520   1.64123e-16
      329.621   1.70824e-16
      329.723   1.77843e-16
      329.824   1.85036e-16
      329.926   1.92568e-16
      330.027   2.00300e-16
      330.129   2.08389e-16
      330.230   2.16680e-16
      330.332   2.25357e-16
      330.434   2.34339e-16
      330.535   2.43552e-16
      330.637   2.53180e-16
      330.739   2.63137e-16
      330.840   2.73345e-16
      330.942   2.84015e-16
      331.044   2.95051e-16
      331.146   3.06465e-16
      331.248   3.18271e-16
      331.350   3.30478e-16
      331.452   3.43108e-16
      331.554   3.56348e-16
      331.656   3.70359e-16
      331.758   3.84854e-16
      331.860   3.99863e-16
      331.962   4.15387e-16
      332.064   4.31445e-16
      332.166   4.48050e-16
      332.268   4.65230e-16
      332.371   4.83161e-16
      332.473   5.01524e-16
      332.575   5.19711e-16
      332.677   5.35823e-16
      332.780   5.50386e-16
      332.882   5.65150e-16
      332.985   5.80394e-16
      333.087   5.95847e-16
      333.190   6.11805e-16
      333.292   6.27778e-16
      333.395   6.43766e-16
      333.497   6.59729e-16
      333.600   6.76186e-16
      333.702   6.92818e-16
      333.805   7.09947e-16
      333.908   7.27456e-16
      334.011   7.45307e-16
      334.113   7.63338e-16
      334.216   7.81922e-16
      334.319   8.00876e-16
      334.422   8.20209e-16
      334.525   8.39932e-16
      334.628   8.60048e-16
      334.731   8.80545e-16
      334.834   9.01456e-16
      334.937   9.22783e-16
      335.040   9.44529e-16
      335.143   9.66673e-16
      335.246   9.89254e-16
      335.349   1.01226e-15
      335.452   1.03570e-15
      335.555   1.05958e-15
      335.659   1.08416e-15
      335.762   1.10898e-15
      335.865   1.13423e-15
      335.969   1.16021e-15
      336.072   1.18643e-15
      336.175   1.21310e-15
      336.279   1.24052e-15
      336.382   1.26819e-15
      336.486   1.29664e-15
      336.589   1.32530e-15
      336.693   1.35477e-15
      336.796   1.38445e-15
      336.900   1.41499e-15
      337.004   1.44608e-15
      337.107   1.47735e-15
      337.211   1.50952e-15
      337.315   1.54223e-15
      337.419   1.57552e-15
      337.523   1.60936e-15
      337.626   1.64345e-15
      337.730   1.67847e-15
      337.834   1.71406e-15
      337.938   1.75018e-15
      338.042   1.78667e-15
      338.146   1.82372e-15
      338.250   1.86138e-15
      338.354   1.89967e-15
      338.458   1.93858e-15
      338.562   1.97812e-15
      338.667   2.01868e-15
      338.771   2.05951e-15
      338.875   2.10096e-15
      338.979   2.14309e-15
      339.084   2.18627e-15
      339.188   2.22969e-15
      339.292   2.27383e-15
      339.397   2.31908e-15
      339.501   2.36458e-15
      339.606   2.41126e-15
      339.710   2.45815e-15
      339.815   2.50625e-15
      339.919   2.55457e-15
      340.024   2.60413e-15
      340.128   2.65389e-15
      340.233   2.70495e-15
      340.338   2.75671e-15
      340.442   2.80875e-15
      340.547   2.86205e-15
      340.652   2.91615e-15
      340.757   2.97101e-15
      340.862   3.02668e-15
      340.966   3.08259e-15
      341.071   3.13980e-15
      341.176   3.19786e-15
      341.281   3.25674e-15
      341.386   3.31644e-15
      341.491   3.37699e-15
      341.596   3.43837e-15
      341.702   3.50122e-15
      341.807   3.56426e-15
      341.912   3.62821e-15
      342.017   3.69305e-15
      342.122   3.75874e-15
      342.228   3.82590e-15
      342.333   3.89336e-15
      342.438   3.96174e-15
      342.544   4.03163e-15
      342.649   4.10178e-15
      342.754   4.17284e-15
      342.860   4.24551e-15
      342.965   4.31849e-15
      343.071   4.39299e-15
      343.176   4.46782e-15
      343.282   4.54434e-15
      343.388   4.62179e-15
      343.493   4.69996e-15
      343.599   4.78396e-15
      343.705   4.86959e-15
      343.810   4.95550e-15
      343.916   5.04339e-15
      344.022   5.13254e-15
      344.128   5.22283e-15
      344.234   5.31441e-15
      344.340   5.40715e-15
      344.446   5.50114e-15
      344.552   5.59639e-15
      344.658   5.69298e-15
      344.764   5.79064e-15
      344.870   5.88975e-15
      344.976   5.99001e-15
      345.082   6.09165e-15
      345.188   6.19456e-15
      345.294   6.29882e-15
      345.401   6.40541e-15
      345.507   6.51231e-15
      345.613   6.62053e-15
      345.719   6.73015e-15
      345.826   6.84221e-15
      345.932   6.95457e-15
      346.039   7.06939e-15
      346.145   7.18455e-15
      346.252   7.30220e-15
      346.358   7.42018e-15
      346.465   7.54061e-15
      346.571   7.66149e-15
      346.678   7.78491e-15
      346.785   7.90988e-15
      346.891   8.03502e-15
      346.998   8.16280e-15
      347.105   8.29218e-15
      347.212   8.42312e-15
      347.319   8.55557e-15
      347.425   8.68824e-15
      347.532   8.82377e-15
      347.639   8.96076e-15
      347.746   9.09934e-15
      347.853   9.23967e-15
      347.960   9.38135e-15
      348.067   9.52475e-15
      348.174   9.66965e-15
      348.281   9.81611e-15
      348.389   9.96573e-15
      348.496   1.01154e-14
      348.603   1.02669e-14
      348.710   1.04198e-14
      348.818   1.05761e-14
      348.925   1.07314e-14
      349.032   1.08349e-14
      349.140   1.08103e-14
      349.247   1.07858e-14
      349.355   1.07611e-14
      349.462   1.07366e-14
      349.570   1.07119e-14
      349.677   1.06874e-14
      349.785   1.06626e-14
      349.892   1.06380e-14
      350.000   1.06133e-14
      350.100   1.05904e-14
      350.193   1.05691e-14
      350.287   1.05476e-14
      350.380   1.05262e-14
      350.473   1.05049e-14
      350.567   1.04833e-14
      350.660   1.04620e-14
      350.754   1.04405e-14
      350.847   1.04192e-14
      350.941   1.03976e-14
      351.034   1.03763e-14
      351.128   1.03548e-14
      351.221   1.03334e-14
      351.315   1.03119e-14
      351.409   1.02904e-14
      351.502   1.02690e-14
      351.596   1.02475e-14
      351.690   1.02259e-14
      351.783   1.02047e-14
      351.877   1.01832e-14
      351.971   1.01616e-14
      352.065   1.01401e-14
      352.159   1.01186e-14
      352.252   1.00974e-14
      352.346   1.00758e-14
      352.440   1.00543e-14
      352.534   1.00328e-14
      352.628   1.00114e-14
      352.722   9.98987e-15
      352.816   9.96841e-15
      352.910   9.94691e-15
      353.004   9.92548e-15
      353.098   9.90399e-15
      353.192   9.88252e-15
      353.287   9.86082e-15
      353.381   9.83937e-15
      353.475   9.81799e-15
      353.569   9.79650e-15
      353.663   9.77503e-15
      353.758   9.75343e-15
      353.852   9.73202e-15
      353.946   9.71060e-15
      354.041   9.68895e-15
      354.135   9.66755e-15
      354.229   9.64609e-15
      354.324   9.62453e-15
      354.418   9.60306e-15
      354.513   9.58142e-15
      354.607   9.56009e-15
      354.702   9.52377e-15
      354.796   9.47862e-15
      354.891   9.43232e-15
      354.985   9.38674e-15
      355.080   9.34087e-15
      355.175   9.29520e-15
      355.269   9.25019e-15
      355.364   9.20492e-15
      355.459   9.15987e-15
      355.553   9.11550e-15
      355.648   9.07083e-15
      355.743   9.02638e-15
      355.838   8.98206e-15
      355.933   8.93803e-15
      356.027   8.89460e-15
      356.122   8.85091e-15
      356.217   8.80739e-15
      356.312   8.76411e-15
      356.407   8.72097e-15
      356.502   8.67803e-15
      356.597   8.63527e-15
      356.692   8.59273e-15
      356.787   8.55037e-15
      356.882   8.50814e-15
      356.977   8.46616e-15
      357.073   8.42389e-15
      357.168   8.38219e-15
      357.263   8.34071e-15
      357.358   8.29943e-15
      357.453   8.25832e-15
      357.549   8.21695e-15
      357.644   8.17619e-15
      357.739   8.13561e-15
      357.835   8.09476e-15
      357.930   8.05449e-15
      358.025   8.01441e-15
      358.121   7.97406e-15
      358.216   7.93431e-15
      358.312   7.89432e-15
      358.407   7.85490e-15
      358.503   7.81525e-15
      358.598   7.77619e-15
      358.694   7.73684e-15
      358.790   7.69768e-15
      358.885   7.65906e-15
      358.981   7.62024e-15
      359.076   7.58193e-15
      359.172   7.54345e-15
      359.268   7.50504e-15
      359.364   7.46683e-15
      359.459   7.42921e-15
      359.555   7.39133e-15
      359.651   7.35356e-15
      359.747   7.31596e-15
      359.843   7.27853e-15
      359.939   7.24124e-15
      360.035   7.20414e-15
      360.131   7.16716e-15
      360.227   7.13032e-15
      360.323   7.09366e-15
      360.419   7.09798e-15
      360.515   7.13856e-15
      360.611   7.18615e-15
      360.707   7.23387e-15
      360.803   7.28156e-15
      360.899   7.32941e-15
      360.995   7.37736e-15
      361.092   7.42585e-15
      361.188   7.47395e-15
      361.284   7.52209e-15
      361.380   7.57031e-15
      361.477   7.61911e-15
      361.573   7.66749e-15
      361.669   7.71587e-15
      361.766   7.76482e-15
      361.862   7.81331e-15
      361.959   7.86236e-15
      362.055   7.91098e-15
      362.152   7.96013e-15
      362.248   8.00881e-15
      362.345   8.05806e-15
      362.441   8.10683e-15
      362.538   8.15611e-15
      362.635   8.20544e-15
      362.731   8.25427e-15
      362.828   8.30359e-15
      362.925   8.35296e-15
      363.021   8.40190e-15
      363.118   8.45129e-15
      363.215   8.50071e-15
      363.312   8.55012e-15
      363.409   8.59955e-15
      363.505   8.64841e-15
      363.602   8.69788e-15
      363.699   8.74733e-15
      363.796   8.79670e-15
      363.893   8.84605e-15
      363.990   8.89538e-15
      364.087   8.94471e-15
      364.184   8.99400e-15
      364.281   9.04329e-15
      364.378   9.09258e-15
      364.475   9.14176e-15
      364.573   9.19143e-15
      364.670   9.24052e-15
      364.767   9.28958e-15
      364.864   9.33863e-15
      364.961   9.38754e-15
      365.059   9.43694e-15
      365.156   9.48576e-15
      365.253   9.53455e-15
      365.351   9.58374e-15
      365.448   9.63236e-15
      365.545   9.68094e-15
      365.643   9.72991e-15
      365.740   9.77828e-15
      365.838   9.82709e-15
      365.935   9.87523e-15
      366.033   9.92386e-15
      366.130   9.97187e-15
      366.228   1.00388e-14
      366.326   1.01317e-14
      366.423   1.02324e-14
      366.521   1.03346e-14
      366.618   1.04362e-14
      366.716   1.05392e-14
      366.814   1.06427e-14
      366.912   1.07466e-14
      367.010   1.08511e-14
      367.107   1.09548e-14
      367.205   1.10601e-14
      367.303   1.11657e-14
      367.401   1.12717e-14
      367.499   1.13782e-14
      367.597   1.14851e-14
      367.695   1.15922e-14
      367.793   1.16998e-14
      367.891   1.18077e-14
      367.989   1.19162e-14
      368.087   1.20249e-14
      368.185   1.21339e-14
      368.283   1.22434e-14
      368.381   1.23532e-14
      368.480   1.24643e-14
      368.578   1.25748e-14
      368.676   1.26855e-14
      368.774   1.27965e-14
      368.873   1.29090e-14
      368.971   1.30206e-14
      369.069   1.31326e-14
      369.168   1.32460e-14
      369.266   1.33584e-14
      369.364   1.34711e-14
      369.463   1.35854e-14
      369.561   1.36986e-14
      369.660   1.38132e-14
      369.758   1.39269e-14
      369.857   1.40420e-14
      369.955   1.41562e-14
      370.054   1.42717e-14
      370.153   1.43874e-14
      370.251   1.45021e-14
      370.350   1.46183e-14
      370.449   1.47345e-14
      370.547   1.48497e-14
      370.646   1.49664e-14
      370.745   1.50831e-14
      370.844   1.52000e-14
      370.943   1.53170e-14
      371.041   1.54330e-14
      371.140   1.55502e-14
      371.239   1.56676e-14
      371.338   1.57851e-14
      371.437   1.59027e-14
      371.536   1.60201e-14
      371.635   1.61379e-14
      371.734   1.62556e-14
      371.833   1.63734e-14
      371.932   1.64913e-14
      372.032   1.66104e-14
      372.131   1.68443e-14
      372.230   1.73264e-14
      372.329   1.79461e-14
      372.428   1.85831e-14
      372.528   1.92442e-14
      372.627   1.99167e-14
      372.726   2.06074e-14
      372.826   2.13243e-14
      372.925   2.20531e-14
      373.024   2.28010e-14
      373.124   2.35763e-14
      373.223   2.43630e-14
      373.323   2.51787e-14
      373.422   2.60070e-14
      373.522   2.68644e-14
      373.621   2.77337e-14
      373.721   2.86343e-14
      373.820   2.95469e-14
      373.920   3.04910e-14
      374.020   3.14587e-14
      374.119   3.24378e-14
      374.219   3.34511e-14
      374.319   3.44873e-14
      374.419   3.55466e-14
      374.518   3.66197e-14
      374.618   3.77278e-14
      374.718   3.88611e-14
      374.818   4.00176e-14
      374.918   4.11991e-14
      375.018   4.24073e-14
      375.118   4.36400e-14
      375.218   4.48992e-14
      375.318   4.61844e-14
      375.418   4.74963e-14
      375.518   4.88336e-14
      375.618   5.01975e-14
      375.718   5.15886e-14
      375.818   5.30066e-14
      375.918   5.44521e-14
      376.019   5.59399e-14
      376.119   5.74416e-14
      376.219   5.89696e-14
      376.319   6.05269e-14
      376.420   6.21274e-14
      376.520   6.37403e-14
      376.620   6.53814e-14
      376.721   6.70688e-14
      376.821   6.87674e-14
      376.922   7.05264e-14
      377.022   7.24769e-14
      377.122   7.46641e-14
      377.223   7.69208e-14
      377.323   7.92011e-14
      377.424   8.15536e-14
      377.525   8.39524e-14
      377.625   8.63743e-14
      377.726   8.88690e-14
      377.827   9.14135e-14
      377.927   9.39814e-14
      378.028   9.66224e-14
      378.129   9.93144e-14
      378.230   1.02057e-13
      378.330   1.04820e-13
      378.431   1.07661e-13
      378.532   1.10551e-13
      378.633   1.13493e-13
      378.734   1.16486e-13
      378.835   1.19528e-13
      378.936   1.22621e-13
      379.037   1.25763e-13
      379.138   1.28956e-13
      379.239   1.32201e-13
      379.340   1.35495e-13
      379.441   1.38841e-13
      379.542   1.42236e-13
      379.643   1.45681e-13
      379.745   1.49212e-13
      379.846   1.52760e-13
      379.947   1.56354e-13
      380.048   1.59999e-13
      380.150   1.63732e-13
      380.251   1.67477e-13
      380.352   1.71269e-13
      380.454   1.75148e-13
      380.555   1.79038e-13
      380.656   1.82976e-13
      380.758   1.87002e-13
      380.859   1.91034e-13
      380.961   1.95153e-13
      381.062   1.99278e-13
      381.164   2.03493e-13
      381.266   2.07752e-13
      381.367   2.12016e-13
      381.469   2.16366e-13
      381.570   2.20716e-13
      381.672   2.25152e-13
      381.774   2.29636e-13
      381.876   2.34159e-13
      381.977   2.38742e-13
      382.079   2.43621e-13
      382.181   2.48725e-13
      382.283   2.53879e-13
      382.385   2.59087e-13
      382.487   2.64349e-13
      382.589   2.69654e-13
      382.691   2.75008e-13
      382.793   2.80411e-13
      382.895   2.85864e-13
      382.997   2.91362e-13
      383.099   2.96905e-13
      383.201   3.02490e-13
      383.303   3.08124e-13
      383.405   3.13796e-13
      383.507   3.19505e-13
      383.610   3.25315e-13
      383.712   3.31111e-13
      383.814   3.36939e-13
      383.916   3.42806e-13
      384.019   3.48767e-13
      384.121   3.54708e-13
      384.223   3.60676e-13
      384.326   3.66740e-13
      384.428   3.72768e-13
      384.531   3.78884e-13
      384.633   3.84972e-13
      384.736   3.91147e-13
      384.838   3.97287e-13
      384.941   4.03513e-13
      385.043   4.09702e-13
      385.146   4.15976e-13
      385.249   4.22269e-13
      385.351   4.28523e-13
      385.454   4.34860e-13
      385.557   4.41209e-13
      385.660   4.47582e-13
      385.762   4.53902e-13
      385.865   4.60299e-13
      385.968   4.66711e-13
      386.071   4.73136e-13
      386.174   4.79571e-13
      386.277   4.86010e-13
      386.380   4.92457e-13
      386.483   4.98912e-13
      386.586   5.05371e-13
      386.689   5.11835e-13
      386.792   5.18301e-13
      386.895   5.24767e-13
      386.998   5.31233e-13
      387.101   5.35253e-13
      387.204   5.30860e-13
      387.308   5.23628e-13
      387.411   5.16563e-13
      387.514   5.09594e-13
      387.617   5.02723e-13
      387.721   4.95880e-13
      387.824   4.89194e-13
      387.927   4.82595e-13
      388.031   4.76026e-13
      388.134   4.69612e-13
      388.238   4.63225e-13
      388.341   4.56980e-13
      388.445   4.50763e-13
      388.548   4.44686e-13
      388.652   4.38638e-13
      388.755   4.32729e-13
      388.859   4.26842e-13
      388.962   4.21091e-13
      389.066   4.15360e-13
      389.170   4.09713e-13
      389.274   4.04139e-13
      389.377   3.98692e-13
      389.481   3.93264e-13
      389.585   3.87915e-13
      389.689   3.82636e-13
      389.793   3.77426e-13
      389.897   3.72292e-13
      390.000   3.67271e-13
      390.104   3.62273e-13
      390.208   3.57339e-13
      390.312   3.52474e-13
      390.416   3.47672e-13
      390.520   3.42930e-13
      390.625   3.38206e-13
      390.729   3.33596e-13
      390.833   3.29045e-13
      390.937   3.24556e-13
      391.041   3.20130e-13
      391.145   3.15762e-13
      391.250   3.11411e-13
      391.354   3.07159e-13
      391.458   3.02961e-13
      391.563   2.98781e-13
      391.667   2.94699e-13
      391.771   2.90673e-13
      391.876   2.86662e-13
      391.980   2.82744e-13
      392.085   2.78843e-13
      392.189   2.75033e-13
      392.294   2.71238e-13
      392.398   2.67533e-13
      392.503   2.63842e-13
      392.607   2.60237e-13
      392.712   2.56649e-13
      392.817   2.53107e-13
      392.921   2.49651e-13
      393.026   2.46207e-13
      393.131   2.42813e-13
      393.236   2.39462e-13
      393.340   2.36191e-13
      393.445   2.32936e-13
      393.550   2.29724e-13
      393.655   2.26556e-13
      393.760   2.23433e-13
      393.865   2.20352e-13
      393.970   2.17317e-13
      394.075   2.14320e-13
      394.180   2.11367e-13
      394.285   2.08454e-13
      394.390   2.05582e-13
      394.495   2.02748e-13
      394.600   1.99955e-13
      394.706   1.97175e-13
      394.811   1.94459e-13
      394.916   1.91779e-13
      395.021   1.89137e-13
      395.126   1.86534e-13
      395.232   1.83940e-13
      395.337   1.81407e-13
      395.443   1.78886e-13
      395.548   1.76423e-13
      395.653   1.73995e-13
      395.759   1.71577e-13
      395.864   1.69216e-13
      395.970   1.66865e-13
      396.075   1.64569e-13
      396.181   1.62283e-13
      396.286   1.60049e-13
      396.392   1.57828e-13
      396.498   1.55637e-13
      396.603   1.53495e-13
      396.709   1.51364e-13
      396.815   1.49262e-13
      396.921   1.47188e-13
      397.026   1.45165e-13
      397.132   1.43149e-13
      397.238   1.41162e-13
      397.344   1.39201e-13
      397.450   1.37271e-13
      397.556   1.35364e-13
      397.662   1.33484e-13
      397.768   1.31631e-13
      397.874   1.29803e-13
      397.980   1.27999e-13
      398.086   1.26221e-13
      398.192   1.24468e-13
      398.298   1.22738e-13
      398.404   1.21033e-13
      398.510   1.19351e-13
      398.617   1.17678e-13
      398.723   1.16043e-13
      398.829   1.14430e-13
      398.935   1.12839e-13
      399.042   1.11257e-13
      399.148   1.09709e-13
      399.255   1.08170e-13
      399.361   1.06667e-13
      399.467   1.05182e-13
      399.574   1.03706e-13
      399.680   1.02263e-13
      399.787   1.00827e-13
      399.893       0.00000
      400.000       0.00000
