Filter Ti-poly
observation_date 22-Sept-2020 22:45:45
wavelength effective area
      1.00000   2.76776e-10
      1.10000   7.88639e-10
      1.20000   2.04569e-09
      1.30000   4.87934e-09
      1.40000   1.10400e-08
      1.50000   2.34773e-08
      1.60000   4.73588e-08
      1.70000   9.15818e-08
      1.80000   1.69777e-07
      1.90000   3.03741e-07
      2.00000   5.25452e-07
      2.10000   8.82856e-07
      2.20000   1.44762e-06
      2.30000   2.31337e-06
      2.40000   3.60951e-06
      2.50000   5.78532e-06
      2.60000   8.95656e-06
      2.70000   1.33530e-05
      2.80000   1.95268e-05
      2.90000   2.82618e-05
      3.00000   4.02664e-05
      3.10000   5.66333e-05
      3.20000   7.87838e-05
      3.30000   0.000108484
      3.40000   0.000147826
      3.50000   0.000199489
      3.60000   0.000267970
      3.70000   0.000356141
      3.80000   0.000471369
      3.90000   0.000620425
      4.00000   0.000811541
      4.10000    0.00105663
      4.20000    0.00137082
      4.30000    0.00177342
      4.40000    0.00228818
      4.50000    0.00294426
      4.60000    0.00377581
      4.70000    0.00484209
      4.80000    0.00620323
      4.90000    0.00784490
      5.00000     0.0101824
      5.10000     0.0130302
      5.20000     0.0167241
      5.30000     0.0212839
      5.40000     0.0270436
      5.50000     0.0344226
      5.60000     0.0424713
      5.70000     0.0552072
      5.80000     0.0647218
      5.90000     0.0988193
      6.00000      0.132836
      6.10000      0.169775
      6.20000      0.208479
      6.30000      0.245393
      6.40000      0.277066
      6.50000      0.300381
      6.60000      0.310925
      6.70000      0.320617
      6.80000      0.321041
      6.90000      0.421178
      7.00000      0.458021
      7.10000      0.484387
      7.20000      0.505325
      7.30000      0.522395
      7.40000      0.535417
      7.50000      0.545772
      7.60000      0.553571
      7.70000      0.557349
      7.80000      0.556026
      7.90000      0.555364
      8.00000      0.802908
      8.10000      0.878619
      8.20000      0.892550
      8.30000      0.902395
      8.40000      0.908762
      8.50000      0.913681
      8.60000      0.916871
      8.70000      0.918935
      8.80000      0.919573
      8.90000      0.919248
      9.00000      0.917898
      9.10000      0.915571
      9.20000      0.912450
      9.30000      0.908457
      9.40000      0.903735
      9.50000      0.898342
      9.60000      0.892232
      9.70000      0.885511
      9.80000      0.878327
      9.90000      0.870710
      10.0000      0.862719
      10.1000      0.854366
      10.2000      0.845675
      10.3000      0.836594
      10.4000      0.827149
      10.5000      0.817364
      10.6000      0.807280
      10.7000      0.796921
      10.8000      0.786296
      10.9000      0.775438
      11.0000      0.764359
      11.1000      0.753096
      11.2000      0.741652
      11.3000      0.730061
      11.4000      0.718318
      11.5000      0.706425
      11.6000      0.694401
      11.7000      0.682194
      11.8000      0.669885
      11.9000      0.657394
      12.0000      0.644042
      12.1000      0.633037
      12.2000      0.633116
      12.3000      0.626500
      12.4000      0.615255
      12.5000      0.603628
      12.6000      0.591867
      12.7000      0.580070
      12.8000      0.568274
      12.9000      0.556491
      13.0000      0.544762
      13.1000      0.533119
      13.2000      0.521576
      13.3000      0.510148
      13.4000      0.498853
      13.5000      0.487819
      13.6000      0.477022
      13.7000      0.466353
      13.8000      0.455804
      13.9000      0.445398
      14.0000      0.435130
      14.1000      0.424988
      14.2000      0.414972
      14.3000      0.405081
      14.4000      0.395303
      14.5000      0.385653
      14.6000      0.376131
      14.7000      0.366729
      14.8000      0.357452
      14.9000      0.348301
      15.0000      0.339280
      15.1000      0.330395
      15.2000      0.321671
      15.3000      0.313091
      15.4000      0.304649
      15.5000      0.296349
      15.6000      0.288207
      15.7000      0.280220
      15.8000      0.272426
      15.9000      0.264795
      16.0000      0.257324
      16.1000      0.250017
      16.2000      0.242910
      16.3000      0.235954
      16.4000      0.229136
      16.5000      0.222452
      16.6000      0.215914
      16.7000      0.209527
      16.8000      0.203263
      16.9000      0.197120
      17.0000      0.191122
      17.1000      0.185266
      17.2000      0.179523
      17.3000      0.173901
      17.4000      0.168523
      17.5000      0.163355
      17.6000      0.158368
      17.7000      0.153590
      17.8000      0.149110
      17.9000      0.144729
      18.0000      0.140415
      18.1000      0.136214
      18.2000      0.132053
      18.3000      0.127924
      18.4000      0.123820
      18.5000      0.119750
      18.6000      0.115700
      18.7000      0.111656
      18.8000      0.107723
      18.9000      0.103872
      19.0000      0.100138
      19.1000     0.0965255
      19.2000     0.0930011
      19.3000     0.0896177
      19.4000     0.0863474
      19.5000     0.0831622
      19.6000     0.0801381
      19.7000     0.0771981
      19.8000     0.0743342
      19.9000     0.0716119
      20.0000     0.0689483
      20.1000     0.0663649
      20.2000     0.0638689
      20.3000     0.0614236
      20.4000     0.0590738
      20.5000     0.0567821
      20.6000     0.0545431
      20.7000     0.0523965
      20.8000     0.0502904
      20.9000     0.0482566
      21.0000     0.0463771
      21.1000     0.0446164
      21.2000     0.0432093
      21.3000     0.0419043
      21.4000     0.0408194
      21.5000     0.0399827
      21.6000     0.0393959
      21.7000     0.0387805
      21.8000     0.0381551
      21.9000     0.0374500
      22.0000     0.0366964
      22.1000     0.0358232
      22.2000     0.0347367
      22.3000     0.0334666
      22.4000     0.0315219
      22.5000     0.0293726
      22.6000     0.0247364
      22.7000     0.0218791
      22.8000     0.0280586
      22.9000     0.0358299
      23.0000     0.0449212
      23.1000     0.0504354
      23.2000     0.0525526
      23.3000     0.0523754
      23.4000     0.0510444
      23.5000     0.0496829
      23.6000     0.0483191
      23.7000     0.0468721
      23.8000     0.0454263
      23.9000     0.0440186
      24.0000     0.0426199
      24.1000     0.0412423
      24.2000     0.0398816
      24.3000     0.0385664
      24.4000     0.0372691
      24.5000     0.0360094
      24.6000     0.0347730
      24.7000     0.0335797
      24.8000     0.0324096
      24.9000     0.0312781
      25.0000     0.0301716
      25.1000     0.0291048
      25.2000     0.0280614
      25.3000     0.0270553
      25.4000     0.0260720
      25.5000     0.0251277
      25.6000     0.0242041
      25.7000     0.0233199
      25.8000     0.0224526
      25.9000     0.0216250
      26.0000     0.0208104
      26.1000     0.0200359
      26.2000     0.0192703
      26.3000     0.0185477
      26.4000     0.0178294
      26.5000     0.0171549
      26.6000     0.0164841
      26.7000     0.0158524
      26.8000     0.0152291
      26.9000     0.0146363
      27.0000     0.0140551
      27.1000     0.0134959
      27.2000     0.0129517
      27.3000     0.0558329
      27.4000      0.152761
      27.5000      0.223272
      27.6000      0.219592
      27.7000      0.215925
      27.8000      0.212182
      27.9000      0.208457
      28.0000      0.204803
      28.1000      0.201178
      28.2000      0.197612
      28.3000      0.194090
      28.4000      0.190611
      28.5000      0.187195
      28.6000      0.183804
      28.7000      0.180520
      28.8000      0.177254
      28.9000      0.174055
      29.0000      0.170886
      29.1000      0.167762
      29.2000      0.164686
      29.3000      0.161635
      29.4000      0.158655
      29.5000      0.155691
      29.6000      0.152792
      29.7000      0.149922
      29.8000      0.147093
      29.9000      0.144316
      30.0000      0.141557
      30.1000      0.138870
      30.2000      0.136199
      30.3000      0.138830
      30.4000      0.144468
      30.5000      0.148308
      30.6000      0.145585
      30.7000      0.142877
      30.8000      0.140230
      30.9000      0.137612
      31.0000      0.135029
      31.1000      0.132504
      31.2000      0.129993
      31.3000      0.127545
      31.4000      0.125122
      31.5000      0.122735
      31.6000      0.120411
      31.7000      0.118099
      31.8000      0.115842
      31.9000      0.113609
      32.0000      0.111386
      32.1000      0.109171
      32.2000      0.106969
      32.3000      0.104821
      32.4000      0.102704
      32.5000      0.100608
      32.6000     0.0985962
      32.7000     0.0965980
      32.8000     0.0946408
      32.9000     0.0927222
      33.0000     0.0908146
      33.1000     0.0890176
      33.2000     0.0872467
      33.3000     0.0854992
      33.4000     0.0837987
      33.5000     0.0821090
      33.6000     0.0804596
      33.7000     0.0788409
      33.8000     0.0772312
      33.9000     0.0756746
      34.0000     0.0741327
      34.1000     0.0726181
      34.2000     0.0711466
      34.3000     0.0696829
      34.4000     0.0682477
      34.5000     0.0668468
      34.6000     0.0654533
      34.7000     0.0640914
      34.8000     0.0627480
      34.9000     0.0614119
      35.0000     0.0601246
      35.1000     0.0588486
      35.2000     0.0575879
      35.3000     0.0564031
      35.4000     0.0552246
      35.5000     0.0540643
      35.6000     0.0529392
      35.7000     0.0518201
      35.8000     0.0507247
      35.9000     0.0496572
      36.0000     0.0485954
      36.1000     0.0475617
      36.2000     0.0465498
      36.3000     0.0455434
      36.4000     0.0445679
      36.5000     0.0436092
      36.6000     0.0426558
      36.7000     0.0417357
      36.8000     0.0408287
      36.9000     0.0399268
      37.0000     0.0390592
      37.1000     0.0382018
      37.2000     0.0373492
      37.3000     0.0365313
      37.4000     0.0357218
      37.5000     0.0349169
      37.6000     0.0341457
      37.7000     0.0333820
      37.8000     0.0326226
      37.9000     0.0318957
      38.0000     0.0311762
      38.1000     0.0304608
      38.2000     0.0297754
      38.3000     0.0290981
      38.4000     0.0284245
      38.5000     0.0277783
      38.6000     0.0271414
      38.7000     0.0265081
      38.8000     0.0258987
      38.9000     0.0253005
      39.0000     0.0247056
      39.1000     0.0241310
      39.2000     0.0235697
      39.3000     0.0230117
      39.4000     0.0224695
      39.5000     0.0219435
      39.6000     0.0214204
      39.7000     0.0209089
      39.8000     0.0204166
      39.9000     0.0199271
      40.0000     0.0194445
      40.1000     0.0189849
      40.2000     0.0185279
      40.3000     0.0180737
      40.4000     0.0176434
      40.5000     0.0172167
      40.6000     0.0167924
      40.7000     0.0163861
      40.8000     0.0159881
      40.9000     0.0155923
      41.0000     0.0152084
      41.1000     0.0148374
      41.2000     0.0144687
      41.3000     0.0141059
      41.4000     0.0137612
      41.5000     0.0134185
      41.6000     0.0130778
      41.7000     0.0127551
      41.8000     0.0124365
      41.9000     0.0121199
      42.0000     0.0118148
      42.1000     0.0115193
      42.2000     0.0112257
      42.3000     0.0109366
      42.4000     0.0106628
      42.5000     0.0103905
      42.6000     0.0101199
      42.7000    0.00986297
      42.8000    0.00961078
      42.9000    0.00936005
      43.0000    0.00911629
      43.1000    0.00888312
      43.2000    0.00865135
      43.3000    0.00842094
      43.4000     0.0256830
      43.5000     0.0469829
      43.6000     0.0739010
      43.7000     0.0970040
      43.8000      0.106609
      43.9000      0.107753
      44.0000      0.105760
      44.1000      0.100822
      44.2000     0.0991662
      44.3000     0.0977990
      44.4000     0.0964527
      44.5000     0.0951330
      44.6000     0.0938167
      44.7000     0.0925038
      44.8000     0.0912328
      44.9000     0.0899707
      45.0000     0.0887117
      45.1000     0.0874675
      45.2000     0.0862544
      45.3000     0.0850445
      45.4000     0.0838376
      45.5000     0.0826604
      45.6000     0.0814986
      45.7000     0.0803399
      45.8000     0.0791855
      45.9000     0.0780705
      46.0000     0.0769582
      46.1000     0.0758488
      46.2000     0.0747893
      46.3000     0.0738134
      46.4000     0.0728401
      46.5000     0.0718692
      46.6000     0.0709334
      46.7000     0.0700164
      46.8000     0.0691017
      46.9000     0.0681893
      47.0000     0.0673251
      47.1000     0.0664662
      47.2000     0.0656095
      47.3000     0.0647604
      47.4000     0.0639393
      47.5000     0.0631202
      47.6000     0.0623031
      47.7000     0.0615018
      47.8000     0.0607241
      47.9000     0.0599484
      48.0000     0.0591746
      48.1000     0.0584182
      48.2000     0.0576756
      48.3000     0.0569348
      48.4000     0.0561959
      48.5000     0.0554836
      48.6000     0.0547829
      48.7000     0.0540840
      48.8000     0.0533868
      48.9000     0.0527129
      49.0000     0.0520448
      49.1000     0.0513785
      49.2000     0.0507139
      49.3000     0.0500719
      49.4000     0.0494332
      49.5000     0.0487960
      49.6000     0.0481604
      49.7000     0.0475475
      49.8000     0.0469366
      49.9000     0.0463272
      50.0000     0.0457199
      50.1000     0.0451315
      50.2000     0.0445566
      50.3000     0.0439885
      50.4000     0.0434266
      50.5000     0.0428707
      50.6000     0.0423214
      50.7000     0.0417787
      50.8000     0.0412421
      50.9000     0.0407121
      51.0000     0.0401885
      51.1000     0.0396714
      51.2000     0.0391600
      51.3000     0.0386555
      51.4000     0.0381575
      51.5000     0.0376640
      51.6000     0.0371757
      51.7000     0.0366925
      51.8000     0.0362098
      51.9000     0.0357324
      52.0000     0.0352599
      52.1000     0.0347931
      52.2000     0.0343313
      52.3000     0.0338743
      52.4000     0.0334241
      52.5000     0.0329791
      52.6000     0.0325288
      52.7000     0.0320733
      52.8000     0.0316228
      52.9000     0.0311786
      53.0000     0.0307403
      53.1000     0.0303067
      53.2000     0.0298791
      53.3000     0.0294567
      53.4000     0.0290388
      53.5000     0.0286266
      53.6000     0.0282194
      53.7000     0.0278168
      53.8000     0.0274193
      53.9000     0.0270267
      54.0000     0.0266394
      54.1000     0.0262581
      54.2000     0.0258811
      54.3000     0.0255080
      54.4000     0.0251398
      54.5000     0.0247760
      54.6000     0.0244170
      54.7000     0.0240636
      54.8000     0.0237149
      54.9000     0.0233701
      55.0000     0.0230298
      55.1000     0.0226931
      55.2000     0.0223504
      55.3000     0.0220037
      55.4000     0.0216616
      55.5000     0.0213236
      55.6000     0.0209903
      55.7000     0.0206616
      55.8000     0.0203370
      55.9000     0.0200173
      56.0000     0.0197051
      56.1000     0.0193933
      56.2000     0.0190822
      56.3000     0.0187757
      56.4000     0.0184731
      56.5000     0.0181748
      56.6000     0.0178810
      56.7000     0.0175915
      56.8000     0.0173058
      56.9000     0.0170247
      57.0000     0.0167544
      57.1000     0.0164922
      57.2000     0.0162335
      57.3000     0.0159783
      57.4000     0.0157265
      57.5000     0.0154781
      57.6000     0.0152331
      57.7000     0.0149914
      57.8000     0.0147536
      57.9000     0.0145196
      58.0000     0.0142887
      58.1000     0.0140605
      58.2000     0.0138357
      58.3000     0.0136140
      58.4000     0.0133954
      58.5000     0.0131800
      58.6000     0.0129680
      58.7000     0.0127590
      58.8000     0.0125528
      58.9000     0.0123494
      59.0000     0.0121490
      59.1000     0.0119514
      59.2000     0.0117568
      59.3000     0.0115651
      59.4000     0.0113763
      59.5000     0.0111901
      59.6000     0.0110068
      59.7000     0.0108260
      59.8000     0.0106476
      59.9000     0.0104719
      60.0000     0.0102990
      60.1000     0.0101287
      60.2000    0.00996075
      60.3000    0.00979539
      60.4000    0.00963257
      60.5000    0.00947229
      60.6000    0.00931414
      60.7000    0.00915813
      60.8000    0.00900434
      60.9000    0.00885265
      61.0000    0.00870338
      61.1000    0.00855657
      61.2000    0.00841200
      61.3000    0.00826957
      61.4000    0.00812931
      61.5000    0.00799119
      61.6000    0.00785504
      61.7000    0.00772135
      61.8000    0.00759201
      61.9000    0.00746545
      62.0000    0.00734077
      62.1000    0.00721794
      62.2000    0.00709716
      62.3000    0.00697820
      62.4000    0.00686092
      62.5000    0.00674534
      62.6000    0.00663150
      62.7000    0.00651980
      62.8000    0.00641487
      62.9000    0.00631161
      63.0000    0.00620992
      63.1000    0.00610971
      63.2000    0.00601087
      63.3000    0.00591339
      63.4000    0.00581738
      63.5000    0.00572288
      63.6000    0.00562969
      63.7000    0.00553783
      63.8000    0.00544742
      63.9000    0.00535841
      64.0000    0.00527071
      64.1000    0.00518431
      64.2000    0.00509932
      64.3000    0.00501565
      64.4000    0.00493315
      64.5000    0.00485177
      64.6000    0.00477154
      64.7000    0.00469250
      64.8000    0.00461462
      64.9000    0.00453790
      65.0000    0.00446240
      65.1000    0.00438823
      65.2000    0.00431521
      65.3000    0.00424323
      65.4000    0.00417228
      65.5000    0.00410235
      65.6000    0.00403340
      65.7000    0.00396553
      65.8000    0.00389876
      65.9000    0.00383310
      66.0000    0.00376854
      66.1000    0.00370501
      66.2000    0.00364243
      66.3000    0.00358079
      66.4000    0.00352007
      66.5000    0.00346023
      66.6000    0.00340127
      66.7000    0.00334323
      66.8000    0.00328619
      66.9000    0.00323044
      67.0000    0.00317590
      67.1000    0.00312223
      67.2000    0.00306939
      67.3000    0.00301740
      67.4000    0.00296619
      67.5000    0.00291574
      67.6000    0.00286606
      67.7000    0.00281718
      67.8000    0.00276900
      67.9000    0.00272138
      68.0000    0.00267449
      68.1000    0.00262843
      68.2000    0.00258308
      68.3000    0.00253847
      68.4000    0.00249456
      68.5000    0.00245136
      68.6000    0.00240887
      68.7000    0.00236707
      68.8000    0.00232593
      68.9000    0.00228603
      69.0000    0.00224995
      69.1000    0.00221738
      69.2000    0.00218578
      69.3000    0.00215501
      69.4000    0.00212546
      69.5000    0.00209535
      69.6000    0.00206437
      69.7000    0.00203465
      69.8000    0.00200636
      69.9000    0.00197846
      70.0000    0.00195087
      70.1000    0.00192309
      70.2000    0.00189668
      70.3000    0.00187163
      70.4000    0.00184667
      70.5000    0.00182236
      70.6000    0.00179865
      70.7000    0.00177526
      70.8000    0.00175213
      70.9000    0.00172846
      71.0000    0.00170434
      71.1000    0.00168133
      71.2000    0.00165942
      71.3000    0.00163621
      71.4000    0.00161141
      71.5000    0.00158856
      71.6000    0.00156854
      71.7000    0.00154838
      71.8000    0.00152757
      71.9000    0.00150749
      72.0000    0.00148891
      72.1000    0.00146994
      72.2000    0.00144820
      72.3000    0.00142685
      72.4000    0.00140812
      72.5000    0.00138966
      72.6000    0.00137146
      72.7000    0.00135349
      72.8000    0.00133576
      72.9000    0.00131826
      73.0000    0.00130138
      73.1000    0.00128493
      73.2000    0.00126868
      73.3000    0.00125264
      73.4000    0.00123694
      73.5000    0.00122171
      73.6000    0.00120668
      73.7000    0.00119184
      73.8000    0.00117718
      73.9000    0.00116268
      74.0000    0.00114844
      74.1000    0.00113550
      74.2000    0.00112304
      74.3000    0.00110958
      74.4000    0.00109541
      74.5000    0.00108166
      74.6000    0.00106858
      74.7000    0.00105567
      74.8000    0.00104298
      74.9000    0.00103056
      75.0000    0.00101820
      75.1000    0.00100593
      75.2000   0.000993787
      75.3000   0.000981777
      75.4000   0.000970020
      75.5000   0.000958653
      75.6000   0.000947422
      75.7000   0.000936327
      75.8000   0.000925378
      75.9000   0.000914698
      76.0000   0.000904266
      76.1000   0.000894621
      76.2000   0.000885174
      76.3000   0.000875838
      76.4000   0.000866771
      76.5000   0.000857812
      76.6000   0.000848933
      76.7000   0.000840138
      76.8000   0.000831429
      76.9000   0.000822812
      77.0000   0.000814291
      77.1000   0.000805869
      77.2000   0.000797540
      77.3000   0.000789294
      77.4000   0.000781125
      77.5000   0.000773012
      77.6000   0.000764800
      77.7000   0.000756669
      77.8000   0.000748612
      77.9000   0.000740627
      78.0000   0.000732610
      78.1000   0.000724358
      78.2000   0.000716214
      78.3000   0.000708857
      78.4000   0.000701828
      78.5000   0.000694793
      78.6000   0.000687609
      78.7000   0.000680495
      78.8000   0.000673179
      78.9000   0.000665868
      79.0000   0.000658632
      79.1000   0.000651466
      79.2000   0.000644389
      79.3000   0.000637603
      79.4000   0.000630967
      79.5000   0.000624333
      79.6000   0.000617541
      79.7000   0.000610812
      79.8000   0.000604034
      79.9000   0.000597267
      80.0000   0.000590541
      80.1000   0.000583625
      80.2000   0.000576767
      80.3000   0.000569701
      80.4000   0.000562447
      80.5000   0.000555263
      80.6000   0.000548169
      80.7000   0.000541160
      80.8000   0.000534276
      80.9000   0.000527574
      81.0000   0.000520947
      81.1000   0.000514403
      81.2000   0.000507938
      81.3000   0.000501562
      81.4000   0.000495764
      81.5000   0.000490062
      81.6000   0.000484567
      81.7000   0.000479435
      81.8000   0.000474371
      81.9000   0.000469561
      82.0000   0.000464907
      82.1000   0.000460315
      82.2000   0.000455606
      82.3000   0.000450947
      82.4000   0.000446443
      82.5000   0.000442150
      82.6000   0.000437886
      82.7000   0.000433526
      82.8000   0.000429050
      82.9000   0.000424608
      83.0000   0.000420257
      83.1000   0.000415969
      83.2000   0.000411723
      83.3000   0.000407521
      83.4000   0.000403369
      83.5000   0.000399277
      83.6000   0.000395332
      83.7000   0.000391426
      83.8000   0.000387527
      83.9000   0.000383595
      84.0000   0.000379697
      84.1000   0.000375897
      84.2000   0.000372226
      84.3000   0.000368588
      84.4000   0.000364936
      84.5000   0.000361283
      84.6000   0.000357665
      84.7000   0.000354152
      84.8000   0.000350713
      84.9000   0.000347312
      85.0000   0.000343847
      85.1000   0.000340388
      85.2000   0.000336966
      85.3000   0.000333728
      85.4000   0.000330545
      85.5000   0.000327395
      85.6000   0.000324198
      85.7000   0.000321027
      85.8000   0.000317883
      85.9000   0.000314766
      86.0000   0.000311675
      86.1000   0.000308614
      86.2000   0.000305678
      86.3000   0.000302772
      86.4000   0.000299892
      86.5000   0.000297038
      86.6000   0.000294208
      86.7000   0.000291403
      86.8000   0.000288397
      86.9000   0.000285413
      87.0000   0.000282462
      87.1000   0.000279590
      87.2000   0.000276753
      87.3000   0.000273946
      87.4000   0.000271088
      87.5000   0.000268241
      87.6000   0.000265418
      87.7000   0.000262668
      87.8000   0.000259954
      87.9000   0.000257263
      88.0000   0.000254597
      88.1000   0.000251956
      88.2000   0.000249341
      88.3000   0.000246812
      88.4000   0.000244363
      88.5000   0.000241945
      88.6000   0.000239530
      88.7000   0.000237108
      88.8000   0.000234713
      88.9000   0.000232338
      89.0000   0.000229975
      89.1000   0.000227636
      89.2000   0.000225330
      89.3000   0.000223079
      89.4000   0.000220893
      89.5000   0.000218727
      89.6000   0.000216581
      89.7000   0.000214452
      89.8000   0.000212340
      89.9000   0.000210243
      90.0000   0.000208166
      90.1000   0.000206109
      90.2000   0.000204021
      90.3000   0.000201840
      90.4000   0.000199680
      90.5000   0.000197546
      90.6000   0.000195473
      90.7000   0.000193414
      90.8000   0.000191354
      90.9000   0.000189270
      91.0000   0.000187194
      91.1000   0.000185139
      91.2000   0.000183076
      91.3000   0.000180987
      91.4000   0.000178914
      91.5000   0.000176863
      91.6000   0.000174834
      91.7000   0.000173010
      91.8000   0.000171488
      91.9000   0.000170318
      92.0000   0.000168947
      92.1000   0.000167543
      92.2000   0.000166036
      92.3000   0.000164441
      92.4000   0.000162801
      92.5000   0.000161179
      92.6000   0.000159573
      92.7000   0.000157983
      92.8000   0.000156409
      92.9000   0.000154870
      93.0000   0.000153394
      93.1000   0.000151929
      93.2000   0.000150479
      93.3000   0.000149102
      93.4000   0.000147757
      93.5000   0.000146423
      93.6000   0.000145096
      93.7000   0.000143772
      93.8000   0.000142446
      93.9000   0.000141131
      94.0000   0.000139826
      94.1000   0.000138532
      94.2000   0.000137249
      94.3000   0.000135990
      94.4000   0.000134782
      94.5000   0.000133588
      94.6000   0.000132406
      94.7000   0.000131236
      94.8000   0.000130074
      94.9000   0.000128922
      95.0000   0.000127779
      95.1000   0.000126648
      95.2000   0.000125522
      95.3000   0.000124404
      95.4000   0.000123299
      95.5000   0.000122223
      95.6000   0.000121155
      95.7000   0.000120096
      95.8000   0.000119030
      95.9000   0.000117966
      96.0000   0.000116908
      96.1000   0.000115858
      96.2000   0.000114815
      96.3000   0.000113782
      96.4000   0.000112758
      96.5000   0.000111743
      96.6000   0.000110741
      96.7000   0.000109750
      96.8000   0.000108764
      96.9000   0.000107784
      97.0000   0.000106813
      97.1000   0.000105854
      97.2000   0.000104903
      97.3000   0.000103944
      97.4000   0.000102981
      97.5000   0.000102029
      97.6000   0.000101086
      97.7000   0.000100158
      97.8000   9.92428e-05
      97.9000   9.83356e-05
      98.0000   9.74347e-05
      98.1000   9.65401e-05
      98.2000   9.56531e-05
      98.3000   9.48459e-05
      98.4000   9.40798e-05
      98.5000   9.33429e-05
      98.6000   9.26117e-05
      98.7000   9.18856e-05
      98.8000   9.11642e-05
      98.9000   9.04477e-05
      99.0000   8.97392e-05
      99.1000   8.90362e-05
      99.2000   8.83335e-05
      99.3000   8.76093e-05
      99.4000   8.68917e-05
      99.5000   8.61799e-05
      99.6000   8.54799e-05
      99.7000   8.48251e-05
      99.8000   8.41931e-05
      99.9000   8.37253e-05
      100.000   8.35062e-05
      100.100   8.32585e-05
      100.200   8.30103e-05
      100.300   8.27619e-05
      100.400   8.25136e-05
      100.500   8.22768e-05
      100.600   8.20386e-05
      100.700   8.18001e-05
      100.800   8.15611e-05
      100.900   8.13221e-05
      101.000   8.10834e-05
      101.100   8.08454e-05
      101.200   8.06084e-05
      101.300   8.03724e-05
      101.400   8.01375e-05
      101.500   7.98758e-05
      101.600   7.95798e-05
      101.700   7.92925e-05
      101.800   7.90082e-05
      101.900   7.87241e-05
      102.000   7.84418e-05
      102.100   7.81721e-05
      102.200   7.79085e-05
      102.300   7.76451e-05
      102.400   7.73819e-05
      102.500   7.71187e-05
      102.600   7.68550e-05
      102.700   7.65911e-05
      102.800   7.63268e-05
      102.900   7.60625e-05
      103.000   7.57983e-05
      103.100   7.55345e-05
      103.200   7.52714e-05
      103.300   7.50091e-05
      103.400   7.47474e-05
      103.500   7.44864e-05
      103.600   7.42259e-05
      103.700   7.39646e-05
      103.800   7.36860e-05
      103.900   7.33871e-05
      104.000   7.30876e-05
      104.100   7.27895e-05
      104.200   7.25006e-05
      104.300   7.22656e-05
      104.400   7.20329e-05
      104.500   7.18009e-05
      104.600   7.15686e-05
      104.700   7.13197e-05
      104.800   7.10639e-05
      104.900   7.08083e-05
      105.000   7.05532e-05
      105.100   7.03104e-05
      105.200   7.00976e-05
      105.300   6.98856e-05
      105.400   6.96740e-05
      105.500   6.94626e-05
      105.600   6.92583e-05
      105.700   6.90558e-05
      105.800   6.88529e-05
      105.900   6.86505e-05
      106.000   6.84581e-05
      106.100   6.82868e-05
      106.200   6.81169e-05
      106.300   6.79466e-05
      106.400   6.77760e-05
      106.500   6.76053e-05
      106.600   6.74347e-05
      106.700   6.72641e-05
      106.800   6.70934e-05
      106.900   6.69231e-05
      107.000   6.67528e-05
      107.100   6.65827e-05
      107.200   6.64128e-05
      107.300   6.62434e-05
      107.400   6.60729e-05
      107.500   6.59020e-05
      107.600   6.57317e-05
      107.700   6.55619e-05
      107.800   6.53931e-05
      107.900   6.52203e-05
      108.000   6.50475e-05
      108.100   6.48745e-05
      108.200   6.47008e-05
      108.300   6.45257e-05
      108.400   6.43448e-05
      108.500   6.41632e-05
      108.600   6.39810e-05
      108.700   6.37979e-05
      108.800   6.35986e-05
      108.900   6.33763e-05
      109.000   6.31536e-05
      109.100   6.29310e-05
      109.200   6.27085e-05
      109.300   6.24865e-05
      109.400   6.22649e-05
      109.500   6.20439e-05
      109.600   6.18236e-05
      109.700   6.16039e-05
      109.800   6.13854e-05
      109.900   6.11679e-05
      110.000   6.09515e-05
      110.100   6.07360e-05
      110.200   6.05211e-05
      110.300   6.03166e-05
      110.400   6.01132e-05
      110.500   5.99101e-05
      110.600   5.97068e-05
      110.700   5.95031e-05
      110.800   5.92992e-05
      110.900   5.90949e-05
      111.000   5.88902e-05
      111.100   5.86853e-05
      111.200   5.84812e-05
      111.300   5.82970e-05
      111.400   5.81131e-05
      111.500   5.79287e-05
      111.600   5.77442e-05
      111.700   5.75605e-05
      111.800   5.73895e-05
      111.900   5.72191e-05
      112.000   5.70488e-05
      112.100   5.68789e-05
      112.200   5.67093e-05
      112.300   5.65274e-05
      112.400   5.63457e-05
      112.500   5.61648e-05
      112.600   5.59847e-05
      112.700   5.58074e-05
      112.800   5.56429e-05
      112.900   5.54483e-05
      113.000   5.52643e-05
      113.100   5.50850e-05
      113.200   5.48997e-05
      113.300   5.47211e-05
      113.400   5.44727e-05
      113.500   5.42073e-05
      113.600   5.40026e-05
      113.700   5.37794e-05
      113.800   5.35155e-05
      113.900   5.33113e-05
      114.000   5.31070e-05
      114.100   5.28603e-05
      114.200   5.26352e-05
      114.300   5.24444e-05
      114.400   5.22449e-05
      114.500   5.20362e-05
      114.600   5.18723e-05
      114.700   5.16752e-05
      114.800   5.15010e-05
      114.900   5.13793e-05
      115.000   5.12201e-05
      115.100   5.10387e-05
      115.200   5.08552e-05
      115.300   5.07193e-05
      115.400   5.05382e-05
      115.500   5.03794e-05
      115.600   5.02017e-05
      115.700   4.99954e-05
      115.800   4.98275e-05
      115.900   4.96394e-05
      116.000   4.94844e-05
      116.100   4.93806e-05
      116.200   4.92724e-05
      116.300   4.91548e-05
      116.400   4.90204e-05
      116.500   4.89224e-05
      116.600   4.88126e-05
      116.700   4.87119e-05
      116.800   4.86000e-05
      116.900   4.84430e-05
      117.000   4.83366e-05
      117.100   4.83757e-05
      117.200   4.85174e-05
      117.300   4.85584e-05
      117.400   4.85928e-05
      117.500   4.86286e-05
      117.600   4.86051e-05
      117.700   4.85583e-05
      117.800   4.84803e-05
      117.900   4.83863e-05
      118.000   4.82624e-05
      118.100   4.81098e-05
      118.200   4.79798e-05
      118.300   4.78596e-05
      118.400   4.76260e-05
      118.500   4.74016e-05
      118.600   4.72295e-05
      118.700   4.70389e-05
      118.800   4.68231e-05
      118.900   4.66249e-05
      119.000   4.63651e-05
      119.100   4.60361e-05
      119.200   4.57691e-05
      119.300   4.55537e-05
      119.400   4.53670e-05
      119.500   4.51933e-05
      119.600   4.49789e-05
      119.700   4.47171e-05
      119.800   4.43610e-05
      119.900   4.38803e-05
      120.000   4.34407e-05
      120.100   4.30342e-05
      120.200   4.27836e-05
      120.300   4.26227e-05
      120.400   4.24608e-05
      120.500   4.21727e-05
      120.600   4.17888e-05
      120.700   4.13747e-05
      120.800   4.09816e-05
      120.900   4.07547e-05
      121.000   4.07866e-05
      121.100   4.07722e-05
      121.200   4.06276e-05
      121.300   4.03905e-05
      121.400   4.00830e-05
      121.500   3.97224e-05
      121.600   3.91552e-05
      121.700   3.86716e-05
      121.800   3.81157e-05
      121.900   3.75515e-05
      122.000   3.69388e-05
      122.100   3.63650e-05
      122.200   3.57992e-05
      122.300   3.54106e-05
      122.400   3.52135e-05
      122.500   3.50573e-05
      122.600   3.48768e-05
      122.700   3.46946e-05
      122.800   3.44692e-05
      122.900   3.42690e-05
      123.000   3.42933e-05
      123.100   3.47077e-05
      123.200   3.51494e-05
      123.300   3.57936e-05
      123.400   3.66065e-05
      123.500   3.76610e-05
      123.600   3.85817e-05
      123.700   3.91001e-05
      123.800   3.95046e-05
      123.900   4.00265e-05
      124.000   4.07387e-05
      124.100   4.20688e-05
      124.200   4.47175e-05
      124.300   4.86580e-05
      124.400   5.24769e-05
      124.500   5.36641e-05
      124.600   5.36279e-05
      124.700   5.34504e-05
      124.800   5.32874e-05
      124.900   5.31234e-05
      125.000   5.29577e-05
      125.100   5.27785e-05
      125.200   5.25978e-05
      125.300   5.24172e-05
      125.400   5.22368e-05
      125.500   5.20566e-05
      125.600   5.18765e-05
      125.700   5.16969e-05
      125.800   5.15175e-05
      125.900   5.13386e-05
      126.000   5.11603e-05
      126.100   5.09826e-05
      126.200   5.08054e-05
      126.300   5.06288e-05
      126.400   5.04528e-05
      126.500   5.02773e-05
      126.600   5.01024e-05
      126.700   4.99280e-05
      126.800   4.97540e-05
      126.900   4.95804e-05
      127.000   4.94056e-05
      127.100   4.92261e-05
      127.200   4.90445e-05
      127.300   4.88624e-05
      127.400   4.86804e-05
      127.500   4.84986e-05
      127.600   4.83168e-05
      127.700   4.81352e-05
      127.800   4.79536e-05
      127.900   4.77720e-05
      128.000   4.75907e-05
      128.100   4.74094e-05
      128.200   4.72282e-05
      128.300   4.70472e-05
      128.400   4.68664e-05
      128.500   4.66858e-05
      128.600   4.65051e-05
      128.700   4.63250e-05
      128.800   4.61450e-05
      128.900   4.59653e-05
      129.000   4.57861e-05
      129.100   4.56063e-05
      129.200   4.54242e-05
      129.300   4.52426e-05
      129.400   4.50616e-05
      129.500   4.48813e-05
      129.600   4.47017e-05
      129.700   4.45227e-05
      129.800   4.43443e-05
      129.900   4.41666e-05
      130.000   4.39896e-05
      130.100   4.38132e-05
      130.200   4.36372e-05
      130.300   4.34619e-05
      130.400   4.32870e-05
      130.500   4.31125e-05
      130.600   4.29383e-05
      130.700   4.27646e-05
      130.800   4.25914e-05
      130.900   4.24184e-05
      131.000   4.22457e-05
      131.100   4.20734e-05
      131.200   4.19011e-05
      131.300   4.17284e-05
      131.400   4.15559e-05
      131.500   4.13838e-05
      131.600   4.12120e-05
      131.700   4.10406e-05
      131.800   4.08695e-05
      131.900   4.06986e-05
      132.000   4.05282e-05
      132.100   4.03580e-05
      132.200   4.01881e-05
      132.300   4.00187e-05
      132.400   3.98496e-05
      132.500   3.96810e-05
      132.600   3.95128e-05
      132.700   3.93451e-05
      132.800   3.91779e-05
      132.900   3.90112e-05
      133.000   3.88451e-05
      133.100   3.86794e-05
      133.200   3.85143e-05
      133.300   3.83495e-05
      133.400   3.81849e-05
      133.500   3.80206e-05
      133.600   3.78568e-05
      133.700   3.76935e-05
      133.800   3.75307e-05
      133.900   3.73684e-05
      134.000   3.72065e-05
      134.100   3.70451e-05
      134.200   3.68842e-05
      134.300   3.67238e-05
      134.400   3.65639e-05
      134.500   3.64045e-05
      134.600   3.62457e-05
      134.700   3.60873e-05
      134.800   3.59296e-05
      134.900   3.57723e-05
      135.000   3.56156e-05
      135.100   3.54593e-05
      135.200   3.53037e-05
      135.300   3.51486e-05
      135.400   3.49939e-05
      135.500   3.48394e-05
      135.600   3.46850e-05
      135.700   3.45310e-05
      135.800   3.43775e-05
      135.900   3.42245e-05
      136.000   3.40720e-05
      136.100   3.39199e-05
      136.200   3.37685e-05
      136.300   3.36175e-05
      136.400   3.34670e-05
      136.500   3.33171e-05
      136.600   3.31675e-05
      136.700   3.30185e-05
      136.800   3.28699e-05
      136.900   3.27218e-05
      137.000   3.25741e-05
      137.100   3.24268e-05
      137.200   3.22799e-05
      137.300   3.21334e-05
      137.400   3.19873e-05
      137.500   3.18416e-05
      137.600   3.17021e-05
      137.700   3.15773e-05
      137.800   3.14638e-05
      137.900   3.13504e-05
      138.000   3.12372e-05
      138.100   3.11243e-05
      138.200   3.10116e-05
      138.300   3.08992e-05
      138.400   3.07871e-05
      138.500   3.06752e-05
      138.600   3.05637e-05
      138.700   3.04525e-05
      138.800   3.03416e-05
      138.900   3.02310e-05
      139.000   3.01208e-05
      139.100   3.00109e-05
      139.200   2.99014e-05
      139.300   2.97923e-05
      139.400   2.96834e-05
      139.500   2.95749e-05
      139.600   2.94668e-05
      139.700   2.93590e-05
      139.800   2.92515e-05
      139.900   2.91443e-05
      140.000   2.90371e-05
      140.100   2.89302e-05
      140.200   2.88236e-05
      140.300   2.87173e-05
      140.400   2.86113e-05
      140.500   2.85055e-05
      140.600   2.83999e-05
      140.700   2.82945e-05
      140.800   2.81894e-05
      140.900   2.80843e-05
      141.000   2.79793e-05
      141.100   2.78744e-05
      141.200   2.77697e-05
      141.300   2.76651e-05
      141.400   2.75605e-05
      141.500   2.74561e-05
      141.600   2.73518e-05
      141.700   2.72475e-05
      141.800   2.71434e-05
      141.900   2.70396e-05
      142.000   2.69358e-05
      142.100   2.68430e-05
      142.200   2.67812e-05
      142.300   2.67460e-05
      142.400   2.67105e-05
      142.500   2.66747e-05
      142.600   2.66386e-05
      142.700   2.66024e-05
      142.800   2.65661e-05
      142.900   2.65295e-05
      143.000   2.64928e-05
      143.100   2.64558e-05
      143.200   2.64188e-05
      143.300   2.63815e-05
      143.400   2.63441e-05
      143.500   2.63067e-05
      143.600   2.62692e-05
      143.700   2.62315e-05
      143.800   2.61938e-05
      143.900   2.61560e-05
      144.000   2.61181e-05
      144.100   2.60800e-05
      144.200   2.60418e-05
      144.300   2.60036e-05
      144.400   2.59680e-05
      144.500   2.59712e-05
      144.600   2.59864e-05
      144.700   2.60026e-05
      144.800   2.60183e-05
      144.900   2.60335e-05
      145.000   2.60483e-05
      145.100   2.60626e-05
      145.200   2.60762e-05
      145.300   2.60893e-05
      145.400   2.61019e-05
      145.500   2.61139e-05
      145.600   2.61253e-05
      145.700   2.61360e-05
      145.800   2.61463e-05
      145.900   2.61560e-05
      146.000   2.61651e-05
      146.100   2.61736e-05
      146.200   2.61816e-05
      146.300   2.61890e-05
      146.400   2.61959e-05
      146.500   2.62021e-05
      146.600   2.62079e-05
      146.700   2.62132e-05
      146.800   2.62164e-05
      146.900   2.62168e-05
      147.000   2.62168e-05
      147.100   2.62162e-05
      147.200   2.62152e-05
      147.300   2.62138e-05
      147.400   2.62121e-05
      147.500   2.62100e-05
      147.600   2.62076e-05
      147.700   2.62048e-05
      147.800   2.62017e-05
      147.900   2.61982e-05
      148.000   2.61945e-05
      148.100   2.61904e-05
      148.200   2.61861e-05
      148.300   2.61815e-05
      148.400   2.61766e-05
      148.500   2.61715e-05
      148.600   2.61660e-05
      148.700   2.61601e-05
      148.800   2.61539e-05
      148.900   2.61474e-05
      149.000   2.61406e-05
      149.100   2.61333e-05
      149.200   2.61255e-05
      149.300   2.61172e-05
      149.400   2.61085e-05
      149.500   2.60994e-05
      149.600   2.60897e-05
      149.700   2.60796e-05
      149.800   2.60691e-05
      149.900   2.60581e-05
      150.000   2.60468e-05
      150.100   2.60350e-05
      150.200   2.60225e-05
      150.300   2.60097e-05
      150.400   2.59964e-05
      150.500   2.59826e-05
      150.600   2.59684e-05
      150.700   2.59538e-05
      150.800   2.59387e-05
      150.900   2.59230e-05
      151.000   2.59068e-05
      151.100   2.58904e-05
      151.200   2.58734e-05
      151.300   2.58560e-05
      151.400   2.58383e-05
      151.500   2.58200e-05
      151.600   2.58017e-05
      151.700   2.57834e-05
      151.800   2.57648e-05
      151.900   2.57458e-05
      152.000   2.57264e-05
      152.100   2.57066e-05
      152.200   2.56867e-05
      152.300   2.56662e-05
      152.400   2.56455e-05
      152.500   2.56245e-05
      152.600   2.56033e-05
      152.700   2.55817e-05
      152.800   2.55597e-05
      152.900   2.55375e-05
      153.000   2.55150e-05
      153.100   2.54922e-05
      153.200   2.54691e-05
      153.300   2.54458e-05
      153.400   2.54221e-05
      153.500   2.53980e-05
      153.600   2.53736e-05
      153.700   2.53490e-05
      153.800   2.53239e-05
      153.900   2.52986e-05
      154.000   2.52635e-05
      154.100   2.52171e-05
      154.200   2.51690e-05
      154.300   2.51206e-05
      154.400   2.50719e-05
      154.500   2.50229e-05
      154.600   2.49736e-05
      154.700   2.49240e-05
      154.800   2.48741e-05
      154.900   2.48239e-05
      155.000   2.47734e-05
      155.100   2.47227e-05
      155.200   2.46716e-05
      155.300   2.46202e-05
      155.400   2.45685e-05
      155.500   2.45166e-05
      155.600   2.44643e-05
      155.700   2.44118e-05
      155.800   2.43590e-05
      155.900   2.43059e-05
      156.000   2.42525e-05
      156.100   2.41988e-05
      156.200   2.41448e-05
      156.300   2.40907e-05
      156.400   2.40362e-05
      156.500   2.39783e-05
      156.600   2.39120e-05
      156.700   2.38450e-05
      156.800   2.37778e-05
      156.900   2.37105e-05
      157.000   2.36431e-05
      157.100   2.35754e-05
      157.200   2.35075e-05
      157.300   2.34395e-05
      157.400   2.33714e-05
      157.500   2.33031e-05
      157.600   2.32345e-05
      157.700   2.31659e-05
      157.800   2.30971e-05
      157.900   2.30281e-05
      158.000   2.29589e-05
      158.100   2.28895e-05
      158.200   2.28200e-05
      158.300   2.27503e-05
      158.400   2.26805e-05
      158.500   2.26105e-05
      158.600   2.25404e-05
      158.700   2.24700e-05
      158.800   2.23996e-05
      158.900   2.23290e-05
      159.000   2.22583e-05
      159.100   2.21872e-05
      159.200   2.21161e-05
      159.300   2.20448e-05
      159.400   2.19734e-05
      159.500   2.19019e-05
      159.600   2.18303e-05
      159.700   2.17587e-05
      159.800   2.16869e-05
      159.900   2.16151e-05
      160.000   2.15431e-05
      160.100   2.14711e-05
      160.200   2.13990e-05
      160.300   2.13269e-05
      160.400   2.12547e-05
      160.500   2.11825e-05
      160.600   2.11102e-05
      160.700   2.10380e-05
      160.800   2.09656e-05
      160.900   2.08932e-05
      161.000   2.08208e-05
      161.100   2.07485e-05
      161.200   2.06760e-05
      161.300   2.06036e-05
      161.400   2.05311e-05
      161.500   2.04587e-05
      161.600   2.03862e-05
      161.700   2.03134e-05
      161.800   2.02407e-05
      161.900   2.01679e-05
      162.000   2.00951e-05
      162.100   2.00223e-05
      162.200   1.99494e-05
      162.300   1.98765e-05
      162.400   1.98036e-05
      162.500   1.97306e-05
      162.600   1.96576e-05
      162.700   1.95845e-05
      162.800   1.95114e-05
      162.900   1.94382e-05
      163.000   1.93650e-05
      163.100   1.92917e-05
      163.200   1.92183e-05
      163.300   1.91449e-05
      163.400   1.90714e-05
      163.500   1.89979e-05
      163.600   1.89244e-05
      163.700   1.88507e-05
      163.800   1.87772e-05
      163.900   1.87035e-05
      164.000   1.86298e-05
      164.100   1.85562e-05
      164.200   1.84825e-05
      164.300   1.84100e-05
      164.400   1.83374e-05
      164.500   1.82650e-05
      164.600   1.81925e-05
      164.700   1.81201e-05
      164.800   1.80477e-05
      164.900   1.79754e-05
      165.000   1.79032e-05
      165.100   1.78310e-05
      165.200   1.77589e-05
      165.300   1.76869e-05
      165.400   1.76151e-05
      165.500   1.75433e-05
      165.600   1.74717e-05
      165.700   1.74001e-05
      165.800   1.73288e-05
      165.900   1.72575e-05
      166.000   1.71864e-05
      166.100   1.71154e-05
      166.200   1.70446e-05
      166.300   1.69739e-05
      166.400   1.69034e-05
      166.500   1.68331e-05
      166.600   1.67629e-05
      166.700   1.66928e-05
      166.800   1.66215e-05
      166.900   1.65437e-05
      167.000   1.64602e-05
      167.100   1.63766e-05
      167.200   1.62933e-05
      167.300   1.62102e-05
      167.400   1.61274e-05
      167.500   1.60448e-05
      167.600   1.59624e-05
      167.700   1.58802e-05
      167.800   1.57983e-05
      167.900   1.57166e-05
      168.000   1.56351e-05
      168.100   1.55538e-05
      168.200   1.54726e-05
      168.300   1.53917e-05
      168.400   1.53109e-05
      168.500   1.52304e-05
      168.600   1.51500e-05
      168.700   1.50698e-05
      168.800   1.49897e-05
      168.900   1.49099e-05
      169.000   1.48303e-05
      169.100   1.47508e-05
      169.200   1.46716e-05
      169.300   1.45925e-05
      169.400   1.45136e-05
      169.500   1.44310e-05
      169.600   1.43311e-05
      169.700   1.42142e-05
      169.800   1.40967e-05
      169.900   1.39798e-05
      170.000   1.38635e-05
      170.100   1.37478e-05
      170.200   1.36327e-05
      170.300   1.79349e-05
      170.400   3.88789e-05
      170.500   7.42412e-05
      170.600   0.000110134
      170.700   0.000139401
      170.800   0.000153684
      170.900   0.000155209
      171.000   0.000153561
      171.100   0.000151920
      171.200   0.000150287
      171.300   0.000148660
      171.400   0.000147041
      171.500   0.000145430
      171.600   0.000143829
      171.700   0.000142237
      171.800   0.000140656
      171.900   0.000139088
      172.000   0.000137534
      172.100   0.000135995
      172.200   0.000134472
      172.300   0.000132962
      172.400   0.000131441
      172.500   0.000129933
      172.600   0.000128443
      172.700   0.000126971
      172.800   0.000125516
      172.900   0.000124079
      173.000   0.000122660
      173.100   0.000121259
      173.200   0.000119875
      173.300   0.000118508
      173.400   0.000117157
      173.500   0.000115824
      173.600   0.000114507
      173.700   0.000113205
      173.800   0.000111920
      173.900   0.000110650
      174.000   0.000109395
      174.100   0.000108154
      174.200   0.000106928
      174.300   0.000105715
      174.400   0.000104517
      174.500   0.000103332
      174.600   0.000102159
      174.700   0.000100999
      174.800   9.98525e-05
      174.900   9.87172e-05
      175.000   9.75930e-05
      175.100   9.64806e-05
      175.200   9.53835e-05
      175.300   9.42967e-05
      175.400   9.32209e-05
      175.500   9.21565e-05
      175.600   9.11029e-05
      175.700   9.00603e-05
      175.800   8.90280e-05
      175.900   8.80066e-05
      176.000   8.69957e-05
      176.100   8.59958e-05
      176.200   8.50060e-05
      176.300   8.40263e-05
      176.400   8.30575e-05
      176.500   8.20985e-05
      176.600   8.11496e-05
      176.700   8.02107e-05
      176.800   7.92818e-05
      176.900   7.83630e-05
      177.000   7.74536e-05
      177.100   7.65537e-05
      177.200   7.56638e-05
      177.300   7.47832e-05
      177.400   7.39116e-05
      177.500   7.30489e-05
      177.600   7.21955e-05
      177.700   7.13511e-05
      177.800   7.05156e-05
      177.900   6.96879e-05
      178.000   6.88734e-05
      178.100   6.80678e-05
      178.200   6.72702e-05
      178.300   6.64808e-05
      178.400   6.56999e-05
      178.500   6.49270e-05
      178.600   6.41619e-05
      178.700   6.34045e-05
      178.800   6.26553e-05
      178.900   6.19140e-05
      179.000   6.11802e-05
      179.100   6.04540e-05
      179.200   5.97356e-05
      179.300   5.90250e-05
      179.400   5.83220e-05
      179.500   5.76269e-05
      179.600   5.69391e-05
      179.700   5.62594e-05
      179.800   5.55871e-05
      179.900   5.49224e-05
      180.000   5.42650e-05
      180.100   5.36154e-05
      180.200   5.29734e-05
      180.300   5.23389e-05
      180.400   5.17117e-05
      180.500   5.10921e-05
      180.600   5.04799e-05
      180.700   4.98750e-05
      180.800   4.92644e-05
      180.900   4.86464e-05
      181.000   4.80320e-05
      181.100   4.74257e-05
      181.200   4.68268e-05
      181.300   4.62355e-05
      181.400   4.56518e-05
      181.500   4.50754e-05
      181.600   4.45063e-05
      181.700   4.39442e-05
      181.800   4.33892e-05
      181.900   4.28411e-05
      182.000   4.23001e-05
      182.100   4.17656e-05
      182.200   4.12379e-05
      182.300   4.07167e-05
      182.400   4.02021e-05
      182.500   3.96937e-05
      182.600   3.91913e-05
      182.700   3.86952e-05
      182.800   3.82051e-05
      182.900   3.77208e-05
      183.000   3.72425e-05
      183.100   3.67701e-05
      183.200   3.63032e-05
      183.300   3.58419e-05
      183.400   3.53861e-05
      183.500   3.49359e-05
      183.600   3.44911e-05
      183.700   3.40280e-05
      183.800   3.34779e-05
      183.900   3.29189e-05
      184.000   3.23687e-05
      184.100   3.18270e-05
      184.200   3.12940e-05
      184.300   3.07690e-05
      184.400   3.02523e-05
      184.500   2.97437e-05
      184.600   2.92429e-05
      184.700   2.87498e-05
      184.800   2.82645e-05
      184.900   2.77867e-05
      185.000   2.73164e-05
      185.100   2.68532e-05
      185.200   2.63972e-05
      185.300   2.59487e-05
      185.400   2.55069e-05
      185.500   2.50721e-05
      185.600   2.46440e-05
      185.700   2.42224e-05
      185.800   2.38078e-05
      185.900   2.33998e-05
      186.000   2.29980e-05
      186.100   2.26024e-05
      186.200   2.22130e-05
      186.300   2.18296e-05
      186.400   2.14522e-05
      186.500   2.10805e-05
      186.600   2.07146e-05
      186.700   2.03543e-05
      186.800   1.99996e-05
      186.900   1.96502e-05
      187.000   1.93063e-05
      187.100   1.89677e-05
      187.200   1.86343e-05
      187.300   1.83064e-05
      187.400   1.79837e-05
      187.500   1.76661e-05
      187.600   1.73534e-05
      187.700   1.70457e-05
      187.800   1.67427e-05
      187.900   1.64445e-05
      188.000   1.61513e-05
      188.100   1.58626e-05
      188.200   1.55785e-05
      188.300   1.52990e-05
      188.400   1.50239e-05
      188.500   1.47534e-05
      188.600   1.44875e-05
      188.700   1.42261e-05
      188.800   1.39690e-05
      188.900   1.37163e-05
      189.000   1.34678e-05
      189.100   1.32233e-05
      189.200   1.29829e-05
      189.300   1.27467e-05
      189.400   1.25145e-05
      189.500   1.22861e-05
      189.600   1.20615e-05
      189.700   1.18395e-05
      189.800   1.16131e-05
      189.900   1.13911e-05
      190.000   1.11729e-05
      190.100   1.09588e-05
      190.200   1.07485e-05
      190.300   1.05420e-05
      190.400   1.03392e-05
      190.500   1.01400e-05
      190.600   9.94450e-06
      190.700   9.75248e-06
      190.800   9.56394e-06
      190.900   9.37885e-06
      191.000   9.19718e-06
      191.100   9.01903e-06
      191.200   8.84406e-06
      191.300   8.67226e-06
      191.400   8.50361e-06
      191.500   8.33797e-06
      191.600   8.17536e-06
      191.700   8.01572e-06
      191.800   7.85889e-06
      191.900   7.70498e-06
      192.000   7.55394e-06
      192.100   7.40580e-06
      192.200   7.26047e-06
      192.300   7.11777e-06
      192.400   6.97762e-06
      192.500   6.84004e-06
      192.600   6.70501e-06
      192.700   6.57009e-06
      192.800   6.42509e-06
      192.900   6.26064e-06
      193.000   6.10009e-06
      193.100   5.94343e-06
      193.200   5.79057e-06
      193.300   5.64133e-06
      193.400   5.49567e-06
      193.500   5.35339e-06
      193.600   5.21441e-06
      193.700   5.07869e-06
      193.800   4.94626e-06
      193.900   4.81701e-06
      194.000   4.69077e-06
      194.100   4.56769e-06
      194.200   4.44779e-06
      194.300   4.33074e-06
      194.400   4.21647e-06
      194.500   4.10493e-06
      194.600   3.99606e-06
      194.700   3.88986e-06
      194.800   3.78624e-06
      194.900   3.68509e-06
      195.000   3.58643e-06
      195.100   3.49037e-06
      195.200   3.39669e-06
      195.300   3.30530e-06
      195.400   3.21612e-06
      195.500   3.12910e-06
      195.600   3.04420e-06
      195.700   2.96140e-06
      195.800   2.88062e-06
      195.900   2.80183e-06
      196.000   2.72463e-06
      196.100   2.64936e-06
      196.200   2.57597e-06
      196.300   2.50440e-06
      196.400   2.43461e-06
      196.500   2.36654e-06
      196.600   2.30022e-06
      196.700   2.23555e-06
      196.800   2.17261e-06
      196.900   2.11134e-06
      197.000   2.05165e-06
      197.100   1.99348e-06
      197.200   1.93679e-06
      197.300   1.88153e-06
      197.400   1.82765e-06
      197.500   1.77519e-06
      197.600   1.72408e-06
      197.700   1.67445e-06
      197.800   1.62614e-06
      197.900   1.57904e-06
      198.000   1.53318e-06
      198.100   1.48853e-06
      198.200   1.44504e-06
      198.300   1.40267e-06
      198.400   1.36145e-06
      198.500   1.32143e-06
      198.600   1.28252e-06
      198.700   1.24464e-06
      198.800   1.20776e-06
      198.900   1.17187e-06
      199.000   1.13770e-06
      199.100   1.10668e-06
      199.200   1.07958e-06
      199.300   1.05314e-06
      199.400   1.02732e-06
      199.500   1.00209e-06
      199.600   9.77420e-07
      199.700   9.53305e-07
      199.800   9.29736e-07
      199.900   9.06710e-07
      200.000   8.84202e-07
      200.100   8.62301e-07
      200.200   8.40874e-07
      200.300   8.19950e-07
      200.400   7.99509e-07
      200.500   7.79544e-07
      200.600   7.60041e-07
      200.700   7.40997e-07
      200.800   7.22387e-07
      200.900   7.04217e-07
      201.000   6.86497e-07
      201.100   6.69198e-07
      201.200   6.52304e-07
      201.300   6.35812e-07
      201.400   6.19717e-07
      201.500   6.03988e-07
      201.600   5.88640e-07
      201.700   5.73656e-07
      201.800   5.59021e-07
      201.900   5.44752e-07
      202.000   5.30843e-07
      202.100   5.17255e-07
      202.200   5.03998e-07
      202.300   4.91318e-07
      202.400   4.79308e-07
      202.500   4.67632e-07
      202.600   4.56218e-07
      202.700   4.45066e-07
      202.800   4.34178e-07
      202.900   4.23549e-07
      203.000   4.13170e-07
      203.100   4.03032e-07
      203.200   3.93126e-07
      203.300   3.83446e-07
      203.400   3.73992e-07
      203.500   3.64761e-07
      203.600   3.55744e-07
      203.700   3.46936e-07
      203.800   3.38348e-07
      203.900   3.29965e-07
      204.000   3.21777e-07
      204.100   3.13784e-07
      204.200   3.05982e-07
      204.300   2.98359e-07
      204.400   2.90921e-07
      204.500   2.83657e-07
      204.600   2.76564e-07
      204.700   2.69641e-07
      204.800   2.62892e-07
      204.900   2.56305e-07
      205.000   2.49875e-07
      205.100   2.43602e-07
      205.200   2.37474e-07
      205.300   2.31497e-07
      205.400   2.25662e-07
      205.500   2.19964e-07
      205.600   2.14427e-07
      205.700   2.09044e-07
      205.800   2.03789e-07
      205.900   1.98664e-07
      206.000   1.93668e-07
      206.100   1.88787e-07
      206.200   1.84021e-07
      206.300   1.79371e-07
      206.400   1.74833e-07
      206.500   1.70399e-07
      206.600   1.66074e-07
      206.700   1.61851e-07
      206.800   1.57727e-07
      206.900   1.53702e-07
      207.000   1.49776e-07
      207.100   1.45945e-07
      207.200   1.42208e-07
      207.300   1.38562e-07
      207.400   1.35000e-07
      207.500   1.31525e-07
      207.600   1.28133e-07
      207.700   1.24822e-07
      207.800   1.21590e-07
      207.900   1.18437e-07
      208.000   1.15359e-07
      208.100   1.12356e-07
      208.200   1.09427e-07
      208.300   1.06567e-07
      208.400   1.03780e-07
      208.500   1.01062e-07
      208.600   9.84092e-08
      208.700   9.58201e-08
      208.800   9.32911e-08
      208.900   9.06684e-08
      209.000   8.79083e-08
      209.100   8.52268e-08
      209.200   8.26211e-08
      209.300   8.00883e-08
      209.400   7.76291e-08
      209.500   7.52392e-08
      209.600   7.29169e-08
      209.700   7.06629e-08
      209.800   6.84778e-08
      209.900   6.63534e-08
      210.000   6.42911e-08
      210.100   6.22889e-08
      210.200   6.03442e-08
      210.300   5.84566e-08
      210.400   5.66240e-08
      210.500   5.48445e-08
      210.600   5.31175e-08
      210.700   5.14417e-08
      210.800   4.98149e-08
      210.900   4.82361e-08
      211.000   4.67039e-08
      211.100   4.52180e-08
      211.200   4.37759e-08
      211.300   4.23788e-08
      211.400   4.10246e-08
      211.500   3.97099e-08
      211.600   3.84350e-08
      211.700   3.71990e-08
      211.800   3.59994e-08
      211.900   3.48361e-08
      212.000   3.37088e-08
      212.100   3.26156e-08
      212.200   3.15248e-08
      212.300   3.00087e-08
      212.400   2.82857e-08
      212.500   2.66539e-08
      212.600   2.51102e-08
      212.700   2.36488e-08
      212.800   2.22663e-08
      212.900   2.09594e-08
      213.000   1.97242e-08
      213.100   1.85586e-08
      213.200   1.74567e-08
      213.300   1.64162e-08
      213.400   1.54328e-08
      213.500   1.45043e-08
      213.600   1.36278e-08
      213.700   1.28009e-08
      213.800   1.20202e-08
      213.900   1.12845e-08
      214.000   1.05906e-08
      214.100   9.93629e-09
      214.200   9.32008e-09
      214.300   8.73934e-09
      214.400   8.19223e-09
      214.500   7.67717e-09
      214.600   7.19263e-09
      214.700   6.73655e-09
      214.800   6.30748e-09
      214.900   5.90426e-09
      215.000   5.52486e-09
      215.100   5.16855e-09
      215.200   4.83431e-09
      215.300   4.52062e-09
      215.400   4.22578e-09
      215.500   3.94903e-09
      215.600   3.68952e-09
      215.700   3.44584e-09
      215.800   3.21729e-09
      215.900   3.00312e-09
      216.000   2.80225e-09
      216.100   2.61398e-09
      216.200   2.43769e-09
      216.300   2.27261e-09
      216.400   2.11804e-09
      216.500   1.97331e-09
      216.600   1.83796e-09
      216.700   1.71137e-09
      216.800   1.59296e-09
      216.900   1.48232e-09
      217.000   1.37892e-09
      217.100   1.28227e-09
      217.200   1.19209e-09
      217.300   1.10787e-09
      217.400   1.02924e-09
      217.500   9.55925e-10
      217.600   8.87505e-10
      217.700   8.23708e-10
      217.800   7.64241e-10
      217.900   7.08897e-10
      218.000   6.57369e-10
      218.100   6.09390e-10
      218.200   5.64733e-10
      218.300   5.23192e-10
      218.400   4.84531e-10
      218.500   4.48556e-10
      218.600   4.15139e-10
      218.700   3.84058e-10
      218.800   3.55183e-10
      218.900   3.28382e-10
      219.000   3.03480e-10
      219.100   2.80593e-10
      219.200   2.61220e-10
      219.300   2.45949e-10
      219.400   2.31519e-10
      219.500   2.17901e-10
      219.600   2.05045e-10
      219.700   1.92909e-10
      219.800   1.81462e-10
      219.900   1.70660e-10
      220.000   1.60466e-10
      220.100   1.50852e-10
      220.200   1.41789e-10
      220.300   1.33247e-10
      220.400   1.25191e-10
      220.500   1.17601e-10
      220.600   1.10453e-10
      220.700   1.03716e-10
      220.800   9.73683e-11
      220.900   9.13962e-11
      221.000   8.57711e-11
      221.100   8.04745e-11
      221.200   7.54934e-11
      221.300   7.08053e-11
      221.400   6.63941e-11
      221.500   6.22470e-11
      221.600   5.83463e-11
      221.700   5.46780e-11
      221.800   5.12299e-11
      221.900   4.79910e-11
      222.000   4.49478e-11
      222.100   4.20871e-11
      222.200   3.94028e-11
      222.300   3.68811e-11
      222.400   3.45133e-11
      222.500   3.22905e-11
      222.600   3.02061e-11
      222.700   2.82494e-11
      222.800   2.64139e-11
      222.900   2.46940e-11
      223.000   2.30802e-11
      223.100   2.15672e-11
      223.200   2.01492e-11
      223.300   1.88210e-11
      223.400   1.75764e-11
      223.500   1.64100e-11
      223.600   1.53187e-11
      223.700   1.42964e-11
      223.800   1.33392e-11
      223.900   1.24445e-11
      224.000   1.16064e-11
      224.100   1.08225e-11
      224.200   1.00893e-11
      224.300   9.40410e-12
      224.400   8.76312e-12
      224.500   8.16416e-12
      224.600   7.60425e-12
      224.700   7.08171e-12
      224.800   6.59341e-12
      224.900   6.13719e-12
      225.000   5.71148e-12
      225.100   5.31397e-12
      225.200   4.94299e-12
      225.300   4.59716e-12
      225.400   4.27434e-12
      225.500   3.97323e-12
      225.600   3.69253e-12
      225.700   3.43102e-12
      225.800   3.18717e-12
      225.900   2.95998e-12
      226.000   2.74848e-12
      226.100   2.55139e-12
      226.200   2.36786e-12
      226.300   2.19729e-12
      226.400   2.03863e-12
      226.500   1.89087e-12
      226.600   1.75338e-12
      226.700   1.62559e-12
      226.800   1.50668e-12
      226.900   1.39609e-12
      227.000   1.29340e-12
      227.100   1.19793e-12
      227.200   1.10925e-12
      227.300   1.02690e-12
      227.400   9.50451e-13
      227.500   8.79466e-13
      227.600   8.13595e-13
      227.700   7.52476e-13
      227.800   6.95796e-13
      227.900   6.43236e-13
      228.000   5.94498e-13
      228.100   5.49322e-13
      228.200   5.07451e-13
      228.300   4.68664e-13
      228.400   4.32747e-13
      228.500   3.99475e-13
      228.600   3.68681e-13
      228.700   3.40176e-13
      228.800   3.13794e-13
      228.900   2.89401e-13
      229.000   2.66829e-13
      229.100   2.45960e-13
      229.200   2.26671e-13
      229.300   2.08844e-13
      229.400   1.92372e-13
      229.500   1.77156e-13
      229.600   1.63103e-13
      229.700   1.50130e-13
      229.800   1.38151e-13
      229.900   1.27140e-13
      230.000   1.17317e-13
      230.100   1.08862e-13
      230.200   1.00997e-13
      230.300   9.36871e-14
      230.400   8.68872e-14
      230.500   8.05707e-14
      230.600   7.47067e-14
      230.700   6.92547e-14
      230.800   6.41894e-14
      230.900   5.94844e-14
      231.000   5.51117e-14
      231.100   5.10516e-14
      231.200   4.72808e-14
      231.300   4.37810e-14
      231.400   4.05337e-14
      231.500   3.75180e-14
      231.600   3.47194e-14
      231.700   3.21242e-14
      231.800   2.97173e-14
      231.900   2.74852e-14
      232.000   2.54155e-14
      232.100   2.34967e-14
      232.200   2.17186e-14
      232.300   2.00711e-14
      232.400   1.85445e-14
      232.500   1.71302e-14
      232.600   1.58209e-14
      232.700   1.46087e-14
      232.800   1.34864e-14
      232.900   1.24478e-14
      233.000   1.14866e-14
      233.100   1.05978e-14
      233.200   9.77517e-15
      233.300   9.01472e-15
      233.400   8.31179e-15
      233.500   7.66315e-15
      233.600   7.06442e-15
      233.700   6.51093e-15
      233.800   5.99475e-15
      233.900   5.51780e-15
      234.000   5.07739e-15
      234.100   4.67127e-15
      234.200   4.29669e-15
      234.300   3.95124e-15
      234.400   3.63274e-15
      234.500   3.33919e-15
      234.600   3.06861e-15
      234.700   2.81937e-15
      234.800   2.58983e-15
      234.900   2.37836e-15
      235.000   2.18363e-15
      235.100   2.00443e-15
      235.200   1.83949e-15
      235.300   1.68772e-15
      235.400   1.54811e-15
      235.500   1.41970e-15
      235.600   1.30167e-15
      235.700   1.19322e-15
      235.800   1.09389e-15
      235.900   1.00260e-15
      236.000   9.18707e-16
      236.100   8.41625e-16
      236.200   7.70826e-16
      236.300   7.05801e-16
      236.400   6.46118e-16
      236.500   5.91328e-16
      236.600   5.41056e-16
      236.700   4.94935e-16
      236.800   4.52623e-16
      236.900   4.13831e-16
      237.000   3.78268e-16
      237.100   3.45663e-16
      237.200   3.15801e-16
      237.300   2.88434e-16
      237.400   2.63487e-16
      237.500   2.41697e-16
      237.600   2.23510e-16
      237.700   2.06704e-16
      237.800   1.91126e-16
      237.900   1.76689e-16
      238.000   1.63317e-16
      238.100   1.50923e-16
      238.200   1.39446e-16
      238.300   1.28815e-16
      238.400   1.18973e-16
      238.500   1.09861e-16
      238.600   1.01427e-16
      238.700   9.36246e-17
      238.800   8.64037e-17
      238.900   7.97242e-17
      239.000   7.35460e-17
      239.100   6.78337e-17
      239.200   6.25539e-17
      239.300   5.76863e-17
      239.400   5.31984e-17
      239.500   4.90490e-17
      239.600   4.52139e-17
      239.700   4.16716e-17
      239.800   3.83980e-17
      239.900   3.53745e-17
      240.000   3.25827e-17
      240.100   3.00043e-17
      240.200   2.76241e-17
      240.300   2.54279e-17
      240.400   2.34005e-17
      240.500   2.15313e-17
      240.600   1.98069e-17
      240.700   1.82170e-17
      240.800   1.67553e-17
      240.900   1.54113e-17
      241.000   1.41723e-17
      241.100   1.30301e-17
      241.200   1.19775e-17
      241.300   1.10587e-17
      241.400   1.03022e-17
      241.500   9.64439e-18
      241.600   9.02748e-18
      241.700   8.44890e-18
      241.800   7.90643e-18
      241.900   7.39784e-18
      242.000   6.92115e-18
      242.100   6.47438e-18
      242.200   6.05694e-18
      242.300   5.66658e-18
      242.400   5.30065e-18
      242.500   4.95775e-18
      242.600   4.63646e-18
      242.700   4.33539e-18
      242.800   4.05343e-18
      242.900   3.78931e-18
      243.000   3.54195e-18
      243.100   3.31034e-18
      243.200   3.09340e-18
      243.300   2.89035e-18
      243.400   2.70035e-18
      243.500   2.52297e-18
      243.600   2.35748e-18
      243.700   2.20248e-18
      243.800   2.05740e-18
      243.900   1.92170e-18
      244.000   1.79466e-18
      244.100   1.67581e-18
      244.200   1.56465e-18
      244.300   1.46063e-18
      244.400   1.36339e-18
      244.500   1.27243e-18
      244.600   1.18739e-18
      244.700   1.10806e-18
      244.800   1.03418e-18
      244.900   9.65127e-19
      245.000   9.00533e-19
      245.100   8.40156e-19
      245.200   7.83749e-19
      245.300   7.31026e-19
      245.400   6.81740e-19
      245.500   6.35713e-19
      245.600   5.92708e-19
      245.700   5.52526e-19
      245.800   5.14988e-19
      245.900   4.80115e-19
      246.000   4.47609e-19
      246.100   4.17240e-19
      246.200   3.88881e-19
      246.300   3.62395e-19
      246.400   3.37673e-19
      246.500   3.14590e-19
      246.600   2.93043e-19
      246.700   2.72938e-19
      246.800   2.54167e-19
      246.900   2.36655e-19
      247.000   2.20397e-19
      247.100   2.05262e-19
      247.200   1.91141e-19
      247.300   1.77967e-19
      247.400   1.65675e-19
      247.500   1.54209e-19
      247.600   1.43517e-19
      247.700   1.33545e-19
      247.800   1.24248e-19
      247.900   1.15580e-19
      248.000   1.07502e-19
      248.100   1.00033e-19
      248.200   9.30676e-20
      248.300   8.65740e-20
      248.400   8.05216e-20
      248.500   7.48786e-20
      248.600   6.96207e-20
      248.700   6.47235e-20
      248.800   6.01608e-20
      248.900   5.59116e-20
      249.000   5.19542e-20
      249.100   4.82931e-20
      249.200   4.52936e-20
      249.300   4.28984e-20
      249.400   4.07266e-20
      249.500   3.86625e-20
      249.600   3.66999e-20
      249.700   3.48348e-20
      249.800   3.30623e-20
      249.900   3.13774e-20
      250.000   2.97771e-20
      250.100   2.82614e-20
      250.200   2.68233e-20
      250.300   2.54578e-20
      250.400   2.41602e-20
      250.500   2.29278e-20
      250.600   2.17570e-20
      250.700   2.06447e-20
      250.800   1.95882e-20
      250.900   1.85846e-20
      251.000   1.76316e-20
      251.100   1.67263e-20
      251.200   1.58681e-20
      251.300   1.50552e-20
      251.400   1.42829e-20
      251.500   1.35492e-20
      251.600   1.28527e-20
      251.700   1.21915e-20
      251.800   1.15636e-20
      251.900   1.09674e-20
      252.000   1.04011e-20
      252.100   9.86396e-21
      252.200   9.35369e-21
      252.300   8.87010e-21
      252.400   8.41189e-21
      252.500   7.97714e-21
      252.600   7.56431e-21
      252.700   7.17251e-21
      252.800   6.80065e-21
      252.900   6.44764e-21
      253.000   6.11264e-21
      253.100   5.79478e-21
      253.200   5.51912e-21
      253.300   5.36615e-21
      253.400   5.24220e-21
      253.500   5.12124e-21
      253.600   5.00311e-21
      253.700   4.88767e-21
      253.800   4.77490e-21
      253.900   4.66468e-21
      254.000   4.55698e-21
      254.100   4.45172e-21
      254.200   4.34886e-21
      254.300   4.24835e-21
      254.400   4.15012e-21
      254.500   4.05417e-21
      254.600   3.96034e-21
      254.700   3.86871e-21
      254.800   3.77928e-21
      254.900   3.69186e-21
      255.000   3.60644e-21
      255.100   3.52293e-21
      255.200   3.44135e-21
      255.300   3.36161e-21
      255.400   3.28369e-21
      255.500   3.20757e-21
      255.600   3.13316e-21
      255.700   3.06044e-21
      255.800   2.98938e-21
      255.900   2.91993e-21
      256.000   2.85205e-21
      256.100   2.78579e-21
      256.200   2.72103e-21
      256.300   2.65776e-21
      256.400   2.59597e-21
      256.500   2.53556e-21
      256.600   2.47651e-21
      256.700   2.41883e-21
      256.800   2.36246e-21
      256.900   2.30736e-21
      257.000   2.25352e-21
      257.100   2.20091e-21
      257.200   2.14953e-21
      257.300   2.09930e-21
      257.400   2.05064e-21
      257.500   2.00324e-21
      257.600   1.95697e-21
      257.700   1.91175e-21
      257.800   1.86755e-21
      257.900   1.82436e-21
      258.000   1.78214e-21
      258.100   1.74088e-21
      258.200   1.70056e-21
      258.300   1.66115e-21
      258.400   1.62263e-21
      258.500   1.58497e-21
      258.600   1.54819e-21
      258.700   1.51223e-21
      258.800   1.47709e-21
      258.900   1.44276e-21
      259.000   1.40921e-21
      259.100   1.37641e-21
      259.200   1.34439e-21
      259.300   1.31311e-21
      259.400   1.28255e-21
      259.500   1.25267e-21
      259.600   1.22350e-21
      259.700   1.19498e-21
      259.800   1.16711e-21
      259.900   1.13987e-21
      260.000   1.11327e-21
      260.100   1.08728e-21
      260.200   1.06188e-21
      260.300   1.03707e-21
      260.400   1.01283e-21
      260.500   9.89151e-22
      260.600   9.66004e-22
      260.700   9.43396e-22
      260.800   9.21322e-22
      260.900   8.99739e-22
      261.000   8.78670e-22
      261.100   8.58105e-22
      261.200   8.37999e-22
      261.300   8.18363e-22
      261.400   7.99187e-22
      261.500   7.80470e-22
      261.600   7.62252e-22
      261.700   7.44459e-22
      261.800   7.27083e-22
      261.900   7.10099e-22
      262.000   6.93510e-22
      262.100   6.77301e-22
      262.200   6.61476e-22
      262.300   6.46011e-22
      262.400   6.30909e-22
      262.500   6.16151e-22
      262.600   6.01735e-22
      262.700   5.87656e-22
      262.800   5.73902e-22
      262.900   5.60459e-22
      263.000   5.47346e-22
      263.100   5.34532e-22
      263.200   5.22024e-22
      263.300   5.09802e-22
      263.400   4.97864e-22
      263.500   4.86208e-22
      263.600   4.74824e-22
      263.700   4.63701e-22
      263.800   4.52837e-22
      263.900   4.42237e-22
      264.000   4.31875e-22
      264.100   4.21754e-22
      264.200   4.11867e-22
      264.300   4.02217e-22
      264.400   3.92792e-22
      264.500   3.83583e-22
      264.600   3.74591e-22
      264.700   3.65811e-22
      264.800   3.57231e-22
      264.900   3.48858e-22
      265.000   3.40678e-22
      265.100   3.32687e-22
      265.200   3.24885e-22
      265.300   3.17265e-22
      265.400   3.09829e-22
      265.500   3.02561e-22
      265.600   2.95467e-22
      265.700   2.89355e-22
      265.800   2.86843e-22
      265.900   2.84467e-22
      266.000   2.82109e-22
      266.100   2.79773e-22
      266.200   2.77456e-22
      266.300   2.75159e-22
      266.400   2.72882e-22
      266.500   2.70624e-22
      266.600   2.68385e-22
      266.700   2.66162e-22
      266.800   2.63962e-22
      266.900   2.61781e-22
      267.000   2.59618e-22
      267.100   2.57473e-22
      267.200   2.55348e-22
      267.300   2.53240e-22
      267.400   2.51149e-22
      267.500   2.49078e-22
      267.600   2.47024e-22
      267.700   2.44988e-22
      267.800   2.42967e-22
      267.900   2.40965e-22
      268.000   2.38983e-22
      268.100   2.37018e-22
      268.200   2.35069e-22
      268.300   2.33138e-22
      268.400   2.31221e-22
      268.500   2.29320e-22
      268.600   2.27436e-22
      268.700   2.25572e-22
      268.800   2.23722e-22
      268.900   2.21887e-22
      269.000   2.20071e-22
      269.100   2.18266e-22
      269.200   2.16481e-22
      269.300   2.14710e-22
      269.400   2.12954e-22
      269.500   2.11213e-22
      269.600   2.09490e-22
      269.700   2.07776e-22
      269.800   2.06082e-22
      269.900   2.04400e-22
      270.000   2.02735e-22
      270.100   2.01091e-22
      270.200   1.99462e-22
      270.300   1.97849e-22
      270.400   1.96247e-22
      270.500   1.94660e-22
      270.600   1.93084e-22
      270.700   1.91526e-22
      270.800   1.89978e-22
      270.900   1.88444e-22
      271.000   1.86924e-22
      271.100   1.85415e-22
      271.200   1.83919e-22
      271.300   1.82436e-22
      271.400   1.80965e-22
      271.500   1.79508e-22
      271.600   1.78062e-22
      271.700   1.76627e-22
      271.800   1.75205e-22
      271.900   1.73795e-22
      272.000   1.72396e-22
      272.100   1.71009e-22
      272.200   1.69633e-22
      272.300   1.68267e-22
      272.400   1.66913e-22
      272.500   1.65571e-22
      272.600   1.64240e-22
      272.700   1.62919e-22
      272.800   1.61607e-22
      272.900   1.60308e-22
      273.000   1.59019e-22
      273.100   1.57739e-22
      273.200   1.56471e-22
      273.300   1.55213e-22
      273.400   1.53964e-22
      273.500   1.52724e-22
      273.600   1.51495e-22
      273.700   1.50275e-22
      273.800   1.49064e-22
      273.900   1.47864e-22
      274.000   1.46674e-22
      274.100   1.45492e-22
      274.200   1.44318e-22
      274.300   1.43155e-22
      274.400   1.41966e-22
      274.500   1.40705e-22
      274.600   1.39439e-22
      274.700   1.38184e-22
      274.800   1.36940e-22
      274.900   1.35707e-22
      275.000   1.34483e-22
      275.100   1.33270e-22
      275.200   1.32067e-22
      275.300   1.30873e-22
      275.400   1.29691e-22
      275.500   1.28518e-22
      275.600   1.27355e-22
      275.700   1.26201e-22
      275.800   1.25057e-22
      275.900   1.23924e-22
      276.000   1.22800e-22
      276.100   1.21684e-22
      276.200   1.20577e-22
      276.300   1.19480e-22
      276.400   1.18393e-22
      276.500   1.17314e-22
      276.600   1.16245e-22
      276.700   1.15184e-22
      276.800   1.14132e-22
      276.900   1.13088e-22
      277.000   1.12053e-22
      277.100   1.11027e-22
      277.200   1.10009e-22
      277.300   1.09000e-22
      277.400   1.07999e-22
      277.500   1.07006e-22
      277.600   1.06021e-22
      277.700   1.05044e-22
      277.800   1.04074e-22
      277.900   1.03115e-22
      278.000   1.02163e-22
      278.100   1.01218e-22
      278.200   1.00282e-22
      278.300   9.93532e-23
      278.400   9.84322e-23
      278.500   9.75181e-23
      278.600   9.66116e-23
      278.700   9.57136e-23
      278.800   9.48613e-23
      278.900   9.41948e-23
      279.000   9.35363e-23
      279.100   9.28815e-23
      279.200   9.22289e-23
      279.300   9.15814e-23
      279.400   9.09366e-23
      279.500   9.02949e-23
      279.600   8.96577e-23
      279.700   8.90235e-23
      279.800   8.83932e-23
      279.900   8.77669e-23
      280.000   8.71434e-23
      280.100   8.65229e-23
      280.200   8.59065e-23
      280.300   8.52933e-23
      280.400   8.46841e-23
      280.500   8.40781e-23
      280.600   8.34756e-23
      280.700   8.28767e-23
      280.800   8.22808e-23
      280.900   8.16881e-23
      281.000   8.10993e-23
      281.100   8.05135e-23
      281.200   7.99313e-23
      281.300   7.93525e-23
      281.400   7.87774e-23
      281.500   7.82055e-23
      281.600   7.76360e-23
      281.700   7.70702e-23
      281.800   7.65088e-23
      281.900   7.59502e-23
      282.000   7.53944e-23
      282.100   7.48423e-23
      282.200   7.42942e-23
      282.300   7.37481e-23
      282.400   7.32056e-23
      282.500   7.26660e-23
      282.600   7.21307e-23
      282.700   7.15984e-23
      282.800   7.10686e-23
      282.900   7.05433e-23
      283.000   7.00208e-23
      283.100   6.95005e-23
      283.200   6.89846e-23
      283.300   6.86113e-23
      283.400   6.90000e-23
      283.500   6.94819e-23
      283.600   6.99652e-23
      283.700   7.04512e-23
      283.800   7.09386e-23
      283.900   7.14273e-23
      284.000   7.19180e-23
      284.100   7.24102e-23
      284.200   7.29052e-23
      284.300   7.34026e-23
      284.400   7.39009e-23
      284.500   7.44011e-23
      284.600   7.49041e-23
      284.700   7.54082e-23
      284.800   7.59142e-23
      284.900   7.64230e-23
      285.000   7.69330e-23
      285.100   7.74449e-23
      285.200   7.79582e-23
      285.300   7.84744e-23
      285.400   7.89932e-23
      285.500   7.95124e-23
      285.600   8.00349e-23
      285.700   8.05584e-23
      285.800   8.10845e-23
      285.900   8.16126e-23
      286.000   8.21417e-23
      286.100   8.26744e-23
      286.200   8.32091e-23
      286.300   8.37460e-23
      286.400   8.42836e-23
      286.500   8.48240e-23
      286.600   8.53665e-23
      286.700   8.59109e-23
      286.800   8.64578e-23
      286.900   8.70074e-23
      287.000   8.75582e-23
      287.100   8.81113e-23
      287.200   8.86666e-23
      287.300   8.92232e-23
      287.400   8.97827e-23
      287.500   9.03448e-23
      287.600   9.09090e-23
      287.700   9.14759e-23
      287.800   9.20447e-23
      287.900   9.26162e-23
      288.000   9.31906e-23
      288.100   9.37683e-23
      288.200   9.43472e-23
      288.300   9.49291e-23
      288.400   9.55155e-23
      288.500   9.61019e-23
      288.600   9.66914e-23
      288.700   9.72840e-23
      288.800   9.78781e-23
      288.900   9.84744e-23
      289.000   9.90742e-23
      289.100   9.96755e-23
      289.200   1.00278e-22
      289.300   1.00885e-22
      289.400   1.01495e-22
      289.500   1.02106e-22
      289.600   1.02720e-22
      289.700   1.03337e-22
      289.800   1.03956e-22
      289.900   1.04576e-22
      290.000   1.05202e-22
      290.100   1.05827e-22
      290.200   1.06458e-22
      290.300   1.07090e-22
      290.400   1.07724e-22
      290.500   1.08362e-22
      290.600   1.09001e-22
      290.700   1.09644e-22
      290.800   1.10289e-22
      290.900   1.10937e-22
      291.000   1.11588e-22
      291.100   1.12241e-22
      291.200   1.12896e-22
      291.300   1.13556e-22
      291.400   1.14216e-22
      291.500   1.14879e-22
      291.600   1.15546e-22
      291.700   1.16214e-22
      291.800   1.16886e-22
      291.900   1.17560e-22
      292.000   1.18239e-22
      292.100   1.18920e-22
      292.200   1.19602e-22
      292.300   1.20287e-22
      292.400   1.20975e-22
      292.500   1.21666e-22
      292.600   1.22358e-22
      292.700   1.23049e-22
      292.800   1.23744e-22
      292.900   1.24440e-22
      293.000   1.25139e-22
      293.100   1.25842e-22
      293.200   1.26546e-22
      293.300   1.27252e-22
      293.400   1.27962e-22
      293.500   1.28675e-22
      293.600   1.29390e-22
      293.700   1.30108e-22
      293.800   1.30829e-22
      293.900   1.31551e-22
      294.000   1.32276e-22
      294.100   1.33004e-22
      294.200   1.33734e-22
      294.300   1.34467e-22
      294.400   1.35203e-22
      294.500   1.35940e-22
      294.600   1.36680e-22
      294.700   1.37423e-22
      294.800   1.38168e-22
      294.900   1.38914e-22
      295.000   1.39665e-22
      295.100   1.40419e-22
      295.200   1.41174e-22
      295.300   1.41930e-22
      295.400   1.42690e-22
      295.500   1.43451e-22
      295.600   1.44215e-22
      295.700   1.44980e-22
      295.800   1.45748e-22
      295.900   1.46518e-22
      296.000   1.47292e-22
      296.100   1.48066e-22
      296.200   1.48844e-22
      296.300   1.49622e-22
      296.400   1.50403e-22
      296.500   1.51186e-22
      296.600   1.51972e-22
      296.700   1.52758e-22
      296.800   1.53547e-22
      296.900   1.54339e-22
      297.000   1.55132e-22
      297.100   1.55927e-22
      297.200   1.56818e-22
      297.300   1.58417e-22
      297.400   1.61765e-22
      297.500   1.65178e-22
      297.600   1.68658e-22
      297.700   1.72211e-22
      297.800   1.75828e-22
      297.900   1.79515e-22
      298.000   1.83268e-22
      298.100   1.87092e-22
      298.200   1.90987e-22
      298.300   1.94955e-22
      298.400   1.98997e-22
      298.500   2.03114e-22
      298.600   2.07309e-22
      298.700   2.11578e-22
      298.800   2.15926e-22
      298.900   2.20360e-22
      299.000   2.24877e-22
      299.100   2.29476e-22
      299.200   2.34160e-22
      299.300   2.38926e-22
      299.400   2.43780e-22
      299.500   2.48722e-22
      299.600   2.53749e-22
      299.700   2.58866e-22
      299.800   2.64078e-22
      299.900   2.69382e-22
      300.000   2.74777e-22
      300.100   2.80277e-22
      300.192   2.85422e-22
      300.285   2.90708e-22
      300.377   2.96022e-22
      300.470   3.01482e-22
      300.562   3.06967e-22
      300.654   3.12542e-22
      300.747   3.18276e-22
      300.839   3.24033e-22
      300.932   3.29946e-22
      301.025   3.35962e-22
      301.117   3.42002e-22
      301.210   3.48203e-22
      301.303   3.54513e-22
      301.395   3.60841e-22
      301.488   3.67351e-22
      301.581   3.73951e-22
      301.674   3.80666e-22
      301.766   3.87408e-22
      301.859   3.94338e-22
      301.952   4.01368e-22
      302.045   4.08515e-22
      302.138   4.28358e-22
      302.231   4.54337e-22
      302.324   4.82013e-22
      302.417   5.11320e-22
      302.510   5.42306e-22
      302.603   5.75043e-22
      302.696   6.09669e-22
      302.789   6.46298e-22
      302.882   6.85001e-22
      302.976   7.26345e-22
      303.069   7.69576e-22
      303.162   8.15244e-22
      303.255   8.63486e-22
      303.349   9.15000e-22
      303.442   9.68846e-22
      303.535   1.02563e-21
      303.629   1.08624e-21
      303.722   1.14957e-21
      303.816   1.21712e-21
      303.909   1.28767e-21
      304.003   1.36287e-21
      304.096   1.44141e-21
      304.190   1.52513e-21
      304.283   1.61248e-21
      304.377   1.70548e-21
      304.471   1.80364e-21
      304.564   1.90600e-21
      304.658   2.01501e-21
      304.752   2.13003e-21
      304.846   2.25110e-21
      304.939   2.37732e-21
      305.033   2.51171e-21
      305.127   2.65323e-21
      305.221   2.80224e-21
      305.315   2.95927e-21
      305.409   3.12447e-21
      305.503   3.29838e-21
      305.597   3.48152e-21
      305.691   3.67413e-21
      305.785   3.87694e-21
      305.879   4.09021e-21
      305.973   4.31435e-21
      306.067   4.55031e-21
      306.161   4.79830e-21
      306.255   5.05904e-21
      306.350   5.33613e-21
      306.444   5.62434e-21
      306.538   5.92734e-21
      306.633   6.24895e-21
      306.727   6.58353e-21
      306.821   6.93496e-21
      306.916   7.30790e-21
      307.010   7.69751e-21
      307.105   8.11276e-21
      307.199   8.54463e-21
      307.294   9.00313e-21
      307.388   9.47948e-21
      307.483   9.98494e-21
      307.577   1.05102e-20
      307.672   1.10673e-20
      307.767   1.16520e-20
      307.861   1.22588e-20
      307.956   1.29029e-20
      308.051   1.35786e-20
      308.146   1.42874e-20
      308.240   1.50225e-20
      308.335   1.58016e-20
      308.430   1.66189e-20
      308.525   1.74763e-20
      308.620   1.83744e-20
      308.715   1.93161e-20
      308.810   2.03031e-20
      308.905   2.13372e-20
      309.000   2.24200e-20
      309.095   2.35549e-20
      309.190   2.47434e-20
      309.285   2.59884e-20
      309.380   2.72920e-20
      309.476   2.86710e-20
      309.571   3.01002e-20
      309.666   3.15972e-20
      309.761   3.31628e-20
      309.857   3.48182e-20
      309.952   3.65327e-20
      310.047   3.83253e-20
      310.143   4.02214e-20
      310.238   4.21840e-20
      310.334   4.42576e-20
      310.429   4.64054e-20
      310.525   4.86720e-20
      310.620   5.10185e-20
      310.716   5.34967e-20
      310.811   5.60602e-20
      310.907   5.87651e-20
      311.003   6.15920e-20
      311.098   6.45161e-20
      311.194   6.76027e-20
      311.290   7.08273e-20
      311.386   7.41940e-20
      311.481   7.76730e-20
      311.577   8.13414e-20
      311.673   8.51745e-20
      311.769   8.91757e-20
      311.865   9.33479e-20
      311.961   9.77240e-20
      312.057   1.02331e-19
      312.153   1.07150e-19
      312.249   1.12182e-19
      312.345   1.17435e-19
      312.441   1.22918e-19
      312.537   1.28636e-19
      312.633   1.34602e-19
      312.730   1.40896e-19
      312.826   1.47393e-19
      312.922   1.54166e-19
      313.018   1.61232e-19
      313.115   1.68678e-19
      313.211   1.76366e-19
      313.307   1.84378e-19
      313.404   1.92816e-19
      313.500   2.01524e-19
      313.597   2.10691e-19
      313.693   2.20140e-19
      313.790   2.30095e-19
      313.886   2.40359e-19
      313.983   2.51166e-19
      314.079   2.62308e-19
      314.176   2.74025e-19
      314.273   2.86232e-19
      314.369   2.98813e-19
      314.466   3.12047e-19
      314.563   3.25826e-19
      314.660   3.40157e-19
      314.756   3.54931e-19
      314.853   3.70459e-19
      314.950   3.86619e-19
      315.047   4.03431e-19
      315.144   4.20930e-19
      315.241   4.39126e-19
      315.338   4.58059e-19
      315.435   4.77741e-19
      315.532   4.98208e-19
      315.629   5.19483e-19
      315.726   5.41603e-19
      315.823   5.64615e-19
      315.921   5.88756e-19
      316.018   6.13611e-19
      316.115   6.39437e-19
      316.212   6.66271e-19
      316.310   6.94433e-19
      316.407   7.23387e-19
      316.504   7.53478e-19
      316.602   7.85044e-19
      316.699   8.17497e-19
      316.796   8.51170e-19
      316.894   8.86505e-19
      316.991   9.22858e-19
      317.089   9.61245e-19
      317.187   1.00127e-18
      317.284   1.04239e-18
      317.382   1.08551e-18
      317.479   1.12984e-18
      317.577   1.17629e-18
      317.675   1.22449e-18
      317.773   1.27456e-18
      317.870   1.32597e-18
      317.968   1.37989e-18
      318.066   1.43581e-18
      318.164   1.49383e-18
      318.262   1.55400e-18
      318.360   1.61645e-18
      318.458   1.68119e-18
      318.556   1.74830e-18
      318.654   1.81790e-18
      318.752   1.89003e-18
      318.850   1.96481e-18
      318.948   2.04236e-18
      319.046   2.12273e-18
      319.144   2.20602e-18
      319.242   2.29229e-18
      319.341   2.38262e-18
      319.439   2.47525e-18
      319.537   2.57119e-18
      319.635   2.67058e-18
      319.734   2.77454e-18
      319.832   2.88113e-18
      319.930   2.99151e-18
      320.029   3.10694e-18
      320.127   3.22523e-18
      320.226   3.34897e-18
      320.324   3.47578e-18
      320.423   3.60834e-18
      320.522   3.74552e-18
      320.620   3.88599e-18
      320.719   4.03285e-18
      320.818   4.18482e-18
      320.916   4.34042e-18
      321.015   4.50305e-18
      321.114   4.67120e-18
      321.213   4.84515e-18
      321.311   5.02315e-18
      321.410   5.20896e-18
      321.509   5.40120e-18
      321.608   5.59978e-18
      321.707   5.80516e-18
      321.806   6.01748e-18
      321.905   6.23676e-18
      322.004   6.46356e-18
      322.103   6.73098e-18
      322.202   7.06616e-18
      322.301   7.44191e-18
      322.401   7.84021e-18
      322.500   8.25398e-18
      322.599   8.68780e-18
      322.698   9.14265e-18
      322.798   9.62473e-18
      322.897   1.01251e-17
      322.996   1.06493e-17
      323.096   1.12045e-17
      323.195   1.17803e-17
      323.294   1.23833e-17
      323.394   1.30212e-17
      323.493   1.36828e-17
      323.593   1.43826e-17
      323.692   1.51077e-17
      323.792   1.58742e-17
      323.892   1.66764e-17
      323.991   1.75078e-17
      324.091   1.83860e-17
      324.191   1.93052e-17
      324.291   2.02660e-17
      324.390   2.12601e-17
      324.490   2.23112e-17
      324.590   2.34086e-17
      324.690   2.45555e-17
      324.790   2.57545e-17
      324.890   2.70068e-17
      324.990   2.83157e-17
      325.090   2.96831e-17
      325.190   3.11095e-17
      325.290   3.25985e-17
      325.390   3.41542e-17
      325.490   3.57768e-17
      325.590   3.74695e-17
      325.690   3.92362e-17
      325.790   4.10787e-17
      325.891   4.30200e-17
      325.991   4.50241e-17
      326.091   4.71144e-17
      326.192   4.93150e-17
      326.292   5.15861e-17
      326.392   5.39516e-17
      326.493   5.64419e-17
      326.593   5.90107e-17
      326.694   6.17109e-17
      326.794   6.44969e-17
      326.895   6.74270e-17
      326.995   7.04476e-17
      327.096   7.36208e-17
      327.197   7.69251e-17
      327.297   8.03352e-17
      327.398   8.39292e-17
      327.499   8.76754e-17
      327.599   9.15359e-17
      327.700   9.55906e-17
      327.801   9.98059e-17
      327.902   1.04189e-16
      328.003   1.08748e-16
      328.104   1.13488e-16
      328.205   1.18414e-16
      328.306   1.23532e-16
      328.407   1.28848e-16
      328.508   1.34372e-16
      328.609   1.40109e-16
      328.710   1.46064e-16
      328.811   1.52249e-16
      328.912   1.58671e-16
      329.013   1.65334e-16
      329.115   1.72319e-16
      329.216   1.79498e-16
      329.317   1.86942e-16
      329.419   1.94740e-16
      329.520   2.02752e-16
      329.621   2.11059e-16
      329.723   2.19762e-16
      329.824   2.28681e-16
      329.926   2.38023e-16
      330.027   2.47614e-16
      330.129   2.57650e-16
      330.230   2.67938e-16
      330.332   2.78708e-16
      330.434   2.89857e-16
      330.535   3.01294e-16
      330.637   3.13249e-16
      330.739   3.25615e-16
      330.840   3.38295e-16
      330.942   3.51550e-16
      331.044   3.65263e-16
      331.146   3.79447e-16
      331.248   3.94121e-16
      331.350   4.09296e-16
      331.452   4.25000e-16
      331.554   4.41465e-16
      331.656   4.58888e-16
      331.758   4.76918e-16
      331.860   4.95589e-16
      331.962   5.14905e-16
      332.064   5.34889e-16
      332.166   5.55557e-16
      332.268   5.76944e-16
      332.371   5.99270e-16
      332.473   6.22138e-16
      332.575   6.44795e-16
      332.677   6.64884e-16
      332.780   6.83057e-16
      332.882   7.01485e-16
      332.985   7.20516e-16
      333.087   7.39811e-16
      333.190   7.59739e-16
      333.292   7.79693e-16
      333.395   7.99672e-16
      333.497   8.19625e-16
      333.600   8.40199e-16
      333.702   8.60997e-16
      333.805   8.82419e-16
      333.908   9.04322e-16
      334.011   9.26656e-16
      334.113   9.49220e-16
      334.216   9.72481e-16
      334.319   9.96209e-16
      334.422   1.02042e-15
      334.525   1.04512e-15
      334.628   1.07032e-15
      334.731   1.09600e-15
      334.834   1.12220e-15
      334.937   1.14893e-15
      335.040   1.17619e-15
      335.143   1.20396e-15
      335.246   1.23228e-15
      335.349   1.26113e-15
      335.452   1.29054e-15
      335.555   1.32051e-15
      335.659   1.35136e-15
      335.762   1.38251e-15
      335.865   1.41422e-15
      335.969   1.44685e-15
      336.072   1.47978e-15
      336.175   1.51329e-15
      336.279   1.54776e-15
      336.382   1.58253e-15
      336.486   1.61830e-15
      336.589   1.65434e-15
      336.693   1.69141e-15
      336.796   1.72874e-15
      336.900   1.76717e-15
      337.004   1.80629e-15
      337.107   1.84565e-15
      337.211   1.88616e-15
      337.315   1.92735e-15
      337.419   1.96928e-15
      337.523   2.01191e-15
      337.626   2.05486e-15
      337.730   2.09900e-15
      337.834   2.14387e-15
      337.938   2.18942e-15
      338.042   2.23543e-15
      338.146   2.28217e-15
      338.250   2.32968e-15
      338.354   2.37800e-15
      338.458   2.42711e-15
      338.562   2.47703e-15
      338.667   2.52824e-15
      338.771   2.57980e-15
      338.875   2.63217e-15
      338.979   2.68540e-15
      339.084   2.73997e-15
      339.188   2.79486e-15
      339.292   2.85067e-15
      339.397   2.90789e-15
      339.501   2.96544e-15
      339.606   3.02450e-15
      339.710   3.08383e-15
      339.815   3.14471e-15
      339.919   3.20588e-15
      340.024   3.26864e-15
      340.128   3.33166e-15
      340.233   3.39634e-15
      340.338   3.46193e-15
      340.442   3.52788e-15
      340.547   3.59545e-15
      340.652   3.66404e-15
      340.757   3.73362e-15
      340.862   3.80423e-15
      340.966   3.87517e-15
      341.071   3.94777e-15
      341.176   4.02147e-15
      341.281   4.09623e-15
      341.386   4.17203e-15
      341.491   4.24894e-15
      341.596   4.32693e-15
      341.702   4.40679e-15
      341.807   4.48692e-15
      341.912   4.56822e-15
      342.017   4.65067e-15
      342.122   4.73423e-15
      342.228   4.81966e-15
      342.333   4.90551e-15
      342.438   4.99253e-15
      342.544   5.08151e-15
      342.649   5.17082e-15
      342.754   5.26134e-15
      342.860   5.35391e-15
      342.965   5.44690e-15
      343.071   5.54185e-15
      343.176   5.63724e-15
      343.282   5.73481e-15
      343.388   5.83359e-15
      343.493   5.93330e-15
      343.599   6.04036e-15
      343.705   6.14952e-15
      343.810   6.25906e-15
      343.916   6.37115e-15
      344.022   6.48487e-15
      344.128   6.60006e-15
      344.234   6.71693e-15
      344.340   6.83530e-15
      344.446   6.95530e-15
      344.552   7.07693e-15
      344.658   7.20029e-15
      344.764   7.32506e-15
      344.870   7.45170e-15
      344.976   7.57983e-15
      345.082   7.70977e-15
      345.188   7.84135e-15
      345.294   7.97468e-15
      345.401   8.11102e-15
      345.507   8.24780e-15
      345.613   8.38628e-15
      345.719   8.52659e-15
      345.826   8.67005e-15
      345.932   8.81394e-15
      346.039   8.96099e-15
      346.145   9.10852e-15
      346.252   9.25928e-15
      346.358   9.41049e-15
      346.465   9.56486e-15
      346.571   9.71986e-15
      346.678   9.87814e-15
      346.785   1.00384e-14
      346.891   1.01990e-14
      346.998   1.03630e-14
      347.105   1.05291e-14
      347.212   1.06972e-14
      347.319   1.08672e-14
      347.425   1.10376e-14
      347.532   1.12118e-14
      347.639   1.13878e-14
      347.746   1.15659e-14
      347.853   1.17463e-14
      347.960   1.19285e-14
      348.067   1.21129e-14
      348.174   1.22993e-14
      348.281   1.24877e-14
      348.389   1.26803e-14
      348.496   1.28729e-14
      348.603   1.30680e-14
      348.710   1.32650e-14
      348.818   1.34662e-14
      348.925   1.36663e-14
      349.032   1.38006e-14
      349.140   1.37716e-14
      349.247   1.37428e-14
      349.355   1.37137e-14
      349.462   1.36849e-14
      349.570   1.36557e-14
      349.677   1.36268e-14
      349.785   1.35976e-14
      349.892   1.35686e-14
      350.000   1.35395e-14
      350.100   1.35125e-14
      350.193   1.34873e-14
      350.287   1.34618e-14
      350.380   1.34366e-14
      350.473   1.34114e-14
      350.567   1.33859e-14
      350.660   1.33606e-14
      350.754   1.33352e-14
      350.847   1.33100e-14
      350.941   1.32844e-14
      351.034   1.32591e-14
      351.128   1.32337e-14
      351.221   1.32084e-14
      351.315   1.31829e-14
      351.409   1.31573e-14
      351.502   1.31320e-14
      351.596   1.31064e-14
      351.690   1.30808e-14
      351.783   1.30555e-14
      351.877   1.30300e-14
      351.971   1.30044e-14
      352.065   1.29788e-14
      352.159   1.29533e-14
      352.252   1.29280e-14
      352.346   1.29023e-14
      352.440   1.28767e-14
      352.534   1.28511e-14
      352.628   1.28256e-14
      352.722   1.28000e-14
      352.816   1.27744e-14
      352.910   1.27487e-14
      353.004   1.27232e-14
      353.098   1.26975e-14
      353.192   1.26719e-14
      353.287   1.26460e-14
      353.381   1.26203e-14
      353.475   1.25948e-14
      353.569   1.25691e-14
      353.663   1.25434e-14
      353.758   1.25176e-14
      353.852   1.24920e-14
      353.946   1.24663e-14
      354.041   1.24404e-14
      354.135   1.24148e-14
      354.229   1.23890e-14
      354.324   1.23632e-14
      354.418   1.23374e-14
      354.513   1.23115e-14
      354.607   1.22859e-14
      354.702   1.22411e-14
      354.796   1.21849e-14
      354.891   1.21272e-14
      354.985   1.20704e-14
      355.080   1.20133e-14
      355.175   1.19563e-14
      355.269   1.19002e-14
      355.364   1.18438e-14
      355.459   1.17876e-14
      355.553   1.17323e-14
      355.648   1.16766e-14
      355.743   1.16211e-14
      355.838   1.15658e-14
      355.933   1.15108e-14
      356.027   1.14566e-14
      356.122   1.14021e-14
      356.217   1.13477e-14
      356.312   1.12936e-14
      356.407   1.12397e-14
      356.502   1.11861e-14
      356.597   1.11326e-14
      356.692   1.10795e-14
      356.787   1.10265e-14
      356.882   1.09737e-14
      356.977   1.09212e-14
      357.073   1.08683e-14
      357.168   1.08161e-14
      357.263   1.07642e-14
      357.358   1.07125e-14
      357.453   1.06610e-14
      357.549   1.06092e-14
      357.644   1.05582e-14
      357.739   1.05073e-14
      357.835   1.04561e-14
      357.930   1.04056e-14
      358.025   1.03554e-14
      358.121   1.03048e-14
      358.216   1.02549e-14
      358.312   1.02048e-14
      358.407   1.01553e-14
      358.503   1.01056e-14
      358.598   1.00565e-14
      358.694   1.00071e-14
      358.790   9.95796e-15
      358.885   9.90945e-15
      358.981   9.86068e-15
      359.076   9.81255e-15
      359.172   9.76419e-15
      359.268   9.71590e-15
      359.364   9.66786e-15
      359.459   9.62055e-15
      359.555   9.57292e-15
      359.651   9.52539e-15
      359.747   9.47807e-15
      359.843   9.43097e-15
      359.939   9.38402e-15
      360.035   9.33731e-15
      360.131   9.29074e-15
      360.227   9.24433e-15
      360.323   9.19815e-15
      360.419   9.20508e-15
      360.515   9.25906e-15
      360.611   9.32213e-15
      360.707   9.38539e-15
      360.803   9.44863e-15
      360.899   9.51211e-15
      360.995   9.57572e-15
      361.092   9.64007e-15
      361.188   9.70390e-15
      361.284   9.76781e-15
      361.380   9.83184e-15
      361.477   9.89666e-15
      361.573   9.96093e-15
      361.669   1.00252e-14
      361.766   1.00903e-14
      361.862   1.01547e-14
      361.959   1.02200e-14
      362.055   1.02846e-14
      362.152   1.03500e-14
      362.248   1.04148e-14
      362.345   1.04803e-14
      362.441   1.05453e-14
      362.538   1.06109e-14
      362.635   1.06766e-14
      362.731   1.07416e-14
      362.828   1.08074e-14
      362.925   1.08732e-14
      363.021   1.09384e-14
      363.118   1.10043e-14
      363.215   1.10702e-14
      363.312   1.11361e-14
      363.409   1.12021e-14
      363.505   1.12673e-14
      363.602   1.13334e-14
      363.699   1.13994e-14
      363.796   1.14653e-14
      363.893   1.15313e-14
      363.990   1.15972e-14
      364.087   1.16632e-14
      364.184   1.17291e-14
      364.281   1.17950e-14
      364.378   1.18610e-14
      364.475   1.19268e-14
      364.573   1.19933e-14
      364.670   1.20590e-14
      364.767   1.21247e-14
      364.864   1.21904e-14
      364.961   1.22560e-14
      365.059   1.23222e-14
      365.156   1.23876e-14
      365.253   1.24531e-14
      365.351   1.25191e-14
      365.448   1.25843e-14
      365.545   1.26495e-14
      365.643   1.27153e-14
      365.740   1.27802e-14
      365.838   1.28458e-14
      365.935   1.29105e-14
      366.033   1.29759e-14
      366.130   1.30404e-14
      366.228   1.31297e-14
      366.326   1.32531e-14
      366.423   1.33866e-14
      366.521   1.35221e-14
      366.618   1.36569e-14
      366.716   1.37937e-14
      366.814   1.39310e-14
      366.912   1.40689e-14
      367.010   1.42076e-14
      367.107   1.43454e-14
      367.205   1.44852e-14
      367.303   1.46255e-14
      367.401   1.47664e-14
      367.499   1.49079e-14
      367.597   1.50500e-14
      367.695   1.51924e-14
      367.793   1.53354e-14
      367.891   1.54791e-14
      367.989   1.56234e-14
      368.087   1.57680e-14
      368.185   1.59131e-14
      368.283   1.60587e-14
      368.381   1.62050e-14
      368.480   1.63530e-14
      368.578   1.65001e-14
      368.676   1.66476e-14
      368.774   1.67955e-14
      368.873   1.69454e-14
      368.971   1.70942e-14
      369.069   1.72436e-14
      369.168   1.73948e-14
      369.266   1.75447e-14
      369.364   1.76951e-14
      369.463   1.78476e-14
      369.561   1.79987e-14
      369.660   1.81517e-14
      369.758   1.83034e-14
      369.857   1.84572e-14
      369.955   1.86097e-14
      370.054   1.87640e-14
      370.153   1.89186e-14
      370.251   1.90720e-14
      370.350   1.92273e-14
      370.449   1.93827e-14
      370.547   1.95368e-14
      370.646   1.96929e-14
      370.745   1.98491e-14
      370.844   2.00056e-14
      370.943   2.01623e-14
      371.041   2.03175e-14
      371.140   2.04745e-14
      371.239   2.06318e-14
      371.338   2.07893e-14
      371.437   2.09468e-14
      371.536   2.11043e-14
      371.635   2.12621e-14
      371.734   2.14201e-14
      371.833   2.15781e-14
      371.932   2.17362e-14
      372.032   2.18961e-14
      372.131   2.22073e-14
      372.230   2.28459e-14
      372.329   2.36660e-14
      372.428   2.45092e-14
      372.528   2.53844e-14
      372.627   2.62748e-14
      372.726   2.71896e-14
      372.826   2.81390e-14
      372.925   2.91046e-14
      373.024   3.00954e-14
      373.124   3.11228e-14
      373.223   3.21655e-14
      373.323   3.32467e-14
      373.422   3.43447e-14
      373.522   3.54815e-14
      373.621   3.66344e-14
      373.721   3.78289e-14
      373.820   3.90394e-14
      373.920   4.02921e-14
      374.020   4.15761e-14
      374.119   4.28756e-14
      374.219   4.42207e-14
      374.319   4.55963e-14
      374.419   4.70027e-14
      374.518   4.84278e-14
      374.618   4.98996e-14
      374.718   5.14051e-14
      374.818   5.29417e-14
      374.918   5.45116e-14
      375.018   5.61173e-14
      375.118   5.77560e-14
      375.218   5.94300e-14
      375.318   6.11389e-14
      375.418   6.28835e-14
      375.518   6.46622e-14
      375.618   6.64766e-14
      375.718   6.83275e-14
      375.818   7.02145e-14
      375.918   7.21383e-14
      376.019   7.41188e-14
      376.119   7.61180e-14
      376.219   7.81527e-14
      376.319   8.02268e-14
      376.420   8.23586e-14
      376.520   8.45073e-14
      376.620   8.66941e-14
      376.721   8.89427e-14
      376.821   9.12067e-14
      376.922   9.35516e-14
      377.022   9.61510e-14
      377.122   9.90649e-14
      377.223   1.02072e-13
      377.323   1.05111e-13
      377.424   1.08247e-13
      377.525   1.11445e-13
      377.625   1.14674e-13
      377.726   1.18001e-13
      377.827   1.21395e-13
      377.927   1.24821e-13
      378.028   1.28344e-13
      378.129   1.31937e-13
      378.230   1.35597e-13
      378.330   1.39286e-13
      378.431   1.43079e-13
      378.532   1.46938e-13
      378.633   1.50868e-13
      378.734   1.54866e-13
      378.835   1.58929e-13
      378.936   1.63062e-13
      379.037   1.67262e-13
      379.138   1.71530e-13
      379.239   1.75868e-13
      379.340   1.80273e-13
      379.441   1.84747e-13
      379.542   1.89289e-13
      379.643   1.93898e-13
      379.745   1.98623e-13
      379.846   2.03370e-13
      379.947   2.08182e-13
      380.048   2.13060e-13
      380.150   2.18059e-13
      380.251   2.23075e-13
      380.352   2.28154e-13
      380.454   2.33350e-13
      380.555   2.38564e-13
      380.656   2.43841e-13
      380.758   2.49238e-13
      380.859   2.54644e-13
      380.961   2.60166e-13
      381.062   2.65698e-13
      381.164   2.71352e-13
      381.266   2.77067e-13
      381.367   2.82788e-13
      381.469   2.88627e-13
      381.570   2.94466e-13
      381.672   3.00423e-13
      381.774   3.06444e-13
      381.876   3.12519e-13
      381.977   3.18676e-13
      382.079   3.25228e-13
      382.181   3.32084e-13
      382.283   3.39008e-13
      382.385   3.46005e-13
      382.487   3.53077e-13
      382.589   3.60208e-13
      382.691   3.67406e-13
      382.793   3.74671e-13
      382.895   3.82005e-13
      382.997   3.89402e-13
      383.099   3.96860e-13
      383.201   4.04375e-13
      383.303   4.11959e-13
      383.405   4.19594e-13
      383.507   4.27283e-13
      383.610   4.35108e-13
      383.712   4.42916e-13
      383.814   4.50767e-13
      383.916   4.58674e-13
      384.019   4.66710e-13
      384.121   4.74719e-13
      384.223   4.82768e-13
      384.326   4.90947e-13
      384.428   4.99079e-13
      384.531   5.07332e-13
      384.633   5.15548e-13
      384.736   5.23885e-13
      384.838   5.32175e-13
      384.941   5.40584e-13
      385.043   5.48945e-13
      385.146   5.57422e-13
      385.249   5.65927e-13
      385.351   5.74382e-13
      385.454   5.82950e-13
      385.557   5.91536e-13
      385.660   6.00157e-13
      385.762   6.08709e-13
      385.865   6.17366e-13
      385.968   6.26047e-13
      386.071   6.34745e-13
      386.174   6.43461e-13
      386.277   6.52185e-13
      386.380   6.60920e-13
      386.483   6.69669e-13
      386.586   6.78425e-13
      386.689   6.87191e-13
      386.792   6.95962e-13
      386.895   7.04734e-13
      386.998   7.13509e-13
      387.101   7.19001e-13
      387.204   7.13192e-13
      387.308   7.03567e-13
      387.411   6.94163e-13
      387.514   6.84886e-13
      387.617   6.75739e-13
      387.721   6.66628e-13
      387.824   6.57725e-13
      387.927   6.48936e-13
      388.031   6.40187e-13
      388.134   6.31642e-13
      388.238   6.23132e-13
      388.341   6.14812e-13
      388.445   6.06527e-13
      388.548   5.98427e-13
      388.652   5.90365e-13
      388.755   5.82488e-13
      388.859   5.74639e-13
      388.962   5.66971e-13
      389.066   5.59328e-13
      389.170   5.51796e-13
      389.274   5.44361e-13
      389.377   5.37094e-13
      389.481   5.29852e-13
      389.585   5.22713e-13
      389.689   5.15667e-13
      389.793   5.08714e-13
      389.897   5.01859e-13
      390.000   4.95156e-13
      390.104   4.88483e-13
      390.208   4.81894e-13
      390.312   4.75396e-13
      390.416   4.68981e-13
      390.520   4.62646e-13
      390.625   4.56335e-13
      390.729   4.50175e-13
      390.833   4.44092e-13
      390.937   4.38092e-13
      391.041   4.32175e-13
      391.145   4.26336e-13
      391.250   4.20518e-13
      391.354   4.14831e-13
      391.458   4.09217e-13
      391.563   4.03626e-13
      391.667   3.98164e-13
      391.771   3.92777e-13
      391.876   3.87410e-13
      391.980   3.82167e-13
      392.085   3.76946e-13
      392.189   3.71845e-13
      392.294   3.66765e-13
      392.398   3.61803e-13
      392.503   3.56861e-13
      392.607   3.52033e-13
      392.712   3.47226e-13
      392.817   3.42481e-13
      392.921   3.37850e-13
      393.026   3.33236e-13
      393.131   3.28687e-13
      393.236   3.24196e-13
      393.340   3.19812e-13
      393.445   3.15447e-13
      393.550   3.11140e-13
      393.655   3.06892e-13
      393.760   3.02704e-13
      393.865   2.98571e-13
      393.970   2.94499e-13
      394.075   2.90478e-13
      394.180   2.86516e-13
      394.285   2.82607e-13
      394.390   2.78752e-13
      394.495   2.74948e-13
      394.600   2.71198e-13
      394.706   2.67465e-13
      394.811   2.63818e-13
      394.916   2.60219e-13
      395.021   2.56670e-13
      395.126   2.53173e-13
      395.232   2.49688e-13
      395.337   2.46284e-13
      395.443   2.42896e-13
      395.548   2.39586e-13
      395.653   2.36322e-13
      395.759   2.33071e-13
      395.864   2.29896e-13
      395.970   2.26735e-13
      396.075   2.23647e-13
      396.181   2.20572e-13
      396.286   2.17567e-13
      396.392   2.14578e-13
      396.498   2.11630e-13
      396.603   2.08747e-13
      396.709   2.05879e-13
      396.815   2.03049e-13
      396.921   2.00257e-13
      397.026   1.97532e-13
      397.132   1.94817e-13
      397.238   1.92142e-13
      397.344   1.89500e-13
      397.450   1.86900e-13
      397.556   1.84331e-13
      397.662   1.81798e-13
      397.768   1.79300e-13
      397.874   1.76835e-13
      397.980   1.74404e-13
      398.086   1.72006e-13
      398.192   1.69642e-13
      398.298   1.67309e-13
      398.404   1.65009e-13
      398.510   1.62740e-13
      398.617   1.60483e-13
      398.723   1.58277e-13
      398.829   1.56099e-13
      398.935   1.53952e-13
      399.042   1.51816e-13
      399.148   1.49727e-13
      399.255   1.47649e-13
      399.361   1.45618e-13
      399.467   1.43613e-13
      399.574   1.41620e-13
      399.680   1.39670e-13
      399.787   1.37729e-13
      399.893       0.00000
      400.000       0.00000
