Filter Ti-poly
observation_date 22-Sept-2023 22:45:45
wavelength effective area
      1.00000   2.76776e-10
      1.10000   7.88638e-10
      1.20000   2.04568e-09
      1.30000   4.87933e-09
      1.40000   1.10399e-08
      1.50000   2.34772e-08
      1.60000   4.73585e-08
      1.70000   9.15812e-08
      1.80000   1.69776e-07
      1.90000   3.03738e-07
      2.00000   5.25447e-07
      2.10000   8.82845e-07
      2.20000   1.44759e-06
      2.30000   2.31334e-06
      2.40000   3.60944e-06
      2.50000   5.78519e-06
      2.60000   8.95635e-06
      2.70000   1.33526e-05
      2.80000   1.95262e-05
      2.90000   2.82609e-05
      3.00000   4.02650e-05
      3.10000   5.66310e-05
      3.20000   7.87803e-05
      3.30000   0.000108479
      3.40000   0.000147819
      3.50000   0.000199477
      3.60000   0.000267953
      3.70000   0.000356117
      3.80000   0.000471334
      3.90000   0.000620375
      4.00000   0.000811471
      4.10000    0.00105653
      4.20000    0.00137069
      4.30000    0.00177323
      4.40000    0.00228791
      4.50000    0.00294390
      4.60000    0.00377531
      4.70000    0.00484142
      4.80000    0.00620231
      4.90000    0.00784366
      5.00000     0.0101807
      5.10000     0.0130279
      5.20000     0.0167210
      5.30000     0.0212796
      5.40000     0.0270380
      5.50000     0.0344150
      5.60000     0.0424614
      5.70000     0.0551937
      5.80000     0.0647051
      5.90000     0.0987924
      6.00000      0.132798
      6.10000      0.169724
      6.20000      0.208414
      6.30000      0.245313
      6.40000      0.276970
      6.50000      0.300273
      6.60000      0.310808
      6.70000      0.320491
      6.80000      0.320910
      6.90000      0.420999
      7.00000      0.457817
      7.10000      0.484163
      7.20000      0.505082
      7.30000      0.522133
      7.40000      0.535137
      7.50000      0.545476
      7.60000      0.553260
      7.70000      0.557023
      7.80000      0.555689
      7.90000      0.555015
      8.00000      0.802385
      8.10000      0.878026
      8.20000      0.891926
      8.30000      0.901742
      8.40000      0.908081
      8.50000      0.912973
      8.60000      0.916137
      8.70000      0.918175
      8.80000      0.918787
      8.90000      0.918438
      9.00000      0.917063
      9.10000      0.914711
      9.20000      0.911567
      9.30000      0.907550
      9.40000      0.902805
      9.50000      0.897390
      9.60000      0.891258
      9.70000      0.884516
      9.80000      0.877311
      9.90000      0.869673
      10.0000      0.861663
      10.1000      0.853291
      10.2000      0.844582
      10.3000      0.835483
      10.4000      0.826020
      10.5000      0.816219
      10.6000      0.806119
      10.7000      0.795745
      10.8000      0.785105
      10.9000      0.774233
      11.0000      0.763141
      11.1000      0.751865
      11.2000      0.740410
      11.3000      0.728807
      11.4000      0.717054
      11.5000      0.705151
      11.6000      0.693119
      11.7000      0.680905
      11.8000      0.668588
      11.9000      0.656092
      12.0000      0.642736
      12.1000      0.631724
      12.2000      0.631774
      12.3000      0.625142
      12.4000      0.613891
      12.5000      0.602261
      12.6000      0.590497
      12.7000      0.578698
      12.8000      0.566900
      12.9000      0.555117
      13.0000      0.543388
      13.1000      0.531746
      13.2000      0.520205
      13.3000      0.508779
      13.4000      0.497487
      13.5000      0.486456
      13.6000      0.475664
      13.7000      0.464998
      13.8000      0.454454
      13.9000      0.444053
      14.0000      0.433791
      14.1000      0.423655
      14.2000      0.413646
      14.3000      0.403762
      14.4000      0.393992
      14.5000      0.384349
      14.6000      0.374836
      14.7000      0.365443
      14.8000      0.356176
      14.9000      0.347035
      15.0000      0.338024
      15.1000      0.329150
      15.2000      0.320437
      15.3000      0.311869
      15.4000      0.303439
      15.5000      0.295151
      15.6000      0.287021
      15.7000      0.279047
      15.8000      0.271266
      15.9000      0.263648
      16.0000      0.256191
      16.1000      0.248898
      16.2000      0.241804
      16.3000      0.234863
      16.4000      0.228059
      16.5000      0.221389
      16.6000      0.214866
      16.7000      0.208493
      16.8000      0.202244
      16.9000      0.196117
      17.0000      0.190134
      17.1000      0.184293
      17.2000      0.178566
      17.3000      0.172959
      17.4000      0.167596
      17.5000      0.162444
      17.6000      0.157472
      17.7000      0.152708
      17.8000      0.148243
      17.9000      0.143876
      18.0000      0.139577
      18.1000      0.135389
      18.2000      0.131243
      18.3000      0.127129
      18.4000      0.123040
      18.5000      0.118986
      18.6000      0.114952
      18.7000      0.110924
      18.8000      0.107007
      18.9000      0.103173
      19.0000     0.0994545
      19.1000     0.0958576
      19.2000     0.0923489
      19.3000     0.0889809
      19.4000     0.0857258
      19.5000     0.0825557
      19.6000     0.0795462
      19.7000     0.0766206
      19.8000     0.0737711
      19.9000     0.0710626
      20.0000     0.0684128
      20.1000     0.0658430
      20.2000     0.0633605
      20.3000     0.0609285
      20.4000     0.0585919
      20.5000     0.0563132
      20.6000     0.0540872
      20.7000     0.0519533
      20.8000     0.0498599
      20.9000     0.0478386
      21.0000     0.0459706
      21.1000     0.0442207
      21.2000     0.0428216
      21.3000     0.0415238
      21.4000     0.0404444
      21.5000     0.0396112
      21.6000     0.0390255
      21.7000     0.0384117
      21.8000     0.0377882
      21.9000     0.0370857
      22.0000     0.0363353
      22.1000     0.0354667
      22.2000     0.0343870
      22.3000     0.0331260
      22.4000     0.0311974
      22.5000     0.0290669
      22.6000     0.0244760
      22.7000     0.0216561
      22.8000     0.0278117
      22.9000     0.0355478
      23.0000     0.0445677
      23.1000     0.0500363
      23.2000     0.0521288
      23.3000     0.0519484
      23.4000     0.0506237
      23.5000     0.0492691
      23.6000     0.0479123
      23.7000     0.0464733
      23.8000     0.0450357
      23.9000     0.0436360
      24.0000     0.0422455
      24.1000     0.0408763
      24.2000     0.0395240
      24.3000     0.0382169
      24.4000     0.0369279
      24.5000     0.0356763
      24.6000     0.0344480
      24.7000     0.0332626
      24.8000     0.0321005
      24.9000     0.0309768
      25.0000     0.0298779
      25.1000     0.0288187
      25.2000     0.0277827
      25.3000     0.0267839
      25.4000     0.0258078
      25.5000     0.0248706
      25.6000     0.0239540
      25.7000     0.0230766
      25.8000     0.0222161
      25.9000     0.0213951
      26.0000     0.0205870
      26.1000     0.0198188
      26.2000     0.0190595
      26.3000     0.0183429
      26.4000     0.0176307
      26.5000     0.0169619
      26.6000     0.0162969
      26.7000     0.0156707
      26.8000     0.0150529
      26.9000     0.0144654
      27.0000     0.0138895
      27.1000     0.0133354
      27.2000     0.0127963
      27.3000     0.0551570
      27.4000      0.150895
      27.5000      0.220520
      27.6000      0.216861
      27.7000      0.213216
      27.8000      0.209496
      27.9000      0.205795
      28.0000      0.202164
      28.1000      0.198563
      28.2000      0.195020
      28.3000      0.191523
      28.4000      0.188067
      28.5000      0.184675
      28.6000      0.181308
      28.7000      0.178049
      28.8000      0.174806
      28.9000      0.171630
      29.0000      0.168485
      29.1000      0.165385
      29.2000      0.162333
      29.3000      0.159306
      29.4000      0.156350
      29.5000      0.153410
      29.6000      0.150535
      29.7000      0.147688
      29.8000      0.144884
      29.9000      0.142130
      30.0000      0.139395
      30.1000      0.136732
      30.2000      0.134085
      30.3000      0.136657
      30.4000      0.142189
      30.5000      0.145950
      30.6000      0.143251
      30.7000      0.140568
      30.8000      0.137946
      30.9000      0.135352
      31.0000      0.132793
      31.1000      0.130293
      31.2000      0.127806
      31.3000      0.125383
      31.4000      0.122984
      31.5000      0.120622
      31.6000      0.118321
      31.7000      0.116034
      31.8000      0.113801
      31.9000      0.111591
      32.0000      0.109392
      32.1000      0.107202
      32.2000      0.105025
      32.3000      0.102901
      32.4000      0.100809
      32.5000     0.0987377
      32.6000     0.0967497
      32.7000     0.0947758
      32.8000     0.0928427
      32.9000     0.0909479
      33.0000     0.0890645
      33.1000     0.0872904
      33.2000     0.0855425
      33.3000     0.0838181
      33.4000     0.0821400
      33.5000     0.0804731
      33.6000     0.0788460
      33.7000     0.0772495
      33.8000     0.0756622
      33.9000     0.0741271
      34.0000     0.0726068
      34.1000     0.0711135
      34.2000     0.0696630
      34.3000     0.0682205
      34.4000     0.0668062
      34.5000     0.0654258
      34.6000     0.0640532
      34.7000     0.0627116
      34.8000     0.0613885
      34.9000     0.0600728
      35.0000     0.0588053
      35.1000     0.0575492
      35.2000     0.0563083
      35.3000     0.0551420
      35.4000     0.0539823
      35.5000     0.0528405
      35.6000     0.0517334
      35.7000     0.0506324
      35.8000     0.0495549
      35.9000     0.0485050
      36.0000     0.0474609
      36.1000     0.0464446
      36.2000     0.0454498
      36.3000     0.0444606
      36.4000     0.0435019
      36.5000     0.0425598
      36.6000     0.0416231
      36.7000     0.0407192
      36.8000     0.0398283
      36.9000     0.0389427
      37.0000     0.0380906
      37.1000     0.0372490
      37.2000     0.0364121
      37.3000     0.0356092
      37.4000     0.0348149
      37.5000     0.0340252
      37.6000     0.0332685
      37.7000     0.0325194
      37.8000     0.0317747
      37.9000     0.0310619
      38.0000     0.0303565
      38.1000     0.0296553
      38.2000     0.0289834
      38.3000     0.0283196
      38.4000     0.0276598
      38.5000     0.0270266
      38.6000     0.0264028
      38.7000     0.0257826
      38.8000     0.0251859
      38.9000     0.0246002
      39.0000     0.0240179
      39.1000     0.0234555
      39.2000     0.0229062
      39.3000     0.0223602
      39.4000     0.0218299
      39.5000     0.0213153
      39.6000     0.0208038
      39.7000     0.0203036
      39.8000     0.0198224
      39.9000     0.0193440
      40.0000     0.0188723
      40.1000     0.0184231
      40.2000     0.0179767
      40.3000     0.0175330
      40.4000     0.0171127
      40.5000     0.0166960
      40.6000     0.0162818
      40.7000     0.0158852
      40.8000     0.0154967
      40.9000     0.0151106
      41.0000     0.0147360
      41.1000     0.0143741
      41.2000     0.0140144
      41.3000     0.0136606
      41.4000     0.0133245
      41.5000     0.0129904
      41.6000     0.0126584
      41.7000     0.0123439
      41.8000     0.0120335
      41.9000     0.0117250
      42.0000     0.0114278
      42.1000     0.0111401
      42.2000     0.0108542
      42.3000     0.0105728
      42.4000     0.0103063
      42.5000     0.0100413
      42.6000    0.00977802
      42.7000    0.00952804
      42.8000    0.00928273
      42.9000    0.00903892
      43.0000    0.00880194
      43.1000    0.00857526
      43.2000    0.00835000
      43.3000    0.00812613
      43.4000     0.0247793
      43.5000     0.0456018
      43.6000     0.0724231
      43.7000     0.0961181
      43.8000      0.106518
      43.9000      0.107852
      44.0000      0.105819
      44.1000      0.100621
      44.2000     0.0989467
      44.3000     0.0975809
      44.4000     0.0962362
      44.5000     0.0949180
      44.6000     0.0936033
      44.7000     0.0922919
      44.8000     0.0910225
      44.9000     0.0897619
      45.0000     0.0885045
      45.1000     0.0872619
      45.2000     0.0860503
      45.3000     0.0848419
      45.4000     0.0836365
      45.5000     0.0824608
      45.6000     0.0813005
      45.7000     0.0801433
      45.8000     0.0789904
      45.9000     0.0778769
      46.0000     0.0767662
      46.1000     0.0756583
      46.2000     0.0746002
      46.3000     0.0736256
      46.4000     0.0726536
      46.5000     0.0716839
      46.6000     0.0707494
      46.7000     0.0698336
      46.8000     0.0689202
      46.9000     0.0680090
      47.0000     0.0671459
      47.1000     0.0662882
      47.2000     0.0654327
      47.3000     0.0645848
      47.4000     0.0637648
      47.5000     0.0629468
      47.6000     0.0621309
      47.7000     0.0613307
      47.8000     0.0605541
      47.9000     0.0597794
      48.0000     0.0590068
      48.1000     0.0582515
      48.2000     0.0575100
      48.3000     0.0567703
      48.4000     0.0560326
      48.5000     0.0553213
      48.6000     0.0546218
      48.7000     0.0539240
      48.8000     0.0532279
      48.9000     0.0525550
      49.0000     0.0518880
      49.1000     0.0512227
      49.2000     0.0505591
      49.3000     0.0499181
      49.4000     0.0492804
      49.5000     0.0486442
      49.6000     0.0480096
      49.7000     0.0473977
      49.8000     0.0467878
      49.9000     0.0461795
      50.0000     0.0455733
      50.1000     0.0449859
      50.2000     0.0444122
      50.3000     0.0438452
      50.4000     0.0432845
      50.5000     0.0427297
      50.6000     0.0421815
      50.7000     0.0416399
      50.8000     0.0411043
      50.9000     0.0405753
      51.0000     0.0400528
      51.1000     0.0395367
      51.2000     0.0390263
      51.3000     0.0385227
      51.4000     0.0380258
      51.5000     0.0375333
      51.6000     0.0370461
      51.7000     0.0365639
      51.8000     0.0360824
      51.9000     0.0356060
      52.0000     0.0351347
      52.1000     0.0346690
      52.2000     0.0342083
      52.3000     0.0337523
      52.4000     0.0333031
      52.5000     0.0328591
      52.6000     0.0324098
      52.7000     0.0319554
      52.8000     0.0315059
      52.9000     0.0310626
      53.0000     0.0306253
      53.1000     0.0301927
      53.2000     0.0297661
      53.3000     0.0293446
      53.4000     0.0289278
      53.5000     0.0285166
      53.6000     0.0281105
      53.7000     0.0277089
      53.8000     0.0273125
      53.9000     0.0269210
      54.0000     0.0265347
      54.1000     0.0261544
      54.2000     0.0257785
      54.3000     0.0254064
      54.4000     0.0250392
      54.5000     0.0246764
      54.6000     0.0243183
      54.7000     0.0239658
      54.8000     0.0236180
      54.9000     0.0232741
      55.0000     0.0229346
      55.1000     0.0225988
      55.2000     0.0222570
      55.3000     0.0219113
      55.4000     0.0215702
      55.5000     0.0212331
      55.6000     0.0209008
      55.7000     0.0205731
      55.8000     0.0202496
      55.9000     0.0199309
      56.0000     0.0196196
      56.1000     0.0193088
      56.2000     0.0189987
      56.3000     0.0186932
      56.4000     0.0183916
      56.5000     0.0180941
      56.6000     0.0178013
      56.7000     0.0175127
      56.8000     0.0172279
      56.9000     0.0169476
      57.0000     0.0166781
      57.1000     0.0164167
      57.2000     0.0161588
      57.3000     0.0159044
      57.4000     0.0156533
      57.5000     0.0154057
      57.6000     0.0151615
      57.7000     0.0149206
      57.8000     0.0146836
      57.9000     0.0144504
      58.0000     0.0142203
      58.1000     0.0139930
      58.2000     0.0137689
      58.3000     0.0135480
      58.4000     0.0133301
      58.5000     0.0131155
      58.6000     0.0129043
      58.7000     0.0126960
      58.8000     0.0124905
      58.9000     0.0122879
      59.0000     0.0120881
      59.1000     0.0118913
      59.2000     0.0116973
      59.3000     0.0115063
      59.4000     0.0113181
      59.5000     0.0111327
      59.6000     0.0109500
      59.7000     0.0107698
      59.8000     0.0105922
      59.9000     0.0104170
      60.0000     0.0102449
      60.1000     0.0100752
      60.2000    0.00990787
      60.3000    0.00974315
      60.4000    0.00958097
      60.5000    0.00942133
      60.6000    0.00926381
      60.7000    0.00910842
      60.8000    0.00895525
      60.9000    0.00880417
      61.0000    0.00865550
      61.1000    0.00850930
      61.2000    0.00836531
      61.3000    0.00822346
      61.4000    0.00808377
      61.5000    0.00794622
      61.6000    0.00781063
      61.7000    0.00767750
      61.8000    0.00754869
      61.9000    0.00742266
      62.0000    0.00729850
      62.1000    0.00717619
      62.2000    0.00705593
      62.3000    0.00693748
      62.4000    0.00682070
      62.5000    0.00670562
      62.6000    0.00659228
      62.7000    0.00648107
      62.8000    0.00637659
      62.9000    0.00627379
      63.0000    0.00617254
      63.1000    0.00607277
      63.2000    0.00597436
      63.3000    0.00587732
      63.4000    0.00578173
      63.5000    0.00568765
      63.6000    0.00559488
      63.7000    0.00550343
      63.8000    0.00541343
      63.9000    0.00532483
      64.0000    0.00523753
      64.1000    0.00515153
      64.2000    0.00506694
      64.3000    0.00498366
      64.4000    0.00490155
      64.5000    0.00482056
      64.6000    0.00474072
      64.7000    0.00466206
      64.8000    0.00458456
      64.9000    0.00450822
      65.0000    0.00443310
      65.1000    0.00435930
      65.2000    0.00428665
      65.3000    0.00421502
      65.4000    0.00414443
      65.5000    0.00407485
      65.6000    0.00400626
      65.7000    0.00393873
      65.8000    0.00387229
      65.9000    0.00380697
      66.0000    0.00374273
      66.1000    0.00367952
      66.2000    0.00361726
      66.3000    0.00355593
      66.4000    0.00349552
      66.5000    0.00343599
      66.6000    0.00337733
      66.7000    0.00331960
      66.8000    0.00326286
      66.9000    0.00320741
      67.0000    0.00315317
      67.1000    0.00309980
      67.2000    0.00304725
      67.3000    0.00299557
      67.4000    0.00294465
      67.5000    0.00289449
      67.6000    0.00284511
      67.7000    0.00279651
      67.8000    0.00274862
      67.9000    0.00270128
      68.0000    0.00265468
      68.1000    0.00260890
      68.2000    0.00256384
      68.3000    0.00251949
      68.4000    0.00247586
      68.5000    0.00243292
      68.6000    0.00239069
      68.7000    0.00234915
      68.8000    0.00230826
      68.9000    0.00226860
      69.0000    0.00223274
      69.1000    0.00220035
      69.2000    0.00216894
      69.3000    0.00213835
      69.4000    0.00210896
      69.5000    0.00207903
      69.6000    0.00204822
      69.7000    0.00201868
      69.8000    0.00199055
      69.9000    0.00196282
      70.0000    0.00193539
      70.1000    0.00190778
      70.2000    0.00188153
      70.3000    0.00185662
      70.4000    0.00183182
      70.5000    0.00180766
      70.6000    0.00178410
      70.7000    0.00176086
      70.8000    0.00173787
      70.9000    0.00171436
      71.0000    0.00169040
      71.1000    0.00166754
      71.2000    0.00164578
      71.3000    0.00162273
      71.4000    0.00159810
      71.5000    0.00157540
      71.6000    0.00155551
      71.7000    0.00153549
      71.8000    0.00151482
      71.9000    0.00149487
      72.0000    0.00147641
      72.1000    0.00145756
      72.2000    0.00143597
      72.3000    0.00141476
      72.4000    0.00139614
      72.5000    0.00137780
      72.6000    0.00135971
      72.7000    0.00134186
      72.8000    0.00132424
      72.9000    0.00130684
      73.0000    0.00129008
      73.1000    0.00127372
      73.2000    0.00125758
      73.3000    0.00124163
      73.4000    0.00122604
      73.5000    0.00121090
      73.6000    0.00119597
      73.7000    0.00118122
      73.8000    0.00116666
      73.9000    0.00115226
      74.0000    0.00113812
      74.1000    0.00112526
      74.2000    0.00111289
      74.3000    0.00109952
      74.4000    0.00108546
      74.5000    0.00107181
      74.6000    0.00105882
      74.7000    0.00104601
      74.8000    0.00103341
      74.9000    0.00102108
      75.0000    0.00100881
      75.1000   0.000996633
      75.2000   0.000984581
      75.3000   0.000972660
      75.4000   0.000960990
      75.5000   0.000949706
      75.6000   0.000938557
      75.7000   0.000927541
      75.8000   0.000916671
      75.9000   0.000906067
      76.0000   0.000895707
      76.1000   0.000886127
      76.2000   0.000876743
      76.3000   0.000867469
      76.4000   0.000858461
      76.5000   0.000849560
      76.6000   0.000840738
      76.7000   0.000832000
      76.8000   0.000823346
      76.9000   0.000814785
      77.0000   0.000806320
      77.1000   0.000797953
      77.2000   0.000789679
      77.3000   0.000781488
      77.4000   0.000773374
      77.5000   0.000765316
      77.6000   0.000757162
      77.7000   0.000749088
      77.8000   0.000741090
      77.9000   0.000733163
      78.0000   0.000725206
      78.1000   0.000717018
      78.2000   0.000708937
      78.3000   0.000701636
      78.4000   0.000694661
      78.5000   0.000687681
      78.6000   0.000680554
      78.7000   0.000673497
      78.8000   0.000666241
      78.9000   0.000658990
      79.0000   0.000651813
      79.1000   0.000644706
      79.2000   0.000637687
      79.3000   0.000630956
      79.4000   0.000624374
      79.5000   0.000617795
      79.6000   0.000611058
      79.7000   0.000604383
      79.8000   0.000597660
      79.9000   0.000590948
      80.0000   0.000584277
      80.1000   0.000577417
      80.2000   0.000570615
      80.3000   0.000563606
      80.4000   0.000556411
      80.5000   0.000549287
      80.6000   0.000542251
      80.7000   0.000535298
      80.8000   0.000528471
      80.9000   0.000521823
      81.0000   0.000515250
      81.1000   0.000508759
      81.2000   0.000502347
      81.3000   0.000496023
      81.4000   0.000490272
      81.5000   0.000484616
      81.6000   0.000479165
      81.7000   0.000474073
      81.8000   0.000469050
      81.9000   0.000464278
      82.0000   0.000459661
      82.1000   0.000455106
      82.2000   0.000450436
      82.3000   0.000445815
      82.4000   0.000441349
      82.5000   0.000437092
      82.6000   0.000432864
      82.7000   0.000428541
      82.8000   0.000424105
      82.9000   0.000419703
      83.0000   0.000415390
      83.1000   0.000411140
      83.2000   0.000406933
      83.3000   0.000402770
      83.4000   0.000398655
      83.5000   0.000394600
      83.6000   0.000390692
      83.7000   0.000386821
      83.8000   0.000382958
      83.9000   0.000379062
      84.0000   0.000375199
      84.1000   0.000371434
      84.2000   0.000367796
      84.3000   0.000364190
      84.4000   0.000360571
      84.5000   0.000356951
      84.6000   0.000353365
      84.7000   0.000349883
      84.8000   0.000346475
      84.9000   0.000343104
      85.0000   0.000339669
      85.1000   0.000336241
      85.2000   0.000332849
      85.3000   0.000329639
      85.4000   0.000326484
      85.5000   0.000323360
      85.6000   0.000320192
      85.7000   0.000317048
      85.8000   0.000313932
      85.9000   0.000310842
      86.0000   0.000307778
      86.1000   0.000304744
      86.2000   0.000301834
      86.3000   0.000298954
      86.4000   0.000296100
      86.5000   0.000293271
      86.6000   0.000290467
      86.7000   0.000287687
      86.8000   0.000284709
      86.9000   0.000281754
      87.0000   0.000278831
      87.1000   0.000275987
      87.2000   0.000273177
      87.3000   0.000270398
      87.4000   0.000267567
      87.5000   0.000264749
      87.6000   0.000261954
      87.7000   0.000259232
      87.8000   0.000256545
      87.9000   0.000253882
      88.0000   0.000251243
      88.1000   0.000248628
      88.2000   0.000246041
      88.3000   0.000243538
      88.4000   0.000241114
      88.5000   0.000238720
      88.6000   0.000236330
      88.7000   0.000233933
      88.8000   0.000231563
      88.9000   0.000229212
      89.0000   0.000226874
      89.1000   0.000224559
      89.2000   0.000222277
      89.3000   0.000220050
      89.4000   0.000217886
      89.5000   0.000215742
      89.6000   0.000213618
      89.7000   0.000211511
      89.8000   0.000209421
      89.9000   0.000207346
      90.0000   0.000205290
      90.1000   0.000203254
      90.2000   0.000201188
      90.3000   0.000199031
      90.4000   0.000196894
      90.5000   0.000194782
      90.6000   0.000192732
      90.7000   0.000190695
      90.8000   0.000188657
      90.9000   0.000186595
      91.0000   0.000184541
      91.1000   0.000182509
      91.2000   0.000180469
      91.3000   0.000178403
      91.4000   0.000176353
      91.5000   0.000174325
      91.6000   0.000172319
      91.7000   0.000170515
      91.8000   0.000169009
      91.9000   0.000167850
      92.0000   0.000166493
      92.1000   0.000165103
      92.2000   0.000163612
      92.3000   0.000162035
      92.4000   0.000160413
      92.5000   0.000158809
      92.6000   0.000157221
      92.7000   0.000155649
      92.8000   0.000154092
      92.9000   0.000152571
      93.0000   0.000151111
      93.1000   0.000149663
      93.2000   0.000148229
      93.3000   0.000146867
      93.4000   0.000145537
      93.5000   0.000144218
      93.6000   0.000142906
      93.7000   0.000141596
      93.8000   0.000140286
      93.9000   0.000138986
      94.0000   0.000137696
      94.1000   0.000136416
      94.2000   0.000135148
      94.3000   0.000133904
      94.4000   0.000132709
      94.5000   0.000131529
      94.6000   0.000130360
      94.7000   0.000129203
      94.8000   0.000128055
      94.9000   0.000126917
      95.0000   0.000125787
      95.1000   0.000124668
      95.2000   0.000123556
      95.3000   0.000122450
      95.4000   0.000121358
      95.5000   0.000120295
      95.6000   0.000119239
      95.7000   0.000118192
      95.8000   0.000117139
      95.9000   0.000116087
      96.0000   0.000115042
      96.1000   0.000114004
      96.2000   0.000112974
      96.3000   0.000111954
      96.4000   0.000110942
      96.5000   0.000109939
      96.6000   0.000108950
      96.7000   0.000107971
      96.8000   0.000106997
      96.9000   0.000106029
      97.0000   0.000105070
      97.1000   0.000104123
      97.2000   0.000103184
      97.3000   0.000102237
      97.4000   0.000101287
      97.5000   0.000100347
      97.6000   9.94163e-05
      97.7000   9.85004e-05
      97.8000   9.75965e-05
      97.9000   9.67011e-05
      98.0000   9.58120e-05
      98.1000   9.49290e-05
      98.2000   9.40536e-05
      98.3000   9.32566e-05
      98.4000   9.25002e-05
      98.5000   9.17725e-05
      98.6000   9.10505e-05
      98.7000   9.03335e-05
      98.8000   8.96210e-05
      98.9000   8.89135e-05
      99.0000   8.82138e-05
      99.1000   8.75196e-05
      99.2000   8.68256e-05
      99.3000   8.61106e-05
      99.4000   8.54021e-05
      99.5000   8.46992e-05
      99.6000   8.40080e-05
      99.7000   8.33613e-05
      99.8000   8.27369e-05
      99.9000   8.22739e-05
      100.000   8.20553e-05
      100.100   8.18085e-05
      100.200   8.15613e-05
      100.300   8.13139e-05
      100.400   8.10666e-05
      100.500   8.08304e-05
      100.600   8.05930e-05
      100.700   8.03553e-05
      100.800   8.01170e-05
      100.900   7.98787e-05
      101.000   7.96407e-05
      101.100   7.94035e-05
      101.200   7.91673e-05
      101.300   7.89321e-05
      101.400   7.86979e-05
      101.500   7.84374e-05
      101.600   7.81433e-05
      101.700   7.78578e-05
      101.800   7.75752e-05
      101.900   7.72929e-05
      102.000   7.70125e-05
      102.100   7.67444e-05
      102.200   7.64824e-05
      102.300   7.62205e-05
      102.400   7.59590e-05
      102.500   7.56975e-05
      102.600   7.54356e-05
      102.700   7.51734e-05
      102.800   7.49111e-05
      102.900   7.46487e-05
      103.000   7.43865e-05
      103.100   7.41247e-05
      103.200   7.38638e-05
      103.300   7.36036e-05
      103.400   7.33441e-05
      103.500   7.30854e-05
      103.600   7.28271e-05
      103.700   7.25682e-05
      103.800   7.22923e-05
      103.900   7.19965e-05
      104.000   7.17003e-05
      104.100   7.14054e-05
      104.200   7.11196e-05
      104.300   7.08867e-05
      104.400   7.06561e-05
      104.500   7.04262e-05
      104.600   7.01960e-05
      104.700   6.99496e-05
      104.800   6.96965e-05
      104.900   6.94435e-05
      105.000   6.91910e-05
      105.100   6.89506e-05
      105.200   6.87396e-05
      105.300   6.85295e-05
      105.400   6.83196e-05
      105.500   6.81100e-05
      105.600   6.79074e-05
      105.700   6.77064e-05
      105.800   6.75051e-05
      105.900   6.73042e-05
      106.000   6.71131e-05
      106.100   6.69427e-05
      106.200   6.67736e-05
      106.300   6.66041e-05
      106.400   6.64343e-05
      106.500   6.62643e-05
      106.600   6.60943e-05
      106.700   6.59244e-05
      106.800   6.57543e-05
      106.900   6.55846e-05
      107.000   6.54149e-05
      107.100   6.52452e-05
      107.200   6.50758e-05
      107.300   6.49068e-05
      107.400   6.47367e-05
      107.500   6.45662e-05
      107.600   6.43963e-05
      107.700   6.42268e-05
      107.800   6.40583e-05
      107.900   6.38858e-05
      108.000   6.37134e-05
      108.100   6.35407e-05
      108.200   6.33674e-05
      108.300   6.31927e-05
      108.400   6.30123e-05
      108.500   6.28312e-05
      108.600   6.26496e-05
      108.700   6.24670e-05
      108.800   6.22686e-05
      108.900   6.20478e-05
      109.000   6.18266e-05
      109.100   6.16055e-05
      109.200   6.13845e-05
      109.300   6.11641e-05
      109.400   6.09441e-05
      109.500   6.07247e-05
      109.600   6.05060e-05
      109.700   6.02881e-05
      109.800   6.00712e-05
      109.900   5.98556e-05
      110.000   5.96409e-05
      110.100   5.94273e-05
      110.200   5.92143e-05
      110.300   5.90115e-05
      110.400   5.88099e-05
      110.500   5.86085e-05
      110.600   5.84071e-05
      110.700   5.82054e-05
      110.800   5.80034e-05
      110.900   5.78012e-05
      111.000   5.75987e-05
      111.100   5.73960e-05
      111.200   5.71941e-05
      111.300   5.70119e-05
      111.400   5.68299e-05
      111.500   5.66474e-05
      111.600   5.64650e-05
      111.700   5.62834e-05
      111.800   5.61142e-05
      111.900   5.59456e-05
      112.000   5.57773e-05
      112.100   5.56092e-05
      112.200   5.54415e-05
      112.300   5.52619e-05
      112.400   5.50825e-05
      112.500   5.49039e-05
      112.600   5.47261e-05
      112.700   5.45509e-05
      112.800   5.43884e-05
      112.900   5.41964e-05
      113.000   5.40148e-05
      113.100   5.38378e-05
      113.200   5.36550e-05
      113.300   5.34786e-05
      113.400   5.32342e-05
      113.500   5.29729e-05
      113.600   5.27711e-05
      113.700   5.25512e-05
      113.800   5.22914e-05
      113.900   5.20900e-05
      114.000   5.18885e-05
      114.100   5.16455e-05
      114.200   5.14236e-05
      114.300   5.12353e-05
      114.400   5.10383e-05
      114.500   5.08324e-05
      114.600   5.06702e-05
      114.700   5.04755e-05
      114.800   5.03032e-05
      114.900   5.01822e-05
      115.000   5.00243e-05
      115.100   4.98449e-05
      115.200   4.96634e-05
      115.300   4.95283e-05
      115.400   4.93490e-05
      115.500   4.91916e-05
      115.600   4.90155e-05
      115.700   4.88116e-05
      115.800   4.86451e-05
      115.900   4.84589e-05
      116.000   4.83051e-05
      116.100   4.82010e-05
      116.200   4.80928e-05
      116.300   4.79753e-05
      116.400   4.78414e-05
      116.500   4.77430e-05
      116.600   4.76332e-05
      116.700   4.75321e-05
      116.800   4.74202e-05
      116.900   4.72642e-05
      117.000   4.71576e-05
      117.100   4.71929e-05
      117.200   4.73283e-05
      117.300   4.73655e-05
      117.400   4.73962e-05
      117.500   4.74283e-05
      117.600   4.74026e-05
      117.700   4.73541e-05
      117.800   4.72752e-05
      117.900   4.71808e-05
      118.000   4.70572e-05
      118.100   4.69057e-05
      118.200   4.67763e-05
      118.300   4.66563e-05
      118.400   4.64260e-05
      118.500   4.62047e-05
      118.600   4.60343e-05
      118.700   4.58460e-05
      118.800   4.56333e-05
      118.900   4.54376e-05
      119.000   4.51820e-05
      119.100   4.48591e-05
      119.200   4.45966e-05
      119.300   4.43845e-05
      119.400   4.42004e-05
      119.500   4.40290e-05
      119.600   4.38180e-05
      119.700   4.35609e-05
      119.800   4.32121e-05
      119.900   4.27419e-05
      120.000   4.23118e-05
      120.100   4.19140e-05
      120.200   4.16682e-05
      120.300   4.15097e-05
      120.400   4.13504e-05
      120.500   4.10681e-05
      120.600   4.06927e-05
      120.700   4.02879e-05
      120.800   3.99036e-05
      120.900   3.96811e-05
      121.000   3.97107e-05
      121.100   3.96953e-05
      121.200   3.95531e-05
      121.300   3.93209e-05
      121.400   3.90201e-05
      121.500   3.86678e-05
      121.600   3.81143e-05
      121.700   3.76423e-05
      121.800   3.71000e-05
      121.900   3.65496e-05
      122.000   3.59521e-05
      122.100   3.53924e-05
      122.200   3.48405e-05
      122.300   3.44612e-05
      122.400   3.42682e-05
      122.500   3.41151e-05
      122.600   3.39382e-05
      122.700   3.37598e-05
      122.800   3.35393e-05
      122.900   3.33434e-05
      123.000   3.33658e-05
      123.100   3.37677e-05
      123.200   3.41962e-05
      123.300   3.48216e-05
      123.400   3.56112e-05
      123.500   3.66355e-05
      123.600   3.75297e-05
      123.700   3.80324e-05
      123.800   3.84243e-05
      123.900   3.89303e-05
      124.000   3.96213e-05
      124.100   4.09131e-05
      124.200   4.34871e-05
      124.300   4.73171e-05
      124.400   5.10284e-05
      124.500   5.21804e-05
      124.600   5.21427e-05
      124.700   5.19676e-05
      124.800   5.18064e-05
      124.900   5.16444e-05
      125.000   5.14806e-05
      125.100   5.13038e-05
      125.200   5.11256e-05
      125.300   5.09473e-05
      125.400   5.07693e-05
      125.500   5.05914e-05
      125.600   5.04137e-05
      125.700   5.02363e-05
      125.800   5.00591e-05
      125.900   4.98825e-05
      126.000   4.97063e-05
      126.100   4.95307e-05
      126.200   4.93557e-05
      126.300   4.91812e-05
      126.400   4.90073e-05
      126.500   4.88338e-05
      126.600   4.86610e-05
      126.700   4.84886e-05
      126.800   4.83166e-05
      126.900   4.81449e-05
      127.000   4.79721e-05
      127.100   4.77948e-05
      127.200   4.76155e-05
      127.300   4.74358e-05
      127.400   4.72562e-05
      127.500   4.70767e-05
      127.600   4.68973e-05
      127.700   4.67181e-05
      127.800   4.65389e-05
      127.900   4.63598e-05
      128.000   4.61809e-05
      128.100   4.60021e-05
      128.200   4.58235e-05
      128.300   4.56451e-05
      128.400   4.54669e-05
      128.500   4.52889e-05
      128.600   4.51110e-05
      128.700   4.49335e-05
      128.800   4.47563e-05
      128.900   4.45794e-05
      129.000   4.44030e-05
      129.100   4.42261e-05
      129.200   4.40471e-05
      129.300   4.38685e-05
      129.400   4.36906e-05
      129.500   4.35134e-05
      129.600   4.33369e-05
      129.700   4.31611e-05
      129.800   4.29859e-05
      129.900   4.28115e-05
      130.000   4.26377e-05
      130.100   4.24647e-05
      130.200   4.22921e-05
      130.300   4.21201e-05
      130.400   4.19487e-05
      130.500   4.17776e-05
      130.600   4.16069e-05
      130.700   4.14368e-05
      130.800   4.12671e-05
      130.900   4.10977e-05
      131.000   4.09287e-05
      131.100   4.07601e-05
      131.200   4.05915e-05
      131.300   4.04225e-05
      131.400   4.02539e-05
      131.500   4.00856e-05
      131.600   3.99177e-05
      131.700   3.97502e-05
      131.800   3.95829e-05
      131.900   3.94160e-05
      132.000   3.92495e-05
      132.100   3.90833e-05
      132.200   3.89175e-05
      132.300   3.87520e-05
      132.400   3.85870e-05
      132.500   3.84224e-05
      132.600   3.82583e-05
      132.700   3.80946e-05
      132.800   3.79314e-05
      132.900   3.77688e-05
      133.000   3.76067e-05
      133.100   3.74451e-05
      133.200   3.72840e-05
      133.300   3.71232e-05
      133.400   3.69626e-05
      133.500   3.68024e-05
      133.600   3.66425e-05
      133.700   3.64833e-05
      133.800   3.63244e-05
      133.900   3.61661e-05
      134.000   3.60082e-05
      134.100   3.58507e-05
      134.200   3.56937e-05
      134.300   3.55372e-05
      134.400   3.53811e-05
      134.500   3.52256e-05
      134.600   3.50706e-05
      134.700   3.49161e-05
      134.800   3.47620e-05
      134.900   3.46085e-05
      135.000   3.44555e-05
      135.100   3.43029e-05
      135.200   3.41509e-05
      135.300   3.39994e-05
      135.400   3.38484e-05
      135.500   3.36974e-05
      135.600   3.35466e-05
      135.700   3.33961e-05
      135.800   3.32461e-05
      135.900   3.30965e-05
      136.000   3.29475e-05
      136.100   3.27989e-05
      136.200   3.26509e-05
      136.300   3.25032e-05
      136.400   3.23560e-05
      136.500   3.22094e-05
      136.600   3.20631e-05
      136.700   3.19173e-05
      136.800   3.17719e-05
      136.900   3.16270e-05
      137.000   3.14825e-05
      137.100   3.13383e-05
      137.200   3.11945e-05
      137.300   3.10511e-05
      137.400   3.09081e-05
      137.500   3.07655e-05
      137.600   3.06289e-05
      137.700   3.05064e-05
      137.800   3.03949e-05
      137.900   3.02834e-05
      138.000   3.01722e-05
      138.100   3.00612e-05
      138.200   2.99505e-05
      138.300   2.98400e-05
      138.400   2.97298e-05
      138.500   2.96198e-05
      138.600   2.95102e-05
      138.700   2.94009e-05
      138.800   2.92919e-05
      138.900   2.91832e-05
      139.000   2.90749e-05
      139.100   2.89669e-05
      139.200   2.88592e-05
      139.300   2.87519e-05
      139.400   2.86450e-05
      139.500   2.85384e-05
      139.600   2.84321e-05
      139.700   2.83261e-05
      139.800   2.82206e-05
      139.900   2.81152e-05
      140.000   2.80099e-05
      140.100   2.79050e-05
      140.200   2.78003e-05
      140.300   2.76960e-05
      140.400   2.75919e-05
      140.500   2.74880e-05
      140.600   2.73844e-05
      140.700   2.72810e-05
      140.800   2.71779e-05
      140.900   2.70748e-05
      141.000   2.69718e-05
      141.100   2.68690e-05
      141.200   2.67664e-05
      141.300   2.66639e-05
      141.400   2.65614e-05
      141.500   2.64592e-05
      141.600   2.63570e-05
      141.700   2.62550e-05
      141.800   2.61531e-05
      141.900   2.60515e-05
      142.000   2.59500e-05
      142.100   2.58591e-05
      142.200   2.57981e-05
      142.300   2.57627e-05
      142.400   2.57271e-05
      142.500   2.56911e-05
      142.600   2.56550e-05
      142.700   2.56188e-05
      142.800   2.55824e-05
      142.900   2.55458e-05
      143.000   2.55091e-05
      143.100   2.54722e-05
      143.200   2.54352e-05
      143.300   2.53981e-05
      143.400   2.53608e-05
      143.500   2.53236e-05
      143.600   2.52862e-05
      143.700   2.52488e-05
      143.800   2.52113e-05
      143.900   2.51737e-05
      144.000   2.51360e-05
      144.100   2.50982e-05
      144.200   2.50604e-05
      144.300   2.50224e-05
      144.400   2.49871e-05
      144.500   2.49891e-05
      144.600   2.50026e-05
      144.700   2.50171e-05
      144.800   2.50312e-05
      144.900   2.50447e-05
      145.000   2.50579e-05
      145.100   2.50706e-05
      145.200   2.50827e-05
      145.300   2.50942e-05
      145.400   2.51053e-05
      145.500   2.51158e-05
      145.600   2.51257e-05
      145.700   2.51351e-05
      145.800   2.51439e-05
      145.900   2.51522e-05
      146.000   2.51599e-05
      146.100   2.51671e-05
      146.200   2.51738e-05
      146.300   2.51799e-05
      146.400   2.51855e-05
      146.500   2.51905e-05
      146.600   2.51950e-05
      146.700   2.51991e-05
      146.800   2.52012e-05
      146.900   2.52005e-05
      147.000   2.51994e-05
      147.100   2.51978e-05
      147.200   2.51958e-05
      147.300   2.51934e-05
      147.400   2.51907e-05
      147.500   2.51876e-05
      147.600   2.51842e-05
      147.700   2.51805e-05
      147.800   2.51764e-05
      147.900   2.51719e-05
      148.000   2.51671e-05
      148.100   2.51621e-05
      148.200   2.51569e-05
      148.300   2.51513e-05
      148.400   2.51454e-05
      148.500   2.51393e-05
      148.600   2.51328e-05
      148.700   2.51260e-05
      148.800   2.51188e-05
      148.900   2.51113e-05
      149.000   2.51035e-05
      149.100   2.50953e-05
      149.200   2.50865e-05
      149.300   2.50772e-05
      149.400   2.50676e-05
      149.500   2.50575e-05
      149.600   2.50469e-05
      149.700   2.50358e-05
      149.800   2.50244e-05
      149.900   2.50125e-05
      150.000   2.50003e-05
      150.100   2.49875e-05
      150.200   2.49741e-05
      150.300   2.49604e-05
      150.400   2.49462e-05
      150.500   2.49315e-05
      150.600   2.49164e-05
      150.700   2.49009e-05
      150.800   2.48849e-05
      150.900   2.48684e-05
      151.000   2.48513e-05
      151.100   2.48340e-05
      151.200   2.48162e-05
      151.300   2.47980e-05
      151.400   2.47794e-05
      151.500   2.47603e-05
      151.600   2.47412e-05
      151.700   2.47220e-05
      151.800   2.47026e-05
      151.900   2.46827e-05
      152.000   2.46625e-05
      152.100   2.46419e-05
      152.200   2.46211e-05
      152.300   2.45999e-05
      152.400   2.45784e-05
      152.500   2.45567e-05
      152.600   2.45346e-05
      152.700   2.45122e-05
      152.800   2.44896e-05
      152.900   2.44666e-05
      153.000   2.44434e-05
      153.100   2.44199e-05
      153.200   2.43961e-05
      153.300   2.43720e-05
      153.400   2.43476e-05
      153.500   2.43228e-05
      153.600   2.42978e-05
      153.700   2.42726e-05
      153.800   2.42469e-05
      153.900   2.42209e-05
      154.000   2.41857e-05
      154.100   2.41396e-05
      154.200   2.40918e-05
      154.300   2.40438e-05
      154.400   2.39956e-05
      154.500   2.39470e-05
      154.600   2.38982e-05
      154.700   2.38491e-05
      154.800   2.37997e-05
      154.900   2.37500e-05
      155.000   2.37001e-05
      155.100   2.36500e-05
      155.200   2.35995e-05
      155.300   2.35487e-05
      155.400   2.34977e-05
      155.500   2.34465e-05
      155.600   2.33949e-05
      155.700   2.33430e-05
      155.800   2.32910e-05
      155.900   2.32387e-05
      156.000   2.31861e-05
      156.100   2.31332e-05
      156.200   2.30802e-05
      156.300   2.30269e-05
      156.400   2.29733e-05
      156.500   2.29165e-05
      156.600   2.28516e-05
      156.700   2.27862e-05
      156.800   2.27205e-05
      156.900   2.26548e-05
      157.000   2.25889e-05
      157.100   2.25228e-05
      157.200   2.24566e-05
      157.300   2.23903e-05
      157.400   2.23238e-05
      157.500   2.22572e-05
      157.600   2.21904e-05
      157.700   2.21235e-05
      157.800   2.20565e-05
      157.900   2.19892e-05
      158.000   2.19219e-05
      158.100   2.18544e-05
      158.200   2.17867e-05
      158.300   2.17189e-05
      158.400   2.16510e-05
      158.500   2.15830e-05
      158.600   2.15148e-05
      158.700   2.14464e-05
      158.800   2.13780e-05
      158.900   2.13094e-05
      159.000   2.12407e-05
      159.100   2.11718e-05
      159.200   2.11027e-05
      159.300   2.10335e-05
      159.400   2.09642e-05
      159.500   2.08949e-05
      159.600   2.08255e-05
      159.700   2.07560e-05
      159.800   2.06864e-05
      159.900   2.06168e-05
      160.000   2.05471e-05
      160.100   2.04773e-05
      160.200   2.04075e-05
      160.300   2.03376e-05
      160.400   2.02677e-05
      160.500   2.01978e-05
      160.600   2.01278e-05
      160.700   2.00579e-05
      160.800   1.99878e-05
      160.900   1.99178e-05
      161.000   1.98477e-05
      161.100   1.97777e-05
      161.200   1.97077e-05
      161.300   1.96376e-05
      161.400   1.95675e-05
      161.500   1.94975e-05
      161.600   1.94273e-05
      161.700   1.93570e-05
      161.800   1.92867e-05
      161.900   1.92164e-05
      162.000   1.91460e-05
      162.100   1.90756e-05
      162.200   1.90052e-05
      162.300   1.89348e-05
      162.400   1.88643e-05
      162.500   1.87938e-05
      162.600   1.87233e-05
      162.700   1.86527e-05
      162.800   1.85821e-05
      162.900   1.85114e-05
      163.000   1.84407e-05
      163.100   1.83699e-05
      163.200   1.82991e-05
      163.300   1.82282e-05
      163.400   1.81573e-05
      163.500   1.80863e-05
      163.600   1.80153e-05
      163.700   1.79442e-05
      163.800   1.78732e-05
      163.900   1.78022e-05
      164.000   1.77310e-05
      164.100   1.76600e-05
      164.200   1.75889e-05
      164.300   1.75189e-05
      164.400   1.74489e-05
      164.500   1.73789e-05
      164.600   1.73090e-05
      164.700   1.72391e-05
      164.800   1.71693e-05
      164.900   1.70995e-05
      165.000   1.70298e-05
      165.100   1.69602e-05
      165.200   1.68906e-05
      165.300   1.68212e-05
      165.400   1.67519e-05
      165.500   1.66826e-05
      165.600   1.66135e-05
      165.700   1.65445e-05
      165.800   1.64756e-05
      165.900   1.64069e-05
      166.000   1.63383e-05
      166.100   1.62698e-05
      166.200   1.62015e-05
      166.300   1.61334e-05
      166.400   1.60653e-05
      166.500   1.59975e-05
      166.600   1.59298e-05
      166.700   1.58622e-05
      166.800   1.57935e-05
      166.900   1.57186e-05
      167.000   1.56382e-05
      167.100   1.55578e-05
      167.200   1.54776e-05
      167.300   1.53977e-05
      167.400   1.53181e-05
      167.500   1.52386e-05
      167.600   1.51594e-05
      167.700   1.50804e-05
      167.800   1.50016e-05
      167.900   1.49231e-05
      168.000   1.48447e-05
      168.100   1.47665e-05
      168.200   1.46885e-05
      168.300   1.46107e-05
      168.400   1.45331e-05
      168.500   1.44556e-05
      168.600   1.43784e-05
      168.700   1.43013e-05
      168.800   1.42244e-05
      168.900   1.41477e-05
      169.000   1.40712e-05
      169.100   1.39948e-05
      169.200   1.39187e-05
      169.300   1.38427e-05
      169.400   1.37669e-05
      169.500   1.36876e-05
      169.600   1.35920e-05
      169.700   1.34801e-05
      169.800   1.33678e-05
      169.900   1.32560e-05
      170.000   1.31449e-05
      170.100   1.30343e-05
      170.200   1.29243e-05
      170.300   1.70017e-05
      170.400   3.68533e-05
      170.500   7.03684e-05
      170.600   0.000104382
      170.700   0.000132110
      170.800   0.000145637
      170.900   0.000147072
      171.000   0.000145500
      171.100   0.000143935
      171.200   0.000142378
      171.300   0.000140827
      171.400   0.000139284
      171.500   0.000137748
      171.600   0.000136222
      171.700   0.000134705
      171.800   0.000133199
      171.900   0.000131705
      172.000   0.000130224
      172.100   0.000128758
      172.200   0.000127308
      172.300   0.000125869
      172.400   0.000124421
      172.500   0.000122985
      172.600   0.000121566
      172.700   0.000120164
      172.800   0.000118779
      172.900   0.000117411
      173.000   0.000116061
      173.100   0.000114727
      173.200   0.000113410
      173.300   0.000112109
      173.400   0.000110823
      173.500   0.000109554
      173.600   0.000108301
      173.700   0.000107063
      173.800   0.000105840
      173.900   0.000104632
      174.000   0.000103438
      174.100   0.000102258
      174.200   0.000101092
      174.300   9.99392e-05
      174.400   9.87997e-05
      174.500   9.76728e-05
      174.600   9.65576e-05
      174.700   9.54552e-05
      174.800   9.43648e-05
      174.900   9.32856e-05
      175.000   9.22172e-05
      175.100   9.11599e-05
      175.200   9.01172e-05
      175.300   8.90846e-05
      175.400   8.80623e-05
      175.500   8.70510e-05
      175.600   8.60500e-05
      175.700   8.50596e-05
      175.800   8.40790e-05
      175.900   8.31089e-05
      176.000   8.21488e-05
      176.100   8.11992e-05
      176.200   8.02593e-05
      176.300   7.93290e-05
      176.400   7.84092e-05
      176.500   7.74988e-05
      176.600   7.65979e-05
      176.700   7.57067e-05
      176.800   7.48250e-05
      176.900   7.39529e-05
      177.000   7.30900e-05
      177.100   7.22360e-05
      177.200   7.13915e-05
      177.300   7.05560e-05
      177.400   6.97290e-05
      177.500   6.89106e-05
      177.600   6.81011e-05
      177.700   6.73001e-05
      177.800   6.65076e-05
      177.900   6.57226e-05
      178.000   6.49502e-05
      178.100   6.41862e-05
      178.200   6.34299e-05
      178.300   6.26814e-05
      178.400   6.19411e-05
      178.500   6.12083e-05
      178.600   6.04830e-05
      178.700   5.97650e-05
      178.800   5.90549e-05
      178.900   5.83523e-05
      179.000   5.76569e-05
      179.100   5.69687e-05
      179.200   5.62880e-05
      179.300   5.56146e-05
      179.400   5.49485e-05
      179.500   5.42900e-05
      179.600   5.36385e-05
      179.700   5.29946e-05
      179.800   5.23578e-05
      179.900   5.17282e-05
      180.000   5.11056e-05
      180.100   5.04904e-05
      180.200   4.98825e-05
      180.300   4.92816e-05
      180.400   4.86878e-05
      180.500   4.81012e-05
      180.600   4.75215e-05
      180.700   4.69489e-05
      180.800   4.63710e-05
      180.900   4.57861e-05
      181.000   4.52048e-05
      181.100   4.46311e-05
      181.200   4.40645e-05
      181.300   4.35050e-05
      181.400   4.29529e-05
      181.500   4.24076e-05
      181.600   4.18693e-05
      181.700   4.13376e-05
      181.800   4.08127e-05
      181.900   4.02943e-05
      182.000   3.97827e-05
      182.100   3.92773e-05
      182.200   3.87784e-05
      182.300   3.82856e-05
      182.400   3.77990e-05
      182.500   3.73184e-05
      182.600   3.68435e-05
      182.700   3.63745e-05
      182.800   3.59113e-05
      182.900   3.54535e-05
      183.000   3.50015e-05
      183.100   3.45550e-05
      183.200   3.41139e-05
      183.300   3.36780e-05
      183.400   3.32474e-05
      183.500   3.28220e-05
      183.600   3.24019e-05
      183.700   3.19644e-05
      183.800   3.14455e-05
      183.900   3.09182e-05
      184.000   3.03993e-05
      184.100   2.98884e-05
      184.200   2.93857e-05
      184.300   2.88906e-05
      184.400   2.84034e-05
      184.500   2.79239e-05
      184.600   2.74517e-05
      184.700   2.69869e-05
      184.800   2.65294e-05
      184.900   2.60791e-05
      185.000   2.56358e-05
      185.100   2.51993e-05
      185.200   2.47696e-05
      185.300   2.43469e-05
      185.400   2.39307e-05
      185.500   2.35210e-05
      185.600   2.31177e-05
      185.700   2.27206e-05
      185.800   2.23300e-05
      185.900   2.19458e-05
      186.000   2.15673e-05
      186.100   2.11948e-05
      186.200   2.08282e-05
      186.300   2.04672e-05
      186.400   2.01118e-05
      186.500   1.97619e-05
      186.600   1.94175e-05
      186.700   1.90784e-05
      186.800   1.87445e-05
      186.900   1.84157e-05
      187.000   1.80921e-05
      187.100   1.77734e-05
      187.200   1.74598e-05
      187.300   1.71514e-05
      187.400   1.68477e-05
      187.500   1.65490e-05
      187.600   1.62549e-05
      187.700   1.59655e-05
      187.800   1.56806e-05
      187.900   1.54002e-05
      188.000   1.51244e-05
      188.100   1.48531e-05
      188.200   1.45860e-05
      188.300   1.43232e-05
      188.400   1.40647e-05
      188.500   1.38105e-05
      188.600   1.35606e-05
      188.700   1.33149e-05
      188.800   1.30733e-05
      188.900   1.28359e-05
      189.000   1.26024e-05
      189.100   1.23727e-05
      189.200   1.21470e-05
      189.300   1.19251e-05
      189.400   1.17070e-05
      189.500   1.14926e-05
      189.600   1.12817e-05
      189.700   1.10732e-05
      189.800   1.08607e-05
      189.900   1.06523e-05
      190.000   1.04476e-05
      190.100   1.02466e-05
      190.200   1.00493e-05
      190.300   9.85552e-06
      190.400   9.66519e-06
      190.500   9.47832e-06
      190.600   9.29493e-06
      190.700   9.11480e-06
      190.800   8.93796e-06
      190.900   8.76437e-06
      191.000   8.59400e-06
      191.100   8.42695e-06
      191.200   8.26287e-06
      191.300   8.10181e-06
      191.400   7.94369e-06
      191.500   7.78841e-06
      191.600   7.63599e-06
      191.700   7.48636e-06
      191.800   7.33938e-06
      191.900   7.19515e-06
      192.000   7.05362e-06
      192.100   6.91480e-06
      192.200   6.77865e-06
      192.300   6.64495e-06
      192.400   6.51367e-06
      192.500   6.38480e-06
      192.600   6.25833e-06
      192.700   6.13197e-06
      192.800   5.99624e-06
      192.900   5.84236e-06
      193.000   5.69215e-06
      193.100   5.54558e-06
      193.200   5.40259e-06
      193.300   5.26299e-06
      193.400   5.12675e-06
      193.500   4.99368e-06
      193.600   4.86370e-06
      193.700   4.73680e-06
      193.800   4.61297e-06
      193.900   4.49212e-06
      194.000   4.37410e-06
      194.100   4.25904e-06
      194.200   4.14696e-06
      194.300   4.03755e-06
      194.400   3.93075e-06
      194.500   3.82652e-06
      194.600   3.72477e-06
      194.700   3.62553e-06
      194.800   3.52872e-06
      194.900   3.43422e-06
      195.000   3.34205e-06
      195.100   3.25231e-06
      195.200   3.16481e-06
      195.300   3.07945e-06
      195.400   2.99616e-06
      195.500   2.91489e-06
      195.600   2.83561e-06
      195.700   2.75829e-06
      195.800   2.68287e-06
      195.900   2.60931e-06
      196.000   2.53725e-06
      196.100   2.46699e-06
      196.200   2.39848e-06
      196.300   2.33169e-06
      196.400   2.26656e-06
      196.500   2.20304e-06
      196.600   2.14115e-06
      196.700   2.08081e-06
      196.800   2.02209e-06
      196.900   1.96493e-06
      197.000   1.90925e-06
      197.100   1.85498e-06
      197.200   1.80211e-06
      197.300   1.75057e-06
      197.400   1.70033e-06
      197.500   1.65140e-06
      197.600   1.60375e-06
      197.700   1.55748e-06
      197.800   1.51243e-06
      197.900   1.46852e-06
      198.000   1.42577e-06
      198.100   1.38415e-06
      198.200   1.34361e-06
      198.300   1.30413e-06
      198.400   1.26572e-06
      198.500   1.22842e-06
      198.600   1.19216e-06
      198.700   1.15686e-06
      198.800   1.12250e-06
      198.900   1.08908e-06
      199.000   1.05724e-06
      199.100   1.02834e-06
      199.200   1.00308e-06
      199.300   9.78448e-07
      199.400   9.54390e-07
      199.500   9.30881e-07
      199.600   9.07899e-07
      199.700   8.85434e-07
      199.800   8.63479e-07
      199.900   8.42031e-07
      200.000   8.21068e-07
      200.100   8.00671e-07
      200.200   7.80717e-07
      200.300   7.61231e-07
      200.400   7.42199e-07
      200.500   7.23610e-07
      200.600   7.05453e-07
      200.700   6.87724e-07
      200.800   6.70401e-07
      200.900   6.53487e-07
      201.000   6.36995e-07
      201.100   6.20895e-07
      201.200   6.05173e-07
      201.300   5.89827e-07
      201.400   5.74851e-07
      201.500   5.60217e-07
      201.600   5.45938e-07
      201.700   5.31999e-07
      201.800   5.18386e-07
      201.900   5.05113e-07
      202.000   4.92177e-07
      202.100   4.79540e-07
      202.200   4.67212e-07
      202.300   4.55421e-07
      202.400   4.44255e-07
      202.500   4.33402e-07
      202.600   4.22792e-07
      202.700   4.12426e-07
      202.800   4.02307e-07
      202.900   3.92429e-07
      203.000   3.82784e-07
      203.100   3.73363e-07
      203.200   3.64159e-07
      203.300   3.55165e-07
      203.400   3.46382e-07
      203.500   3.37807e-07
      203.600   3.29430e-07
      203.700   3.21249e-07
      203.800   3.13273e-07
      203.900   3.05487e-07
      204.000   2.97884e-07
      204.100   2.90462e-07
      204.200   2.83217e-07
      204.300   2.76140e-07
      204.400   2.69234e-07
      204.500   2.62492e-07
      204.600   2.55907e-07
      204.700   2.49482e-07
      204.800   2.43217e-07
      204.900   2.37105e-07
      205.000   2.31138e-07
      205.100   2.25317e-07
      205.200   2.19631e-07
      205.300   2.14086e-07
      205.400   2.08673e-07
      205.500   2.03388e-07
      205.600   1.98252e-07
      205.700   1.93260e-07
      205.800   1.88386e-07
      205.900   1.83634e-07
      206.000   1.79002e-07
      206.100   1.74477e-07
      206.200   1.70059e-07
      206.300   1.65748e-07
      206.400   1.61542e-07
      206.500   1.57433e-07
      206.600   1.53424e-07
      206.700   1.49512e-07
      206.800   1.45690e-07
      206.900   1.41961e-07
      207.000   1.38323e-07
      207.100   1.34774e-07
      207.200   1.31313e-07
      207.300   1.27936e-07
      207.400   1.24637e-07
      207.500   1.21419e-07
      207.600   1.18278e-07
      207.700   1.15212e-07
      207.800   1.12220e-07
      207.900   1.09301e-07
      208.000   1.06452e-07
      208.100   1.03672e-07
      208.200   1.00961e-07
      208.300   9.83147e-08
      208.400   9.57356e-08
      208.500   9.32211e-08
      208.600   9.07663e-08
      208.700   8.83711e-08
      208.800   8.60316e-08
      208.900   8.36062e-08
      209.000   8.10545e-08
      209.100   7.85756e-08
      209.200   7.61671e-08
      209.300   7.38261e-08
      209.400   7.15533e-08
      209.500   6.93448e-08
      209.600   6.71989e-08
      209.700   6.51164e-08
      209.800   6.30976e-08
      209.900   6.11352e-08
      210.000   5.92303e-08
      210.100   5.73810e-08
      210.200   5.55850e-08
      210.300   5.38419e-08
      210.400   5.21498e-08
      210.500   5.05068e-08
      210.600   4.89124e-08
      210.700   4.73655e-08
      210.800   4.58639e-08
      210.900   4.44067e-08
      211.000   4.29928e-08
      211.100   4.16216e-08
      211.200   4.02909e-08
      211.300   3.90020e-08
      211.400   3.77527e-08
      211.500   3.65399e-08
      211.600   3.53640e-08
      211.700   3.42240e-08
      211.800   3.31177e-08
      211.900   3.20450e-08
      212.000   3.10057e-08
      212.100   2.99977e-08
      212.200   2.89922e-08
      212.300   2.75957e-08
      212.400   2.60093e-08
      212.500   2.45070e-08
      212.600   2.30858e-08
      212.700   2.17406e-08
      212.800   2.04680e-08
      212.900   1.92652e-08
      213.000   1.81285e-08
      213.100   1.70558e-08
      213.200   1.60419e-08
      213.300   1.50846e-08
      213.400   1.41799e-08
      213.500   1.33258e-08
      213.600   1.25196e-08
      213.700   1.17591e-08
      213.800   1.10411e-08
      213.900   1.03646e-08
      214.000   9.72651e-09
      214.100   9.12491e-09
      214.200   8.55839e-09
      214.300   8.02452e-09
      214.400   7.52162e-09
      214.500   7.04821e-09
      214.600   6.60289e-09
      214.700   6.18377e-09
      214.800   5.78949e-09
      214.900   5.41900e-09
      215.000   5.07043e-09
      215.100   4.74309e-09
      215.200   4.43605e-09
      215.300   4.14791e-09
      215.400   3.87711e-09
      215.500   3.62295e-09
      215.600   3.38464e-09
      215.700   3.16087e-09
      215.800   2.95102e-09
      215.900   2.75439e-09
      216.000   2.56998e-09
      216.100   2.39716e-09
      216.200   2.23534e-09
      216.300   2.08383e-09
      216.400   1.94197e-09
      216.500   1.80915e-09
      216.600   1.68495e-09
      216.700   1.56880e-09
      216.800   1.46015e-09
      216.900   1.35865e-09
      217.000   1.26380e-09
      217.100   1.17514e-09
      217.200   1.09242e-09
      217.300   1.01518e-09
      217.400   9.43068e-10
      217.500   8.75838e-10
      217.600   8.13099e-10
      217.700   7.54604e-10
      217.800   7.00082e-10
      217.900   6.49345e-10
      218.000   6.02108e-10
      218.100   5.58128e-10
      218.200   5.17196e-10
      218.300   4.79123e-10
      218.400   4.43691e-10
      218.500   4.10725e-10
      218.600   3.80103e-10
      218.700   3.51625e-10
      218.800   3.25168e-10
      218.900   3.00614e-10
      219.000   2.77802e-10
      219.100   2.56836e-10
      219.200   2.39090e-10
      219.300   2.25099e-10
      219.400   2.11881e-10
      219.500   1.99406e-10
      219.600   1.87631e-10
      219.700   1.76515e-10
      219.800   1.66032e-10
      219.900   1.56139e-10
      220.000   1.46804e-10
      220.100   1.38001e-10
      220.200   1.29703e-10
      220.300   1.21882e-10
      220.400   1.14507e-10
      220.500   1.07559e-10
      220.600   1.01016e-10
      220.700   9.48491e-11
      220.800   8.90391e-11
      220.900   8.35733e-11
      221.000   7.84254e-11
      221.100   7.35784e-11
      221.200   6.90205e-11
      221.300   6.47308e-11
      221.400   6.06948e-11
      221.500   5.69005e-11
      221.600   5.33320e-11
      221.700   4.99763e-11
      221.800   4.68222e-11
      221.900   4.38596e-11
      222.000   4.10762e-11
      222.100   3.84599e-11
      222.200   3.60050e-11
      222.300   3.36990e-11
      222.400   3.15338e-11
      222.500   2.95013e-11
      222.600   2.75955e-11
      222.700   2.58065e-11
      222.800   2.41285e-11
      222.900   2.25562e-11
      223.000   2.10810e-11
      223.100   1.96980e-11
      223.200   1.84019e-11
      223.300   1.71880e-11
      223.400   1.60506e-11
      223.500   1.49846e-11
      223.600   1.39874e-11
      223.700   1.30532e-11
      223.800   1.21786e-11
      223.900   1.13611e-11
      224.000   1.05954e-11
      224.100   9.87924e-12
      224.200   9.20951e-12
      224.300   8.58358e-12
      224.400   7.99810e-12
      224.500   7.45103e-12
      224.600   6.93965e-12
      224.700   6.46243e-12
      224.800   6.01651e-12
      224.900   5.59990e-12
      225.000   5.21119e-12
      225.100   4.84823e-12
      225.200   4.50951e-12
      225.300   4.19379e-12
      225.400   3.89907e-12
      225.500   3.62421e-12
      225.600   3.36798e-12
      225.700   3.12927e-12
      225.800   2.90671e-12
      225.900   2.69937e-12
      226.000   2.50635e-12
      226.100   2.32649e-12
      226.200   2.15902e-12
      226.300   2.00338e-12
      226.400   1.85861e-12
      226.500   1.72380e-12
      226.600   1.59837e-12
      226.700   1.48179e-12
      226.800   1.37332e-12
      226.900   1.27245e-12
      227.000   1.17878e-12
      227.100   1.09171e-12
      227.200   1.01083e-12
      227.300   9.35736e-13
      227.400   8.66018e-13
      227.500   8.01291e-13
      227.600   7.41230e-13
      227.700   6.85506e-13
      227.800   6.33832e-13
      227.900   5.85917e-13
      228.000   5.41489e-13
      228.100   5.00310e-13
      228.200   4.62146e-13
      228.300   4.26795e-13
      228.400   3.94063e-13
      228.500   3.63742e-13
      228.600   3.35681e-13
      228.700   3.09707e-13
      228.800   2.85670e-13
      228.900   2.63447e-13
      229.000   2.42883e-13
      229.100   2.23872e-13
      229.200   2.06301e-13
      229.300   1.90064e-13
      229.400   1.75062e-13
      229.500   1.61204e-13
      229.600   1.48407e-13
      229.700   1.36593e-13
      229.800   1.25686e-13
      229.900   1.15661e-13
      230.000   1.06717e-13
      230.100   9.90182e-14
      230.200   9.18577e-14
      230.300   8.52032e-14
      230.400   7.90132e-14
      230.500   7.32636e-14
      230.600   6.79263e-14
      230.700   6.29643e-14
      230.800   5.83546e-14
      230.900   5.40732e-14
      231.000   5.00944e-14
      231.100   4.64003e-14
      231.200   4.29697e-14
      231.300   3.97859e-14
      231.400   3.68320e-14
      231.500   3.40889e-14
      231.600   3.15436e-14
      231.700   2.91835e-14
      231.800   2.69947e-14
      231.900   2.49650e-14
      232.000   2.30833e-14
      232.100   2.13388e-14
      232.200   1.97224e-14
      232.300   1.82248e-14
      232.400   1.68372e-14
      232.500   1.55518e-14
      232.600   1.43619e-14
      232.700   1.32604e-14
      232.800   1.22406e-14
      232.900   1.12970e-14
      233.000   1.04238e-14
      233.100   9.61631e-15
      233.200   8.86913e-15
      233.300   8.17845e-15
      233.400   7.54006e-15
      233.500   6.95103e-15
      233.600   6.40737e-15
      233.700   5.90483e-15
      233.800   5.43619e-15
      233.900   5.00320e-15
      234.000   4.60342e-15
      234.100   4.23480e-15
      234.200   3.89485e-15
      234.300   3.58136e-15
      234.400   3.29235e-15
      234.500   3.02601e-15
      234.600   2.78053e-15
      234.700   2.55443e-15
      234.800   2.34623e-15
      234.900   2.15444e-15
      235.000   1.97785e-15
      235.100   1.81535e-15
      235.200   1.66580e-15
      235.300   1.52820e-15
      235.400   1.40165e-15
      235.500   1.28526e-15
      235.600   1.17828e-15
      235.700   1.08000e-15
      235.800   9.89999e-16
      235.900   9.07280e-16
      236.000   8.31278e-16
      236.100   7.61451e-16
      236.200   6.97324e-16
      236.300   6.38433e-16
      236.400   5.84385e-16
      236.500   5.34774e-16
      236.600   4.89258e-16
      236.700   4.47504e-16
      236.800   4.09203e-16
      236.900   3.74093e-16
      237.000   3.41908e-16
      237.100   3.12404e-16
      237.200   2.85384e-16
      237.300   2.60625e-16
      237.400   2.38057e-16
      237.500   2.18346e-16
      237.600   2.01894e-16
      237.700   1.86694e-16
      237.800   1.72605e-16
      237.900   1.59549e-16
      238.000   1.47458e-16
      238.100   1.36253e-16
      238.200   1.25877e-16
      238.300   1.16268e-16
      238.400   1.07373e-16
      238.500   9.91377e-17
      238.600   9.15170e-17
      238.700   8.44677e-17
      238.800   7.79443e-17
      238.900   7.19107e-17
      239.000   6.63306e-17
      239.100   6.11719e-17
      239.200   5.64042e-17
      239.300   5.20094e-17
      239.400   4.79577e-17
      239.500   4.42120e-17
      239.600   4.07506e-17
      239.700   3.75537e-17
      239.800   3.45997e-17
      239.900   3.18717e-17
      240.000   2.93530e-17
      240.100   2.70271e-17
      240.200   2.48802e-17
      240.300   2.28996e-17
      240.400   2.10714e-17
      240.500   1.93860e-17
      240.600   1.78314e-17
      240.700   1.63982e-17
      240.800   1.50807e-17
      240.900   1.38695e-17
      241.000   1.27530e-17
      241.100   1.17239e-17
      241.200   1.07756e-17
      241.300   9.94779e-18
      241.400   9.26627e-18
      241.500   8.67360e-18
      241.600   8.11786e-18
      241.700   7.59671e-18
      241.800   7.10815e-18
      241.900   6.65015e-18
      242.000   6.22094e-18
      242.100   5.81871e-18
      242.200   5.44293e-18
      242.300   5.09156e-18
      242.400   4.76223e-18
      242.500   4.45365e-18
      242.600   4.16456e-18
      242.700   3.89369e-18
      242.800   3.64004e-18
      242.900   3.40247e-18
      243.000   3.18001e-18
      243.100   2.97174e-18
      243.200   2.77667e-18
      243.300   2.59412e-18
      243.400   2.42332e-18
      243.500   2.26389e-18
      243.600   2.11515e-18
      243.700   1.97587e-18
      243.800   1.84551e-18
      243.900   1.72359e-18
      244.000   1.60946e-18
      244.100   1.50272e-18
      244.200   1.40288e-18
      244.300   1.30947e-18
      244.400   1.22216e-18
      244.500   1.14050e-18
      244.600   1.06415e-18
      244.700   9.92950e-19
      244.800   9.26649e-19
      244.900   8.64678e-19
      245.000   8.06719e-19
      245.100   7.52551e-19
      245.200   7.01949e-19
      245.300   6.54658e-19
      245.400   6.10455e-19
      245.500   5.69180e-19
      245.600   5.30618e-19
      245.700   4.94593e-19
      245.800   4.60942e-19
      245.900   4.29683e-19
      246.000   4.00549e-19
      246.100   3.73333e-19
      246.200   3.47922e-19
      246.300   3.24191e-19
      246.400   3.02044e-19
      246.500   2.81367e-19
      246.600   2.62069e-19
      246.700   2.44063e-19
      246.800   2.27255e-19
      246.900   2.11575e-19
      247.000   1.97020e-19
      247.100   1.83472e-19
      247.200   1.70832e-19
      247.300   1.59042e-19
      247.400   1.48042e-19
      247.500   1.37782e-19
      247.600   1.28216e-19
      247.700   1.19295e-19
      247.800   1.10979e-19
      247.900   1.03226e-19
      248.000   9.60024e-20
      248.100   8.93241e-20
      248.200   8.30959e-20
      248.300   7.72905e-20
      248.400   7.18801e-20
      248.500   6.68362e-20
      248.600   6.21371e-20
      248.700   5.77607e-20
      248.800   5.36837e-20
      248.900   4.98872e-20
      249.000   4.63518e-20
      249.100   4.30814e-20
      249.200   4.04018e-20
      249.300   3.82617e-20
      249.400   3.63213e-20
      249.500   3.44772e-20
      249.600   3.27240e-20
      249.700   3.10581e-20
      249.800   2.94751e-20
      249.900   2.79704e-20
      250.000   2.65415e-20
      250.100   2.51882e-20
      250.200   2.39043e-20
      250.300   2.26854e-20
      250.400   2.15272e-20
      250.500   2.04273e-20
      250.600   1.93825e-20
      250.700   1.83899e-20
      250.800   1.74473e-20
      250.900   1.65519e-20
      251.000   1.57018e-20
      251.100   1.48943e-20
      251.200   1.41289e-20
      251.300   1.34039e-20
      251.400   1.27152e-20
      251.500   1.20611e-20
      251.600   1.14401e-20
      251.700   1.08507e-20
      251.800   1.02910e-20
      251.900   9.75955e-21
      252.000   9.25490e-21
      252.100   8.77620e-21
      252.200   8.32152e-21
      252.300   7.89065e-21
      252.400   7.48243e-21
      252.500   7.09514e-21
      252.600   6.72741e-21
      252.700   6.37846e-21
      252.800   6.04728e-21
      252.900   5.73292e-21
      253.000   5.43463e-21
      253.100   5.15162e-21
      253.200   4.90617e-21
      253.300   4.76983e-21
      253.400   4.65931e-21
      253.500   4.55148e-21
      253.600   4.44617e-21
      253.700   4.34326e-21
      253.800   4.24275e-21
      253.900   4.14452e-21
      254.000   4.04854e-21
      254.100   3.95475e-21
      254.200   3.86310e-21
      254.300   3.77355e-21
      254.400   3.68604e-21
      254.500   3.60057e-21
      254.600   3.51700e-21
      254.700   3.43539e-21
      254.800   3.35575e-21
      254.900   3.27790e-21
      255.000   3.20184e-21
      255.100   3.12748e-21
      255.200   3.05486e-21
      255.300   2.98387e-21
      255.400   2.91452e-21
      255.500   2.84677e-21
      255.600   2.78054e-21
      255.700   2.71583e-21
      255.800   2.65260e-21
      255.900   2.59080e-21
      256.000   2.53041e-21
      256.100   2.47146e-21
      256.200   2.41386e-21
      256.300   2.35757e-21
      256.400   2.30262e-21
      256.500   2.24888e-21
      256.600   2.19638e-21
      256.700   2.14508e-21
      256.800   2.09496e-21
      256.900   2.04597e-21
      257.000   1.99811e-21
      257.100   1.95134e-21
      257.200   1.90566e-21
      257.300   1.86101e-21
      257.400   1.81777e-21
      257.500   1.77565e-21
      257.600   1.73453e-21
      257.700   1.69435e-21
      257.800   1.65508e-21
      257.900   1.61671e-21
      258.000   1.57920e-21
      258.100   1.54254e-21
      258.200   1.50673e-21
      258.300   1.47173e-21
      258.400   1.43751e-21
      258.500   1.40407e-21
      258.600   1.37141e-21
      258.700   1.33948e-21
      258.800   1.30828e-21
      258.900   1.27780e-21
      259.000   1.24801e-21
      259.100   1.21890e-21
      259.200   1.19046e-21
      259.300   1.16270e-21
      259.400   1.13558e-21
      259.500   1.10906e-21
      259.600   1.08317e-21
      259.700   1.05786e-21
      259.800   1.03313e-21
      259.900   1.00896e-21
      260.000   9.85357e-22
      260.100   9.62297e-22
      260.200   9.39767e-22
      260.300   9.17755e-22
      260.400   8.96250e-22
      260.500   8.75248e-22
      260.600   8.54717e-22
      260.700   8.34666e-22
      260.800   8.15089e-22
      260.900   7.95949e-22
      261.000   7.77266e-22
      261.100   7.59031e-22
      261.200   7.41203e-22
      261.300   7.23794e-22
      261.400   7.06793e-22
      261.500   6.90200e-22
      261.600   6.74050e-22
      261.700   6.58278e-22
      261.800   6.42876e-22
      261.900   6.27823e-22
      262.000   6.13120e-22
      262.100   5.98755e-22
      262.200   5.84731e-22
      262.300   5.71027e-22
      262.400   5.57645e-22
      262.500   5.44569e-22
      262.600   5.31796e-22
      262.700   5.19323e-22
      262.800   5.07139e-22
      262.900   4.95230e-22
      263.000   4.83614e-22
      263.100   4.72264e-22
      263.200   4.61185e-22
      263.300   4.50360e-22
      263.400   4.39788e-22
      263.500   4.29465e-22
      263.600   4.19384e-22
      263.700   4.09536e-22
      263.800   3.99916e-22
      263.900   3.90530e-22
      264.000   3.81357e-22
      264.100   3.72397e-22
      264.200   3.63644e-22
      264.300   3.55102e-22
      264.400   3.46759e-22
      264.500   3.38608e-22
      264.600   3.30649e-22
      264.700   3.22879e-22
      264.800   3.15286e-22
      264.900   3.07876e-22
      265.000   3.00638e-22
      265.100   2.93567e-22
      265.200   2.86664e-22
      265.300   2.79923e-22
      265.400   2.73343e-22
      265.500   2.66914e-22
      265.600   2.60639e-22
      265.700   2.55230e-22
      265.800   2.52997e-22
      265.900   2.50885e-22
      266.000   2.48789e-22
      266.100   2.46712e-22
      266.200   2.44652e-22
      266.300   2.42610e-22
      266.400   2.40586e-22
      266.500   2.38579e-22
      266.600   2.36588e-22
      266.700   2.34612e-22
      266.800   2.32656e-22
      266.900   2.30717e-22
      267.000   2.28795e-22
      267.100   2.26889e-22
      267.200   2.25000e-22
      267.300   2.23126e-22
      267.400   2.21268e-22
      267.500   2.19427e-22
      267.600   2.17601e-22
      267.700   2.15792e-22
      267.800   2.13996e-22
      267.900   2.12217e-22
      268.000   2.10456e-22
      268.100   2.08709e-22
      268.200   2.06977e-22
      268.300   2.05262e-22
      268.400   2.03558e-22
      268.500   2.01869e-22
      268.600   2.00195e-22
      268.700   1.98539e-22
      268.800   1.96895e-22
      268.900   1.95265e-22
      269.000   1.93651e-22
      269.100   1.92048e-22
      269.200   1.90461e-22
      269.300   1.88889e-22
      269.400   1.87329e-22
      269.500   1.85782e-22
      269.600   1.84251e-22
      269.700   1.82729e-22
      269.800   1.81223e-22
      269.900   1.79730e-22
      270.000   1.78251e-22
      270.100   1.76790e-22
      270.200   1.75343e-22
      270.300   1.73910e-22
      270.400   1.72487e-22
      270.500   1.71077e-22
      270.600   1.69678e-22
      270.700   1.68294e-22
      270.800   1.66919e-22
      270.900   1.65556e-22
      271.000   1.64206e-22
      271.100   1.62866e-22
      271.200   1.61538e-22
      271.300   1.60221e-22
      271.400   1.58915e-22
      271.500   1.57621e-22
      271.600   1.56337e-22
      271.700   1.55062e-22
      271.800   1.53800e-22
      271.900   1.52548e-22
      272.000   1.51306e-22
      272.100   1.50075e-22
      272.200   1.48853e-22
      272.300   1.47640e-22
      272.400   1.46439e-22
      272.500   1.45247e-22
      272.600   1.44065e-22
      272.700   1.42892e-22
      272.800   1.41728e-22
      272.900   1.40575e-22
      273.000   1.39431e-22
      273.100   1.38295e-22
      273.200   1.37170e-22
      273.300   1.36053e-22
      273.400   1.34945e-22
      273.500   1.33845e-22
      273.600   1.32754e-22
      273.700   1.31672e-22
      273.800   1.30597e-22
      273.900   1.29533e-22
      274.000   1.28476e-22
      274.100   1.27428e-22
      274.200   1.26387e-22
      274.300   1.25355e-22
      274.400   1.24300e-22
      274.500   1.23182e-22
      274.600   1.22059e-22
      274.700   1.20947e-22
      274.800   1.19844e-22
      274.900   1.18750e-22
      275.000   1.17665e-22
      275.100   1.16589e-22
      275.200   1.15523e-22
      275.300   1.14465e-22
      275.400   1.13417e-22
      275.500   1.12377e-22
      275.600   1.11346e-22
      275.700   1.10324e-22
      275.800   1.09311e-22
      275.900   1.08306e-22
      276.000   1.07311e-22
      276.100   1.06322e-22
      276.200   1.05342e-22
      276.300   1.04370e-22
      276.400   1.03407e-22
      276.500   1.02452e-22
      276.600   1.01506e-22
      276.700   1.00566e-22
      276.800   9.96349e-23
      276.900   9.87107e-23
      277.000   9.77949e-23
      277.100   9.68864e-23
      277.200   9.59861e-23
      277.300   9.50930e-23
      277.400   9.42079e-23
      277.500   9.33288e-23
      277.600   9.24583e-23
      277.700   9.15937e-23
      277.800   9.07363e-23
      277.900   8.98879e-23
      278.000   8.90463e-23
      278.100   8.82112e-23
      278.200   8.73833e-23
      278.300   8.65624e-23
      278.400   8.57484e-23
      278.500   8.49407e-23
      278.600   8.41397e-23
      278.700   8.33463e-23
      278.800   8.25929e-23
      278.900   8.20014e-23
      279.000   8.14169e-23
      279.100   8.08358e-23
      279.200   8.02567e-23
      279.300   7.96822e-23
      279.400   7.91101e-23
      279.500   7.85410e-23
      279.600   7.79758e-23
      279.700   7.74134e-23
      279.800   7.68546e-23
      279.900   7.62993e-23
      280.000   7.57466e-23
      280.100   7.51966e-23
      280.200   7.46504e-23
      280.300   7.41071e-23
      280.400   7.35673e-23
      280.500   7.30304e-23
      280.600   7.24968e-23
      280.700   7.19665e-23
      280.800   7.14388e-23
      280.900   7.09141e-23
      281.000   7.03928e-23
      281.100   6.98744e-23
      281.200   6.93591e-23
      281.300   6.88469e-23
      281.400   6.83381e-23
      281.500   6.78322e-23
      281.600   6.73285e-23
      281.700   6.68282e-23
      281.800   6.63317e-23
      281.900   6.58379e-23
      282.000   6.53466e-23
      282.100   6.48587e-23
      282.200   6.43743e-23
      282.300   6.38918e-23
      282.400   6.34126e-23
      282.500   6.29360e-23
      282.600   6.24632e-23
      282.700   6.19932e-23
      282.800   6.15255e-23
      282.900   6.10618e-23
      283.000   6.06006e-23
      283.100   6.01415e-23
      283.200   5.96863e-23
      283.300   5.93546e-23
      283.400   5.96821e-23
      283.500   6.00901e-23
      283.600   6.04992e-23
      283.700   6.09105e-23
      283.800   6.13228e-23
      283.900   6.17361e-23
      284.000   6.21512e-23
      284.100   6.25673e-23
      284.200   6.29857e-23
      284.300   6.34061e-23
      284.400   6.38271e-23
      284.500   6.42496e-23
      284.600   6.46745e-23
      284.700   6.51001e-23
      284.800   6.55273e-23
      284.900   6.59567e-23
      285.000   6.63871e-23
      285.100   6.68190e-23
      285.200   6.72519e-23
      285.300   6.76872e-23
      285.400   6.81246e-23
      285.500   6.85622e-23
      285.600   6.90026e-23
      285.700   6.94437e-23
      285.800   6.98869e-23
      285.900   7.03317e-23
      286.000   7.07773e-23
      286.100   7.12258e-23
      286.200   7.16759e-23
      286.300   7.21278e-23
      286.400   7.25801e-23
      286.500   7.30348e-23
      286.600   7.34910e-23
      286.700   7.39489e-23
      286.800   7.44087e-23
      286.900   7.48707e-23
      287.000   7.53336e-23
      287.100   7.57984e-23
      287.200   7.62650e-23
      287.300   7.67325e-23
      287.400   7.72023e-23
      287.500   7.76744e-23
      287.600   7.81481e-23
      287.700   7.86239e-23
      287.800   7.91013e-23
      287.900   7.95808e-23
      288.000   8.00628e-23
      288.100   8.05474e-23
      288.200   8.10330e-23
      288.300   8.15210e-23
      288.400   8.20126e-23
      288.500   8.25043e-23
      288.600   8.29984e-23
      288.700   8.34951e-23
      288.800   8.39928e-23
      288.900   8.44924e-23
      289.000   8.49949e-23
      289.100   8.54984e-23
      289.200   8.60033e-23
      289.300   8.65110e-23
      289.400   8.70217e-23
      289.500   8.75336e-23
      289.600   8.80470e-23
      289.700   8.85630e-23
      289.800   8.90812e-23
      289.900   8.96003e-23
      290.000   9.01238e-23
      290.100   9.06464e-23
      290.200   9.11737e-23
      290.300   9.17025e-23
      290.400   9.22326e-23
      290.500   9.27655e-23
      290.600   9.32997e-23
      290.700   9.38365e-23
      290.800   9.43757e-23
      290.900   9.49171e-23
      291.000   9.54608e-23
      291.100   9.60062e-23
      291.200   9.65534e-23
      291.300   9.71036e-23
      291.400   9.76550e-23
      291.500   9.82085e-23
      291.600   9.87652e-23
      291.700   9.93227e-23
      291.800   9.98832e-23
      291.900   1.00446e-22
      292.000   1.01012e-22
      292.100   1.01580e-22
      292.200   1.02149e-22
      292.300   1.02720e-22
      292.400   1.03294e-22
      292.500   1.03870e-22
      292.600   1.04446e-22
      292.700   1.05022e-22
      292.800   1.05601e-22
      292.900   1.06181e-22
      293.000   1.06763e-22
      293.100   1.07349e-22
      293.200   1.07935e-22
      293.300   1.08523e-22
      293.400   1.09114e-22
      293.500   1.09707e-22
      293.600   1.10303e-22
      293.700   1.10901e-22
      293.800   1.11501e-22
      293.900   1.12102e-22
      294.000   1.12705e-22
      294.100   1.13310e-22
      294.200   1.13918e-22
      294.300   1.14528e-22
      294.400   1.15140e-22
      294.500   1.15753e-22
      294.600   1.16367e-22
      294.700   1.16986e-22
      294.800   1.17605e-22
      294.900   1.18225e-22
      295.000   1.18849e-22
      295.100   1.19475e-22
      295.200   1.20103e-22
      295.300   1.20731e-22
      295.400   1.21362e-22
      295.500   1.21995e-22
      295.600   1.22629e-22
      295.700   1.23265e-22
      295.800   1.23902e-22
      295.900   1.24542e-22
      296.000   1.25184e-22
      296.100   1.25827e-22
      296.200   1.26472e-22
      296.300   1.27118e-22
      296.400   1.27766e-22
      296.500   1.28416e-22
      296.600   1.29068e-22
      296.700   1.29720e-22
      296.800   1.30375e-22
      296.900   1.31031e-22
      297.000   1.31689e-22
      297.100   1.32348e-22
      297.200   1.33089e-22
      297.300   1.34430e-22
      297.400   1.37255e-22
      297.500   1.40135e-22
      297.600   1.43070e-22
      297.700   1.46067e-22
      297.800   1.49118e-22
      297.900   1.52227e-22
      298.000   1.55392e-22
      298.100   1.58616e-22
      298.200   1.61900e-22
      298.300   1.65244e-22
      298.400   1.68652e-22
      298.500   1.72121e-22
      298.600   1.75656e-22
      298.700   1.79253e-22
      298.800   1.82917e-22
      298.900   1.86651e-22
      299.000   1.90457e-22
      299.100   1.94331e-22
      299.200   1.98275e-22
      299.300   2.02288e-22
      299.400   2.06375e-22
      299.500   2.10536e-22
      299.600   2.14767e-22
      299.700   2.19074e-22
      299.800   2.23461e-22
      299.900   2.27925e-22
      300.000   2.32464e-22
      300.100   2.37092e-22
      300.192   2.41420e-22
      300.285   2.45867e-22
      300.377   2.50336e-22
      300.470   2.54929e-22
      300.562   2.59541e-22
      300.654   2.64229e-22
      300.747   2.69050e-22
      300.839   2.73890e-22
      300.932   2.78861e-22
      301.025   2.83918e-22
      301.117   2.88995e-22
      301.210   2.94206e-22
      301.303   2.99508e-22
      301.395   3.04826e-22
      301.488   3.10295e-22
      301.581   3.15840e-22
      301.674   3.21481e-22
      301.766   3.27144e-22
      301.859   3.32964e-22
      301.952   3.38868e-22
      302.045   3.44870e-22
      302.138   3.61586e-22
      302.231   3.83480e-22
      302.324   4.06802e-22
      302.417   4.31495e-22
      302.510   4.57601e-22
      302.603   4.85180e-22
      302.696   5.14348e-22
      302.789   5.45199e-22
      302.882   5.77795e-22
      302.976   6.12611e-22
      303.069   6.49013e-22
      303.162   6.87464e-22
      303.255   7.28078e-22
      303.349   7.71443e-22
      303.442   8.16766e-22
      303.535   8.64562e-22
      303.629   9.15568e-22
      303.722   9.68854e-22
      303.816   1.02569e-21
      303.909   1.08505e-21
      304.003   1.14831e-21
      304.096   1.21438e-21
      304.190   1.28480e-21
      304.283   1.35827e-21
      304.377   1.43648e-21
      304.471   1.51902e-21
      304.564   1.60508e-21
      304.658   1.69673e-21
      304.752   1.79342e-21
      304.846   1.89519e-21
      304.939   2.00128e-21
      305.033   2.11422e-21
      305.127   2.23315e-21
      305.221   2.35836e-21
      305.315   2.49030e-21
      305.409   2.62908e-21
      305.503   2.77518e-21
      305.597   2.92901e-21
      305.691   3.09078e-21
      305.785   3.26111e-21
      305.879   3.44020e-21
      305.973   3.62841e-21
      306.067   3.82652e-21
      306.161   4.03471e-21
      306.255   4.25359e-21
      306.350   4.48617e-21
      306.444   4.72807e-21
      306.538   4.98235e-21
      306.633   5.25223e-21
      306.727   5.53297e-21
      306.821   5.82782e-21
      306.916   6.14069e-21
      307.010   6.46752e-21
      307.105   6.81582e-21
      307.199   7.17804e-21
      307.294   7.56256e-21
      307.388   7.96201e-21
      307.483   8.38584e-21
      307.577   8.82618e-21
      307.672   9.29327e-21
      307.767   9.78344e-21
      307.861   1.02921e-20
      307.956   1.08319e-20
      308.051   1.13981e-20
      308.146   1.19920e-20
      308.240   1.26080e-20
      308.335   1.32608e-20
      308.430   1.39455e-20
      308.525   1.46637e-20
      308.620   1.54159e-20
      308.715   1.62046e-20
      308.810   1.70311e-20
      308.905   1.78971e-20
      309.000   1.88037e-20
      309.095   1.97538e-20
      309.190   2.07488e-20
      309.285   2.17910e-20
      309.380   2.28821e-20
      309.476   2.40362e-20
      309.571   2.52322e-20
      309.666   2.64848e-20
      309.761   2.77948e-20
      309.857   2.91798e-20
      309.952   3.06140e-20
      310.047   3.21135e-20
      310.143   3.36993e-20
      310.238   3.53407e-20
      310.334   3.70747e-20
      310.429   3.88706e-20
      310.525   4.07657e-20
      310.620   4.27274e-20
      310.716   4.47990e-20
      310.811   4.69418e-20
      310.907   4.92025e-20
      311.003   5.15650e-20
      311.098   5.40084e-20
      311.194   5.65874e-20
      311.290   5.92815e-20
      311.386   6.20940e-20
      311.481   6.50001e-20
      311.577   6.80641e-20
      311.673   7.12653e-20
      311.769   7.46067e-20
      311.865   7.80905e-20
      311.961   8.17443e-20
      312.057   8.55909e-20
      312.153   8.96143e-20
      312.249   9.38150e-20
      312.345   9.81997e-20
      312.441   1.02776e-19
      312.537   1.07548e-19
      312.633   1.12527e-19
      312.730   1.17779e-19
      312.826   1.23200e-19
      312.922   1.28851e-19
      313.018   1.34746e-19
      313.115   1.40957e-19
      313.211   1.47369e-19
      313.307   1.54051e-19
      313.404   1.61087e-19
      313.500   1.68348e-19
      313.597   1.75991e-19
      313.693   1.83868e-19
      313.790   1.92167e-19
      313.886   2.00723e-19
      313.983   2.09730e-19
      314.079   2.19014e-19
      314.176   2.28778e-19
      314.273   2.38950e-19
      314.369   2.49431e-19
      314.466   2.60456e-19
      314.563   2.71934e-19
      314.660   2.83869e-19
      314.756   2.96174e-19
      314.853   3.09104e-19
      314.950   3.22560e-19
      315.047   3.36558e-19
      315.144   3.51125e-19
      315.241   3.66272e-19
      315.338   3.82030e-19
      315.435   3.98411e-19
      315.532   4.15443e-19
      315.629   4.33146e-19
      315.726   4.51550e-19
      315.823   4.70695e-19
      315.921   4.90776e-19
      316.018   5.11450e-19
      316.115   5.32928e-19
      316.212   5.55243e-19
      316.310   5.78660e-19
      316.407   6.02733e-19
      316.504   6.27749e-19
      316.602   6.53989e-19
      316.699   6.80962e-19
      316.796   7.08948e-19
      316.894   7.38311e-19
      316.991   7.68518e-19
      317.089   8.00415e-19
      317.187   8.33671e-19
      317.284   8.67834e-19
      317.382   9.03659e-19
      317.479   9.40477e-19
      317.577   9.79059e-19
      317.675   1.01909e-18
      317.773   1.06066e-18
      317.870   1.10335e-18
      317.968   1.14812e-18
      318.066   1.19454e-18
      318.164   1.24270e-18
      318.262   1.29264e-18
      318.360   1.34446e-18
      318.458   1.39819e-18
      318.556   1.45387e-18
      318.654   1.51161e-18
      318.752   1.57145e-18
      318.850   1.63348e-18
      318.948   1.69780e-18
      319.046   1.76445e-18
      319.144   1.83351e-18
      319.242   1.90503e-18
      319.341   1.97992e-18
      319.439   2.05670e-18
      319.537   2.13623e-18
      319.635   2.21860e-18
      319.734   2.30475e-18
      319.832   2.39306e-18
      319.930   2.48451e-18
      320.029   2.58013e-18
      320.127   2.67811e-18
      320.226   2.78060e-18
      320.324   2.88561e-18
      320.423   2.99538e-18
      320.522   3.10895e-18
      320.620   3.22524e-18
      320.719   3.34681e-18
      320.818   3.47258e-18
      320.916   3.60135e-18
      321.015   3.73592e-18
      321.114   3.87505e-18
      321.213   4.01895e-18
      321.311   4.16619e-18
      321.410   4.31988e-18
      321.509   4.47886e-18
      321.608   4.64306e-18
      321.707   4.81287e-18
      321.806   4.98840e-18
      321.905   5.16965e-18
      322.004   5.35711e-18
      322.103   5.57818e-18
      322.202   5.85536e-18
      322.301   6.16609e-18
      322.401   6.49543e-18
      322.500   6.83753e-18
      322.599   7.19616e-18
      322.698   7.57213e-18
      322.798   7.97056e-18
      322.897   8.38409e-18
      322.996   8.81718e-18
      323.096   9.27593e-18
      323.195   9.75160e-18
      323.294   1.02497e-17
      323.394   1.07765e-17
      323.493   1.13228e-17
      323.593   1.19006e-17
      323.692   1.24992e-17
      323.792   1.31320e-17
      323.892   1.37941e-17
      323.991   1.44803e-17
      324.091   1.52049e-17
      324.191   1.59633e-17
      324.291   1.67560e-17
      324.390   1.75760e-17
      324.490   1.84429e-17
      324.590   1.93478e-17
      324.690   2.02935e-17
      324.790   2.12820e-17
      324.890   2.23143e-17
      324.990   2.33932e-17
      325.090   2.45200e-17
      325.190   2.56954e-17
      325.290   2.69223e-17
      325.390   2.82039e-17
      325.490   2.95404e-17
      325.590   3.09344e-17
      325.690   3.23893e-17
      325.790   3.39063e-17
      325.891   3.55044e-17
      325.991   3.71541e-17
      326.091   3.88745e-17
      326.192   4.06854e-17
      326.292   4.25541e-17
      326.392   4.45001e-17
      326.493   4.65486e-17
      326.593   4.86613e-17
      326.694   5.08819e-17
      326.794   5.31726e-17
      326.895   5.55815e-17
      326.995   5.80645e-17
      327.096   6.06725e-17
      327.197   6.33879e-17
      327.297   6.61898e-17
      327.398   6.91425e-17
      327.499   7.22197e-17
      327.599   7.53904e-17
      327.700   7.87202e-17
      327.801   8.21813e-17
      327.902   8.57793e-17
      328.003   8.95220e-17
      328.104   9.34119e-17
      328.205   9.74543e-17
      328.306   1.01653e-16
      328.407   1.06015e-16
      328.508   1.10546e-16
      328.609   1.15251e-16
      328.710   1.20134e-16
      328.811   1.25205e-16
      328.912   1.30470e-16
      329.013   1.35930e-16
      329.115   1.41655e-16
      329.216   1.47537e-16
      329.317   1.53635e-16
      329.419   1.60023e-16
      329.520   1.66585e-16
      329.621   1.73387e-16
      329.723   1.80513e-16
      329.824   1.87814e-16
      329.926   1.95461e-16
      330.027   2.03310e-16
      330.129   2.11522e-16
      330.230   2.19938e-16
      330.332   2.28748e-16
      330.434   2.37866e-16
      330.535   2.47219e-16
      330.637   2.56993e-16
      330.739   2.67101e-16
      330.840   2.77465e-16
      330.942   2.88297e-16
      331.044   2.99502e-16
      331.146   3.11090e-16
      331.248   3.23075e-16
      331.350   3.35468e-16
      331.452   3.48291e-16
      331.554   3.61734e-16
      331.656   3.75958e-16
      331.758   3.90674e-16
      331.860   4.05912e-16
      331.962   4.21674e-16
      332.064   4.37977e-16
      332.166   4.54836e-16
      332.268   4.72279e-16
      332.371   4.90484e-16
      332.473   5.09128e-16
      332.575   5.27594e-16
      332.677   5.43955e-16
      332.780   5.58741e-16
      332.882   5.73733e-16
      332.985   5.89212e-16
      333.087   6.04903e-16
      333.190   6.21107e-16
      333.292   6.37327e-16
      333.395   6.53562e-16
      333.497   6.69772e-16
      333.600   6.86484e-16
      333.702   7.03373e-16
      333.805   7.20767e-16
      333.908   7.38548e-16
      334.011   7.56676e-16
      334.113   7.74986e-16
      334.216   7.93859e-16
      334.319   8.13107e-16
      334.422   8.32741e-16
      334.525   8.52771e-16
      334.628   8.73199e-16
      334.731   8.94015e-16
      334.834   9.15252e-16
      334.937   9.36911e-16
      335.040   9.58996e-16
      335.143   9.81485e-16
      335.246   1.00442e-15
      335.349   1.02778e-15
      335.452   1.05159e-15
      335.555   1.07584e-15
      335.659   1.10081e-15
      335.762   1.12601e-15
      335.865   1.15166e-15
      335.969   1.17805e-15
      336.072   1.20468e-15
      336.175   1.23177e-15
      336.279   1.25962e-15
      336.382   1.28772e-15
      336.486   1.31662e-15
      336.589   1.34573e-15
      336.693   1.37567e-15
      336.796   1.40582e-15
      336.900   1.43684e-15
      337.004   1.46841e-15
      337.107   1.50018e-15
      337.211   1.53286e-15
      337.315   1.56609e-15
      337.419   1.59990e-15
      337.523   1.63427e-15
      337.626   1.66890e-15
      337.730   1.70448e-15
      337.834   1.74063e-15
      337.938   1.77733e-15
      338.042   1.81439e-15
      338.146   1.85204e-15
      338.250   1.89029e-15
      338.354   1.92919e-15
      338.458   1.96872e-15
      338.562   2.00889e-15
      338.667   2.05009e-15
      338.771   2.09157e-15
      338.875   2.13369e-15
      338.979   2.17649e-15
      339.084   2.22036e-15
      339.188   2.26447e-15
      339.292   2.30932e-15
      339.397   2.35529e-15
      339.501   2.40152e-15
      339.606   2.44895e-15
      339.710   2.49659e-15
      339.815   2.54546e-15
      339.919   2.59456e-15
      340.024   2.64492e-15
      340.128   2.69548e-15
      340.233   2.74736e-15
      340.338   2.79995e-15
      340.442   2.85283e-15
      340.547   2.90700e-15
      340.652   2.96197e-15
      340.757   3.01771e-15
      340.862   3.07429e-15
      340.966   3.13110e-15
      341.071   3.18924e-15
      341.176   3.24824e-15
      341.281   3.30807e-15
      341.386   3.36874e-15
      341.491   3.43027e-15
      341.596   3.49266e-15
      341.702   3.55652e-15
      341.807   3.62059e-15
      341.912   3.68559e-15
      342.017   3.75148e-15
      342.122   3.81825e-15
      342.228   3.88650e-15
      342.333   3.95507e-15
      342.438   4.02456e-15
      342.544   4.09560e-15
      342.649   4.16689e-15
      342.754   4.23913e-15
      342.860   4.31299e-15
      342.965   4.38717e-15
      343.071   4.46289e-15
      343.176   4.53895e-15
      343.282   4.61673e-15
      343.388   4.69547e-15
      343.493   4.77493e-15
      343.599   4.86030e-15
      343.705   4.94735e-15
      343.810   5.03467e-15
      343.916   5.12401e-15
      344.022   5.21463e-15
      344.128   5.30641e-15
      344.234   5.39950e-15
      344.340   5.49378e-15
      344.446   5.58932e-15
      344.552   5.68615e-15
      344.658   5.78434e-15
      344.764   5.88362e-15
      344.870   5.98438e-15
      344.976   6.08631e-15
      345.082   6.18964e-15
      345.188   6.29426e-15
      345.294   6.40026e-15
      345.401   6.50862e-15
      345.507   6.61731e-15
      345.613   6.72733e-15
      345.719   6.83879e-15
      345.826   6.95272e-15
      345.932   7.06697e-15
      346.039   7.18371e-15
      346.145   7.30080e-15
      346.252   7.42043e-15
      346.358   7.54039e-15
      346.465   7.66284e-15
      346.571   7.78576e-15
      346.678   7.91126e-15
      346.785   8.03834e-15
      346.891   8.16559e-15
      346.998   8.29553e-15
      347.105   8.42710e-15
      347.212   8.56026e-15
      347.319   8.69495e-15
      347.425   8.82987e-15
      347.532   8.96770e-15
      347.639   9.10702e-15
      347.746   9.24795e-15
      347.853   9.39067e-15
      347.960   9.53477e-15
      348.067   9.68061e-15
      348.174   9.82799e-15
      348.281   9.97695e-15
      348.389   1.01291e-14
      348.496   1.02813e-14
      348.603   1.04354e-14
      348.710   1.05910e-14
      348.818   1.07499e-14
      348.925   1.09079e-14
      349.032   1.10133e-14
      349.140   1.09884e-14
      349.247   1.09636e-14
      349.355   1.09386e-14
      349.462   1.09138e-14
      349.570   1.08888e-14
      349.677   1.08640e-14
      349.785   1.08389e-14
      349.892   1.08141e-14
      350.000   1.07891e-14
      350.100   1.07659e-14
      350.193   1.07444e-14
      350.287   1.07226e-14
      350.380   1.07010e-14
      350.473   1.06794e-14
      350.567   1.06576e-14
      350.660   1.06360e-14
      350.754   1.06142e-14
      350.847   1.05927e-14
      350.941   1.05708e-14
      351.034   1.05492e-14
      351.128   1.05275e-14
      351.221   1.05059e-14
      351.315   1.04841e-14
      351.409   1.04623e-14
      351.502   1.04408e-14
      351.596   1.04189e-14
      351.690   1.03971e-14
      351.783   1.03756e-14
      351.877   1.03539e-14
      351.971   1.03321e-14
      352.065   1.03103e-14
      352.159   1.02886e-14
      352.252   1.02670e-14
      352.346   1.02452e-14
      352.440   1.02235e-14
      352.534   1.02017e-14
      352.628   1.01800e-14
      352.722   1.01583e-14
      352.816   1.01365e-14
      352.910   1.01148e-14
      353.004   1.00931e-14
      353.098   1.00714e-14
      353.192   1.00496e-14
      353.287   1.00277e-14
      353.381   1.00060e-14
      353.475   9.98433e-15
      353.569   9.96259e-15
      353.663   9.94085e-15
      353.758   9.91899e-15
      353.852   9.89732e-15
      353.946   9.87565e-15
      354.041   9.85373e-15
      354.135   9.83207e-15
      354.229   9.81036e-15
      354.324   9.78853e-15
      354.418   9.76680e-15
      354.513   9.74490e-15
      354.607   9.72331e-15
      354.702   9.68648e-15
      354.796   9.64066e-15
      354.891   9.59368e-15
      354.985   9.54743e-15
      355.080   9.50088e-15
      355.175   9.45453e-15
      355.269   9.40886e-15
      355.364   9.36292e-15
      355.459   9.31720e-15
      355.553   9.27217e-15
      355.648   9.22684e-15
      355.743   9.18173e-15
      355.838   9.13675e-15
      355.933   9.09207e-15
      356.027   9.04799e-15
      356.122   9.00365e-15
      356.217   8.95948e-15
      356.312   8.91556e-15
      356.407   8.87177e-15
      356.502   8.82819e-15
      356.597   8.78479e-15
      356.692   8.74162e-15
      356.787   8.69862e-15
      356.882   8.65576e-15
      356.977   8.61315e-15
      357.073   8.57025e-15
      357.168   8.52793e-15
      357.263   8.48582e-15
      357.358   8.44392e-15
      357.453   8.40220e-15
      357.549   8.36021e-15
      357.644   8.31883e-15
      357.739   8.27763e-15
      357.835   8.23617e-15
      357.930   8.19530e-15
      358.025   8.15461e-15
      358.121   8.11365e-15
      358.216   8.07330e-15
      358.312   8.03270e-15
      358.407   7.99269e-15
      358.503   7.95244e-15
      358.598   7.91279e-15
      358.694   7.87284e-15
      358.790   7.83309e-15
      358.885   7.79388e-15
      358.981   7.75446e-15
      359.076   7.71558e-15
      359.172   7.67650e-15
      359.268   7.63751e-15
      359.364   7.59871e-15
      359.459   7.56052e-15
      359.555   7.52207e-15
      359.651   7.48372e-15
      359.747   7.44554e-15
      359.843   7.40754e-15
      359.939   7.36968e-15
      360.035   7.33201e-15
      360.131   7.29446e-15
      360.227   7.25706e-15
      360.323   7.21983e-15
      360.419   7.22431e-15
      360.515   7.26571e-15
      360.611   7.31423e-15
      360.707   7.36289e-15
      360.803   7.41152e-15
      360.899   7.46032e-15
      360.995   7.50921e-15
      361.092   7.55867e-15
      361.188   7.60772e-15
      361.284   7.65681e-15
      361.380   7.70599e-15
      361.477   7.75576e-15
      361.573   7.80510e-15
      361.669   7.85445e-15
      361.766   7.90438e-15
      361.862   7.95383e-15
      361.959   8.00387e-15
      362.055   8.05345e-15
      362.152   8.10359e-15
      362.248   8.15325e-15
      362.345   8.20349e-15
      362.441   8.25324e-15
      362.538   8.30351e-15
      362.635   8.35384e-15
      362.731   8.40366e-15
      362.828   8.45397e-15
      362.925   8.50434e-15
      363.021   8.55427e-15
      363.118   8.60467e-15
      363.215   8.65509e-15
      363.312   8.70551e-15
      363.409   8.75594e-15
      363.505   8.80580e-15
      363.602   8.85628e-15
      363.699   8.90674e-15
      363.796   8.95712e-15
      363.893   9.00749e-15
      363.990   9.05783e-15
      364.087   9.10817e-15
      364.184   9.15848e-15
      364.281   9.20878e-15
      364.378   9.25908e-15
      364.475   9.30928e-15
      364.573   9.35998e-15
      364.670   9.41008e-15
      364.767   9.46017e-15
      364.864   9.51023e-15
      364.961   9.56016e-15
      365.059   9.61059e-15
      365.156   9.66043e-15
      365.253   9.71024e-15
      365.351   9.76046e-15
      365.448   9.81009e-15
      365.545   9.85969e-15
      365.643   9.90969e-15
      365.740   9.95908e-15
      365.838   1.00089e-14
      365.935   1.00581e-14
      366.033   1.01077e-14
      366.130   1.01568e-14
      366.228   1.02250e-14
      366.326   1.03198e-14
      366.423   1.04225e-14
      366.521   1.05267e-14
      366.618   1.06303e-14
      366.716   1.07354e-14
      366.814   1.08409e-14
      366.912   1.09469e-14
      367.010   1.10535e-14
      367.107   1.11593e-14
      367.205   1.12667e-14
      367.303   1.13744e-14
      367.401   1.14826e-14
      367.499   1.15912e-14
      367.597   1.17002e-14
      367.695   1.18095e-14
      367.793   1.19192e-14
      367.891   1.20294e-14
      367.989   1.21400e-14
      368.087   1.22509e-14
      368.185   1.23621e-14
      368.283   1.24738e-14
      368.381   1.25858e-14
      368.480   1.26992e-14
      368.578   1.28119e-14
      368.676   1.29249e-14
      368.774   1.30381e-14
      368.873   1.31529e-14
      368.971   1.32668e-14
      369.069   1.33811e-14
      369.168   1.34968e-14
      369.266   1.36115e-14
      369.364   1.37265e-14
      369.463   1.38431e-14
      369.561   1.39587e-14
      369.660   1.40756e-14
      369.758   1.41916e-14
      369.857   1.43091e-14
      369.955   1.44256e-14
      370.054   1.45435e-14
      370.153   1.46616e-14
      370.251   1.47787e-14
      370.350   1.48972e-14
      370.449   1.50159e-14
      370.547   1.51335e-14
      370.646   1.52526e-14
      370.745   1.53717e-14
      370.844   1.54910e-14
      370.943   1.56105e-14
      371.041   1.57288e-14
      371.140   1.58485e-14
      371.239   1.59684e-14
      371.338   1.60884e-14
      371.437   1.62083e-14
      371.536   1.63283e-14
      371.635   1.64485e-14
      371.734   1.65687e-14
      371.833   1.66890e-14
      371.932   1.68093e-14
      372.032   1.69309e-14
      372.131   1.71695e-14
      372.230   1.76612e-14
      372.329   1.82931e-14
      372.428   1.89426e-14
      372.528   1.96167e-14
      372.627   2.03025e-14
      372.726   2.10069e-14
      372.826   2.17379e-14
      372.925   2.24811e-14
      373.024   2.32438e-14
      373.124   2.40344e-14
      373.223   2.48368e-14
      373.323   2.56686e-14
      373.422   2.65133e-14
      373.522   2.73877e-14
      373.621   2.82744e-14
      373.721   2.91928e-14
      373.820   3.01236e-14
      373.920   3.10865e-14
      374.020   3.20735e-14
      374.119   3.30721e-14
      374.219   3.41057e-14
      374.319   3.51626e-14
      374.419   3.62430e-14
      374.518   3.73376e-14
      374.618   3.84678e-14
      374.718   3.96239e-14
      374.818   4.08036e-14
      374.918   4.20088e-14
      375.018   4.32412e-14
      375.118   4.44987e-14
      375.218   4.57832e-14
      375.318   4.70943e-14
      375.418   4.84326e-14
      375.518   4.97968e-14
      375.618   5.11883e-14
      375.718   5.26074e-14
      375.818   5.40541e-14
      375.918   5.55287e-14
      376.019   5.70467e-14
      376.119   5.85787e-14
      376.219   6.01377e-14
      376.319   6.17266e-14
      376.420   6.33595e-14
      376.520   6.50052e-14
      376.620   6.66797e-14
      376.721   6.84013e-14
      376.821   7.01345e-14
      376.922   7.19293e-14
      377.022   7.39195e-14
      377.122   7.61510e-14
      377.223   7.84536e-14
      377.323   8.07803e-14
      377.424   8.31807e-14
      377.525   8.56283e-14
      377.625   8.80996e-14
      377.726   9.06452e-14
      377.827   9.32417e-14
      377.927   9.58620e-14
      378.028   9.85570e-14
      378.129   1.01304e-13
      378.230   1.04102e-13
      378.330   1.06923e-13
      378.431   1.09822e-13
      378.532   1.12771e-13
      378.633   1.15774e-13
      378.734   1.18828e-13
      378.835   1.21932e-13
      378.936   1.25089e-13
      379.037   1.28296e-13
      379.138   1.31554e-13
      379.239   1.34867e-13
      379.340   1.38228e-13
      379.441   1.41643e-13
      379.542   1.45109e-13
      379.643   1.48625e-13
      379.745   1.52229e-13
      379.846   1.55850e-13
      379.947   1.59519e-13
      380.048   1.63239e-13
      380.150   1.67050e-13
      380.251   1.70873e-13
      380.352   1.74743e-13
      380.454   1.78703e-13
      380.555   1.82675e-13
      380.656   1.86694e-13
      380.758   1.90804e-13
      380.859   1.94921e-13
      380.961   1.99125e-13
      381.062   2.03336e-13
      381.164   2.07639e-13
      381.266   2.11988e-13
      381.367   2.16341e-13
      381.469   2.20782e-13
      381.570   2.25223e-13
      381.672   2.29753e-13
      381.774   2.34331e-13
      381.876   2.38949e-13
      381.977   2.43629e-13
      382.079   2.48610e-13
      382.181   2.53822e-13
      382.283   2.59084e-13
      382.385   2.64401e-13
      382.487   2.69774e-13
      382.589   2.75191e-13
      382.691   2.80658e-13
      382.793   2.86175e-13
      382.895   2.91743e-13
      382.997   2.97358e-13
      383.099   3.03019e-13
      383.201   3.08721e-13
      383.303   3.14475e-13
      383.405   3.20267e-13
      383.507   3.26098e-13
      383.610   3.32031e-13
      383.712   3.37950e-13
      383.814   3.43902e-13
      383.916   3.49894e-13
      384.019   3.55983e-13
      384.121   3.62050e-13
      384.223   3.68146e-13
      384.326   3.74339e-13
      384.428   3.80496e-13
      384.531   3.86743e-13
      384.633   3.92961e-13
      384.736   3.99269e-13
      384.838   4.05540e-13
      384.941   4.11900e-13
      385.043   4.18223e-13
      385.146   4.24631e-13
      385.249   4.31060e-13
      385.351   4.37449e-13
      385.454   4.43922e-13
      385.557   4.50408e-13
      385.660   4.56919e-13
      385.762   4.63376e-13
      385.865   4.69911e-13
      385.968   4.76462e-13
      386.071   4.83026e-13
      386.174   4.89601e-13
      386.277   4.96180e-13
      386.380   5.02767e-13
      386.483   5.09362e-13
      386.586   5.15962e-13
      386.689   5.22566e-13
      386.792   5.29174e-13
      386.895   5.35781e-13
      386.998   5.42388e-13
      387.101   5.46498e-13
      387.204   5.42019e-13
      387.308   5.34640e-13
      387.411   5.27431e-13
      387.514   5.20321e-13
      387.617   5.13310e-13
      387.721   5.06329e-13
      387.824   4.99508e-13
      387.927   4.92774e-13
      388.031   4.86072e-13
      388.134   4.79527e-13
      388.238   4.73010e-13
      388.341   4.66638e-13
      388.445   4.60294e-13
      388.548   4.54093e-13
      388.652   4.47922e-13
      388.755   4.41892e-13
      388.859   4.35885e-13
      388.962   4.30016e-13
      389.066   4.24169e-13
      389.170   4.18406e-13
      389.274   4.12718e-13
      389.377   4.07159e-13
      389.481   4.01620e-13
      389.585   3.96161e-13
      389.689   3.90774e-13
      389.793   3.85457e-13
      389.897   3.80217e-13
      390.000   3.75093e-13
      390.104   3.69992e-13
      390.208   3.64957e-13
      390.312   3.59991e-13
      390.416   3.55091e-13
      390.520   3.50251e-13
      390.625   3.45430e-13
      390.729   3.40725e-13
      390.833   3.36080e-13
      390.937   3.31498e-13
      391.041   3.26980e-13
      391.145   3.22523e-13
      391.250   3.18081e-13
      391.354   3.13741e-13
      391.458   3.09457e-13
      391.563   3.05190e-13
      391.667   3.01023e-13
      391.771   2.96913e-13
      391.876   2.92819e-13
      391.980   2.88820e-13
      392.085   2.84838e-13
      392.189   2.80949e-13
      392.294   2.77075e-13
      392.398   2.73293e-13
      392.503   2.69525e-13
      392.607   2.65845e-13
      392.712   2.62182e-13
      392.817   2.58567e-13
      392.921   2.55038e-13
      393.026   2.51523e-13
      393.131   2.48057e-13
      393.236   2.44637e-13
      393.340   2.41298e-13
      393.445   2.37974e-13
      393.550   2.34695e-13
      393.655   2.31461e-13
      393.760   2.28272e-13
      393.865   2.25127e-13
      393.970   2.22028e-13
      394.075   2.18968e-13
      394.180   2.15953e-13
      394.285   2.12979e-13
      394.390   2.10047e-13
      394.495   2.07154e-13
      394.600   2.04302e-13
      394.706   2.01463e-13
      394.811   1.98690e-13
      394.916   1.95954e-13
      395.021   1.93256e-13
      395.126   1.90598e-13
      395.232   1.87949e-13
      395.337   1.85363e-13
      395.443   1.82789e-13
      395.548   1.80274e-13
      395.653   1.77795e-13
      395.759   1.75325e-13
      395.864   1.72914e-13
      395.970   1.70514e-13
      396.075   1.68170e-13
      396.181   1.65835e-13
      396.286   1.63554e-13
      396.392   1.61285e-13
      396.498   1.59048e-13
      396.603   1.56860e-13
      396.709   1.54684e-13
      396.815   1.52537e-13
      396.921   1.50420e-13
      397.026   1.48353e-13
      397.132   1.46294e-13
      397.238   1.44265e-13
      397.344   1.42263e-13
      397.450   1.40291e-13
      397.556   1.38344e-13
      397.662   1.36424e-13
      397.768   1.34531e-13
      397.874   1.32664e-13
      397.980   1.30822e-13
      398.086   1.29005e-13
      398.192   1.27215e-13
      398.298   1.25448e-13
      398.404   1.23707e-13
      398.510   1.21989e-13
      398.617   1.20280e-13
      398.723   1.18610e-13
      398.829   1.16962e-13
      398.935   1.15337e-13
      399.042   1.13721e-13
      399.148   1.12140e-13
      399.255   1.10568e-13
      399.361   1.09032e-13
      399.467   1.07516e-13
      399.574   1.06008e-13
      399.680   1.04534e-13
      399.787   1.03067e-13
      399.893       0.00000
      400.000       0.00000
