Filter Ti-poly
observation_date 22-Sept-2010 22:40:45
wavelength effective area
      1.00000   2.76778e-10
      1.10000   7.88646e-10
      1.20000   2.04571e-09
      1.30000   4.87941e-09
      1.40000   1.10402e-08
      1.50000   2.34778e-08
      1.60000   4.73601e-08
      1.70000   9.15848e-08
      1.80000   1.69784e-07
      1.90000   3.03755e-07
      2.00000   5.25481e-07
      2.10000   8.82912e-07
      2.20000   1.44772e-06
      2.30000   2.31357e-06
      2.40000   3.60986e-06
      2.50000   5.78595e-06
      2.60000   8.95767e-06
      2.70000   1.33548e-05
      2.80000   1.95298e-05
      2.90000   2.82667e-05
      3.00000   4.02742e-05
      3.10000   5.66452e-05
      3.20000   7.88022e-05
      3.30000   0.000108512
      3.40000   0.000147868
      3.50000   0.000199550
      3.60000   0.000268059
      3.70000   0.000356270
      3.80000   0.000471553
      3.90000   0.000620686
      4.00000   0.000811911
      4.10000    0.00105714
      4.20000    0.00137155
      4.30000    0.00177442
      4.40000    0.00228956
      4.50000    0.00294616
      4.60000    0.00377841
      4.70000    0.00484565
      4.80000    0.00620808
      4.90000    0.00785141
      5.00000     0.0101914
      5.10000     0.0130423
      5.20000     0.0167406
      5.30000     0.0213061
      5.40000     0.0270735
      5.50000     0.0344626
      5.60000     0.0425234
      5.70000     0.0552785
      5.80000     0.0648097
      5.90000     0.0989603
      6.00000      0.133035
      6.10000      0.170042
      6.20000      0.208823
      6.30000      0.245817
      6.40000      0.277566
      6.50000      0.300949
      6.60000      0.311539
      6.70000      0.321278
      6.80000      0.321732
      6.90000      0.422124
      7.00000      0.459093
      7.10000      0.485568
      7.20000      0.506608
      7.30000      0.523774
      7.40000      0.536886
      7.50000      0.547329
      7.60000      0.555211
      7.70000      0.559063
      7.80000      0.557801
      7.90000      0.557202
      8.00000      0.805663
      8.10000      0.881743
      8.20000      0.895837
      8.30000      0.905835
      8.40000      0.912346
      8.50000      0.917407
      8.60000      0.920737
      8.70000      0.922938
      8.80000      0.923710
      8.90000      0.923518
      9.00000      0.922299
      9.10000      0.920100
      9.20000      0.917106
      9.30000      0.913236
      9.40000      0.908635
      9.50000      0.903362
      9.60000      0.897367
      9.70000      0.890759
      9.80000      0.883686
      9.90000      0.876175
      10.0000      0.868289
      10.1000      0.860037
      10.2000      0.851445
      10.3000      0.842459
      10.4000      0.833105
      10.5000      0.823409
      10.6000      0.813410
      10.7000      0.803132
      10.8000      0.792585
      10.9000      0.781801
      11.0000      0.770793
      11.1000      0.759597
      11.2000      0.748216
      11.3000      0.736684
      11.4000      0.724997
      11.5000      0.713155
      11.6000      0.701177
      11.7000      0.689013
      11.8000      0.676742
      11.9000      0.664281
      12.0000      0.650947
      12.1000      0.639980
      12.2000      0.640218
      12.3000      0.633686
      12.4000      0.622471
      12.5000      0.610866
      12.6000      0.599122
      12.7000      0.587336
      12.8000      0.575548
      12.9000      0.563768
      13.0000      0.552039
      13.1000      0.540391
      13.2000      0.528841
      13.3000      0.517402
      13.4000      0.506093
      13.5000      0.495042
      13.6000      0.484228
      13.7000      0.473537
      13.8000      0.462964
      13.9000      0.452531
      14.0000      0.442235
      14.1000      0.432062
      14.2000      0.422012
      14.3000      0.412083
      14.4000      0.402266
      14.5000      0.392574
      14.6000      0.383008
      14.7000      0.373560
      14.8000      0.364233
      14.9000      0.355031
      15.0000      0.345956
      15.1000      0.337015
      15.2000      0.328233
      15.3000      0.319593
      15.4000      0.311090
      15.5000      0.302726
      15.6000      0.294518
      15.7000      0.286464
      15.8000      0.278602
      15.9000      0.270902
      16.0000      0.263361
      16.1000      0.255982
      16.2000      0.248803
      16.3000      0.241774
      16.4000      0.234882
      16.5000      0.228122
      16.6000      0.221508
      16.7000      0.215044
      16.8000      0.208702
      16.9000      0.202480
      17.0000      0.196402
      17.1000      0.190466
      17.2000      0.184642
      17.3000      0.178937
      17.4000      0.173479
      17.5000      0.168231
      17.6000      0.163165
      17.7000      0.158307
      17.8000      0.153752
      17.9000      0.149296
      18.0000      0.144906
      18.1000      0.140628
      18.2000      0.136390
      18.3000      0.132183
      18.4000      0.127999
      18.5000      0.123847
      18.6000      0.119713
      18.7000      0.115583
      18.8000      0.111565
      18.9000      0.107629
      19.0000      0.103810
      19.1000      0.100113
      19.2000     0.0965049
      19.3000     0.0930396
      19.4000     0.0896888
      19.5000     0.0864231
      19.6000     0.0833219
      19.7000     0.0803053
      19.8000     0.0773650
      19.9000     0.0745694
      20.0000     0.0718323
      20.1000     0.0691762
      20.2000     0.0666089
      20.3000     0.0640919
      20.4000     0.0616724
      20.5000     0.0593111
      20.6000     0.0570027
      20.7000     0.0547886
      20.8000     0.0526147
      20.9000     0.0505143
      21.0000     0.0485734
      21.1000     0.0467551
      21.2000     0.0453057
      21.3000     0.0439618
      21.4000     0.0428478
      21.5000     0.0419934
      21.6000     0.0414007
      21.7000     0.0407774
      21.8000     0.0401432
      21.9000     0.0394244
      22.0000     0.0386539
      22.1000     0.0377566
      22.2000     0.0366333
      22.3000     0.0353152
      22.4000     0.0332833
      22.5000     0.0310329
      22.6000     0.0261506
      22.7000     0.0230894
      22.8000     0.0293932
      22.9000     0.0373493
      23.0000     0.0468251
      23.1000     0.0525858
      23.2000     0.0548370
      23.3000     0.0546775
      23.4000     0.0533130
      23.5000     0.0519155
      23.6000     0.0505144
      23.7000     0.0490250
      23.8000     0.0475357
      23.9000     0.0460848
      24.0000     0.0446422
      24.1000     0.0432205
      24.2000     0.0418152
      24.3000     0.0404562
      24.4000     0.0391149
      24.5000     0.0378118
      24.6000     0.0365320
      24.7000     0.0352963
      24.8000     0.0340839
      24.9000     0.0329109
      25.0000     0.0317630
      25.1000     0.0306560
      25.2000     0.0295724
      25.3000     0.0285272
      25.4000     0.0275050
      25.5000     0.0265230
      25.6000     0.0255616
      25.7000     0.0246409
      25.8000     0.0237372
      25.9000     0.0228745
      26.0000     0.0220247
      26.1000     0.0212165
      26.2000     0.0204170
      26.3000     0.0196621
      26.4000     0.0189112
      26.5000     0.0182058
      26.6000     0.0175036
      26.7000     0.0168423
      26.8000     0.0161892
      26.9000     0.0155679
      27.0000     0.0149582
      27.1000     0.0143713
      27.2000     0.0137998
      27.3000     0.0595234
      27.4000      0.162954
      27.5000      0.238308
      27.6000      0.234519
      27.7000      0.230739
      27.8000      0.226874
      27.9000      0.223025
      28.0000      0.219248
      28.1000      0.215498
      28.2000      0.211806
      28.3000      0.208159
      28.4000      0.204553
      28.5000      0.201011
      28.6000      0.197493
      28.7000      0.194086
      28.8000      0.190694
      28.9000      0.187370
      29.0000      0.184075
      29.1000      0.180825
      29.2000      0.177624
      29.3000      0.174446
      29.4000      0.171341
      29.5000      0.168249
      29.6000      0.165224
      29.7000      0.162226
      29.8000      0.159271
      29.9000      0.156368
      30.0000      0.153480
      30.1000      0.150669
      30.2000      0.147869
      30.3000      0.150828
      30.4000      0.157060
      30.5000      0.161346
      30.6000      0.158492
      30.7000      0.155651
      30.8000      0.152874
      30.9000      0.150124
      31.0000      0.147409
      31.1000      0.144754
      31.2000      0.142111
      31.3000      0.139535
      31.4000      0.136982
      31.5000      0.134465
      31.6000      0.132013
      31.7000      0.129573
      31.8000      0.127189
      31.9000      0.124828
      32.0000      0.122475
      32.1000      0.120128
      32.2000      0.117792
      32.3000      0.115513
      32.4000      0.113264
      32.5000      0.111036
      32.6000      0.108895
      32.7000      0.106765
      32.8000      0.104678
      32.9000      0.102631
      33.0000      0.100594
      33.1000     0.0986731
      33.2000     0.0967770
      33.3000     0.0949036
      33.4000     0.0930811
      33.5000     0.0912684
      33.6000     0.0894979
      33.7000     0.0877595
      33.8000     0.0860288
      33.9000     0.0843549
      34.0000     0.0826952
      34.1000     0.0810637
      34.2000     0.0794783
      34.3000     0.0778995
      34.4000     0.0763504
      34.5000     0.0748376
      34.6000     0.0733312
      34.7000     0.0718580
      34.8000     0.0704035
      34.9000     0.0689552
      35.0000     0.0675598
      35.1000     0.0661751
      35.2000     0.0648057
      35.3000     0.0635200
      35.4000     0.0622396
      35.5000     0.0609778
      35.6000     0.0597539
      35.7000     0.0585352
      35.8000     0.0573415
      35.9000     0.0561775
      36.0000     0.0550185
      36.1000     0.0538896
      36.2000     0.0527837
      36.3000     0.0516826
      36.4000     0.0506150
      36.5000     0.0495648
      36.6000     0.0485192
      36.7000     0.0475099
      36.8000     0.0465140
      36.9000     0.0455225
      37.0000     0.0445685
      37.1000     0.0436250
      37.2000     0.0426854
      37.3000     0.0417841
      37.4000     0.0408911
      37.5000     0.0400020
      37.6000     0.0391501
      37.7000     0.0383055
      37.8000     0.0374646
      37.9000     0.0366597
      38.0000     0.0358621
      38.1000     0.0350680
      38.2000     0.0343073
      38.3000     0.0335546
      38.4000     0.0328051
      38.5000     0.0320860
      38.6000     0.0313766
      38.7000     0.0306701
      38.8000     0.0299903
      38.9000     0.0293222
      39.0000     0.0286570
      39.1000     0.0280142
      39.2000     0.0273859
      39.3000     0.0267604
      39.4000     0.0261523
      39.5000     0.0255620
      39.6000     0.0249742
      39.7000     0.0243989
      39.8000     0.0238451
      39.9000     0.0232937
      40.0000     0.0227493
      40.1000     0.0222310
      40.2000     0.0217150
      40.3000     0.0212013
      40.4000     0.0207148
      40.5000     0.0202317
      40.6000     0.0197507
      40.7000     0.0192901
      40.8000     0.0188383
      40.9000     0.0183886
      41.0000     0.0179519
      41.1000     0.0175298
      41.2000     0.0171096
      41.3000     0.0166958
      41.4000     0.0163026
      41.5000     0.0159112
      41.6000     0.0155214
      41.7000     0.0151523
      41.8000     0.0147875
      41.9000     0.0144243
      42.0000     0.0140742
      42.1000     0.0137351
      42.2000     0.0133974
      42.3000     0.0130646
      42.4000     0.0127494
      42.5000     0.0124356
      42.6000     0.0121231
      42.7000     0.0118265
      42.8000     0.0115350
      42.9000     0.0112448
      43.0000     0.0109624
      43.1000     0.0106922
      43.2000     0.0104233
      43.3000     0.0101554
      43.4000     0.0310029
      43.5000     0.0551050
      43.6000     0.0825621
      43.7000      0.102123
      43.8000      0.107000
      43.9000      0.107015
      44.0000      0.105265
      44.1000      0.101868
      44.2000      0.100328
      44.3000     0.0989526
      44.4000     0.0975982
      44.5000     0.0962705
      44.6000     0.0949461
      44.7000     0.0936249
      44.8000     0.0923461
      44.9000     0.0910760
      45.0000     0.0898089
      45.1000     0.0885566
      45.2000     0.0873356
      45.3000     0.0861177
      45.4000     0.0849026
      45.5000     0.0837174
      45.6000     0.0825477
      45.7000     0.0813809
      45.8000     0.0802183
      45.9000     0.0790954
      46.0000     0.0779751
      46.1000     0.0768577
      46.2000     0.0757905
      46.3000     0.0748081
      46.4000     0.0738281
      46.5000     0.0728504
      46.6000     0.0719082
      46.7000     0.0709848
      46.8000     0.0700637
      46.9000     0.0691448
      47.0000     0.0682746
      47.1000     0.0674096
      47.2000     0.0665467
      47.3000     0.0656914
      47.4000     0.0648643
      47.5000     0.0640391
      47.6000     0.0632160
      47.7000     0.0624086
      47.8000     0.0616252
      47.9000     0.0608436
      48.0000     0.0600639
      48.1000     0.0593017
      48.2000     0.0585535
      48.3000     0.0578069
      48.4000     0.0570622
      48.5000     0.0563443
      48.6000     0.0556381
      48.7000     0.0549335
      48.8000     0.0542306
      48.9000     0.0535512
      49.0000     0.0528776
      49.1000     0.0522057
      49.2000     0.0515354
      49.3000     0.0508880
      49.4000     0.0502438
      49.5000     0.0496012
      49.6000     0.0489599
      49.7000     0.0483417
      49.8000     0.0477255
      49.9000     0.0471106
      50.0000     0.0464979
      50.1000     0.0459040
      50.2000     0.0453235
      50.3000     0.0447496
      50.4000     0.0441820
      50.5000     0.0436204
      50.6000     0.0430654
      50.7000     0.0425170
      50.8000     0.0419747
      50.9000     0.0414390
      51.0000     0.0409097
      51.1000     0.0403869
      51.2000     0.0398698
      51.3000     0.0393596
      51.4000     0.0388561
      51.5000     0.0383570
      51.6000     0.0378632
      51.7000     0.0373744
      51.8000     0.0368863
      51.9000     0.0364034
      52.0000     0.0359256
      52.1000     0.0354534
      52.2000     0.0349863
      52.3000     0.0345239
      52.4000     0.0340683
      52.5000     0.0336180
      52.6000     0.0331622
      52.7000     0.0327011
      52.8000     0.0322449
      52.9000     0.0317951
      53.0000     0.0313512
      53.1000     0.0309120
      53.2000     0.0304790
      53.3000     0.0300511
      53.4000     0.0296278
      53.5000     0.0292101
      53.6000     0.0287976
      53.7000     0.0283897
      53.8000     0.0279870
      53.9000     0.0275891
      54.0000     0.0271966
      54.1000     0.0268101
      54.2000     0.0264279
      54.3000     0.0260497
      54.4000     0.0256764
      54.5000     0.0253075
      54.6000     0.0249434
      54.7000     0.0245850
      54.8000     0.0242313
      54.9000     0.0238815
      55.0000     0.0235363
      55.1000     0.0231946
      55.2000     0.0228468
      55.3000     0.0224948
      55.4000     0.0221475
      55.5000     0.0218042
      55.6000     0.0214657
      55.7000     0.0211319
      55.8000     0.0208022
      55.9000     0.0204774
      56.0000     0.0201603
      56.1000     0.0198435
      56.2000     0.0195275
      56.3000     0.0192161
      56.4000     0.0189086
      56.5000     0.0186053
      56.6000     0.0183067
      56.7000     0.0180125
      56.8000     0.0177220
      56.9000     0.0174361
      57.0000     0.0171613
      57.1000     0.0168947
      57.2000     0.0166317
      57.3000     0.0163721
      57.4000     0.0161160
      57.5000     0.0158633
      57.6000     0.0156141
      57.7000     0.0153681
      57.8000     0.0151262
      57.9000     0.0148881
      58.0000     0.0146531
      58.1000     0.0144209
      58.2000     0.0141920
      58.3000     0.0139664
      58.4000     0.0137437
      58.5000     0.0135244
      58.6000     0.0133086
      58.7000     0.0130957
      58.8000     0.0128857
      58.9000     0.0126785
      59.0000     0.0124743
      59.1000     0.0122730
      59.2000     0.0120746
      59.3000     0.0118793
      59.4000     0.0116868
      59.5000     0.0114970
      59.6000     0.0113101
      59.7000     0.0111257
      59.8000     0.0109438
      59.9000     0.0107645
      60.0000     0.0105882
      60.1000     0.0104144
      60.2000     0.0102430
      60.3000     0.0100743
      60.4000    0.00990809
      60.5000    0.00974450
      60.6000    0.00958306
      60.7000    0.00942377
      60.8000    0.00926674
      60.9000    0.00911185
      61.0000    0.00895940
      61.1000    0.00880946
      61.2000    0.00866177
      61.3000    0.00851627
      61.4000    0.00837296
      61.5000    0.00823182
      61.6000    0.00809267
      61.7000    0.00795602
      61.8000    0.00782382
      61.9000    0.00769445
      62.0000    0.00756698
      62.1000    0.00744138
      62.2000    0.00731786
      62.3000    0.00719619
      62.4000    0.00707620
      62.5000    0.00695795
      62.6000    0.00684147
      62.7000    0.00672715
      62.8000    0.00661979
      62.9000    0.00651414
      63.0000    0.00641008
      63.1000    0.00630752
      63.2000    0.00620635
      63.3000    0.00610656
      63.4000    0.00600826
      63.5000    0.00591150
      63.6000    0.00581607
      63.7000    0.00572200
      63.8000    0.00562940
      63.9000    0.00553823
      64.0000    0.00544838
      64.1000    0.00535986
      64.2000    0.00527277
      64.3000    0.00518702
      64.4000    0.00510246
      64.5000    0.00501903
      64.6000    0.00493677
      64.7000    0.00485571
      64.8000    0.00477584
      64.9000    0.00469714
      65.0000    0.00461969
      65.1000    0.00454358
      65.2000    0.00446865
      65.3000    0.00439476
      65.4000    0.00432192
      65.5000    0.00425012
      65.6000    0.00417932
      65.7000    0.00410961
      65.8000    0.00404102
      65.9000    0.00397357
      66.0000    0.00390723
      66.1000    0.00384195
      66.2000    0.00377763
      66.3000    0.00371427
      66.4000    0.00365184
      66.5000    0.00359032
      66.6000    0.00352969
      66.7000    0.00347001
      66.8000    0.00341134
      66.9000    0.00335398
      67.0000    0.00329782
      67.1000    0.00324255
      67.2000    0.00318814
      67.3000    0.00313460
      67.4000    0.00308185
      67.5000    0.00302987
      67.6000    0.00297868
      67.7000    0.00292830
      67.8000    0.00287864
      67.9000    0.00282955
      68.0000    0.00278119
      68.1000    0.00273366
      68.2000    0.00268686
      68.3000    0.00264080
      68.4000    0.00259547
      68.5000    0.00255087
      68.6000    0.00250699
      68.7000    0.00246382
      68.8000    0.00242132
      68.9000    0.00238010
      69.0000    0.00234285
      69.1000    0.00230923
      69.2000    0.00227662
      69.3000    0.00224487
      69.4000    0.00221437
      69.5000    0.00218329
      69.6000    0.00215128
      69.7000    0.00212058
      69.8000    0.00209138
      69.9000    0.00206257
      70.0000    0.00203407
      70.1000    0.00200538
      70.2000    0.00197810
      70.3000    0.00195223
      70.4000    0.00192646
      70.5000    0.00190136
      70.6000    0.00187687
      70.7000    0.00185272
      70.8000    0.00182883
      70.9000    0.00180437
      71.0000    0.00177943
      71.1000    0.00175566
      71.2000    0.00173302
      71.3000    0.00170902
      71.4000    0.00168334
      71.5000    0.00165970
      71.6000    0.00163901
      71.7000    0.00161817
      71.8000    0.00159664
      71.9000    0.00157587
      72.0000    0.00155666
      72.1000    0.00153703
      72.2000    0.00151451
      72.3000    0.00149239
      72.4000    0.00147299
      72.5000    0.00145389
      72.6000    0.00143503
      72.7000    0.00141643
      72.8000    0.00139806
      72.9000    0.00137993
      73.0000    0.00136246
      73.1000    0.00134541
      73.2000    0.00132858
      73.3000    0.00131196
      73.4000    0.00129570
      73.5000    0.00127993
      73.6000    0.00126435
      73.7000    0.00124898
      73.8000    0.00123379
      73.9000    0.00121877
      74.0000    0.00120401
      74.1000    0.00119062
      74.2000    0.00117772
      74.3000    0.00116377
      74.4000    0.00114908
      74.5000    0.00113482
      74.6000    0.00112126
      74.7000    0.00110787
      74.8000    0.00109471
      74.9000    0.00108183
      75.0000    0.00106901
      75.1000    0.00105629
      75.2000    0.00104369
      75.3000    0.00103123
      75.4000    0.00101903
      75.5000    0.00100724
      75.6000   0.000995587
      75.7000   0.000984072
      75.8000   0.000972709
      75.9000   0.000961624
      76.0000   0.000950796
      76.1000   0.000940792
      76.2000   0.000930994
      76.3000   0.000921310
      76.4000   0.000911906
      76.5000   0.000902612
      76.6000   0.000893400
      76.7000   0.000884274
      76.8000   0.000875234
      76.9000   0.000866291
      77.0000   0.000857446
      77.1000   0.000848702
      77.2000   0.000840054
      77.3000   0.000831491
      77.4000   0.000823007
      77.5000   0.000814579
      77.6000   0.000806045
      77.7000   0.000797594
      77.8000   0.000789221
      77.9000   0.000780920
      78.0000   0.000772583
      78.1000   0.000763997
      78.2000   0.000755522
      78.3000   0.000747876
      78.4000   0.000740574
      78.5000   0.000733265
      78.6000   0.000725796
      78.7000   0.000718398
      78.8000   0.000710787
      78.9000   0.000703178
      79.0000   0.000695646
      79.1000   0.000688185
      79.2000   0.000680818
      79.3000   0.000673755
      79.4000   0.000666849
      79.5000   0.000659943
      79.6000   0.000652868
      79.7000   0.000645856
      79.8000   0.000638792
      79.9000   0.000631736
      80.0000   0.000624722
      80.1000   0.000617504
      80.2000   0.000610345
      80.3000   0.000602963
      80.4000   0.000595381
      80.5000   0.000587870
      80.6000   0.000580451
      80.7000   0.000573120
      80.8000   0.000565920
      80.9000   0.000558909
      81.0000   0.000551976
      81.1000   0.000545129
      81.2000   0.000538363
      81.3000   0.000531688
      81.4000   0.000525626
      81.5000   0.000519663
      81.6000   0.000513917
      81.7000   0.000508555
      81.8000   0.000503263
      81.9000   0.000498239
      82.0000   0.000493380
      82.1000   0.000488585
      82.2000   0.000483665
      82.3000   0.000478795
      82.4000   0.000474090
      82.5000   0.000469607
      82.6000   0.000465154
      82.7000   0.000460598
      82.8000   0.000455917
      82.9000   0.000451271
      83.0000   0.000446720
      83.1000   0.000442235
      83.2000   0.000437795
      83.3000   0.000433399
      83.4000   0.000429055
      83.5000   0.000424774
      83.6000   0.000420649
      83.7000   0.000416562
      83.8000   0.000412484
      83.9000   0.000408368
      84.0000   0.000404287
      84.1000   0.000400309
      84.2000   0.000396468
      84.3000   0.000392660
      84.4000   0.000388837
      84.5000   0.000385010
      84.6000   0.000381220
      84.7000   0.000377541
      84.8000   0.000373940
      84.9000   0.000370377
      85.0000   0.000366745
      85.1000   0.000363118
      85.2000   0.000359530
      85.3000   0.000356136
      85.4000   0.000352800
      85.5000   0.000349498
      85.6000   0.000346145
      85.7000   0.000342817
      85.8000   0.000339518
      85.9000   0.000336246
      86.0000   0.000333001
      86.1000   0.000329786
      86.2000   0.000326705
      86.3000   0.000323654
      86.4000   0.000320630
      86.5000   0.000317632
      86.6000   0.000314660
      86.7000   0.000311713
      86.8000   0.000308550
      86.9000   0.000305410
      87.0000   0.000302303
      87.1000   0.000299281
      87.2000   0.000296295
      87.3000   0.000293340
      87.4000   0.000290328
      87.5000   0.000287329
      87.6000   0.000284354
      87.7000   0.000281457
      87.8000   0.000278597
      87.9000   0.000275761
      88.0000   0.000272951
      88.1000   0.000270166
      88.2000   0.000267410
      88.3000   0.000264745
      88.4000   0.000262164
      88.5000   0.000259616
      88.6000   0.000257071
      88.7000   0.000254517
      88.8000   0.000251991
      88.9000   0.000249486
      89.0000   0.000246993
      89.1000   0.000244525
      89.2000   0.000242093
      89.3000   0.000239718
      89.4000   0.000237413
      89.5000   0.000235128
      89.6000   0.000232863
      89.7000   0.000230617
      89.8000   0.000228387
      89.9000   0.000226175
      90.0000   0.000223981
      90.1000   0.000221808
      90.2000   0.000219602
      90.3000   0.000217295
      90.4000   0.000215010
      90.5000   0.000212751
      90.6000   0.000210558
      90.7000   0.000208379
      90.8000   0.000206197
      90.9000   0.000203989
      91.0000   0.000201789
      91.1000   0.000199610
      91.2000   0.000197423
      91.3000   0.000195206
      91.4000   0.000193006
      91.5000   0.000190828
      91.6000   0.000188674
      91.7000   0.000186739
      91.8000   0.000185131
      91.9000   0.000183901
      92.0000   0.000182454
      92.1000   0.000180971
      92.2000   0.000179377
      92.3000   0.000177686
      92.4000   0.000175947
      92.5000   0.000174226
      92.6000   0.000172522
      92.7000   0.000170835
      92.8000   0.000169164
      92.9000   0.000167531
      93.0000   0.000165965
      93.1000   0.000164411
      93.2000   0.000162872
      93.3000   0.000161411
      93.4000   0.000159985
      93.5000   0.000158571
      93.6000   0.000157164
      93.7000   0.000155758
      93.8000   0.000154350
      93.9000   0.000152953
      94.0000   0.000151567
      94.1000   0.000150191
      94.2000   0.000148828
      94.3000   0.000147490
      94.4000   0.000146207
      94.5000   0.000144939
      94.6000   0.000143683
      94.7000   0.000142439
      94.8000   0.000141206
      94.9000   0.000139982
      95.0000   0.000138767
      95.1000   0.000137564
      95.2000   0.000136368
      95.3000   0.000135179
      95.4000   0.000134003
      95.5000   0.000132860
      95.6000   0.000131724
      95.7000   0.000130598
      95.8000   0.000129464
      95.9000   0.000128331
      96.0000   0.000127205
      96.1000   0.000126087
      96.2000   0.000124976
      96.3000   0.000123877
      96.4000   0.000122786
      96.5000   0.000121704
      96.6000   0.000120637
      96.7000   0.000119580
      96.8000   0.000118529
      96.9000   0.000117485
      97.0000   0.000116449
      97.1000   0.000115426
      97.2000   0.000114411
      97.3000   0.000113388
      97.4000   0.000112359
      97.5000   0.000111343
      97.6000   0.000110335
      97.7000   0.000109344
      97.8000   0.000108366
      97.9000   0.000107396
      98.0000   0.000106433
      98.1000   0.000105476
      98.2000   0.000104528
      98.3000   0.000103666
      98.4000   0.000102849
      98.5000   0.000102063
      98.6000   0.000101283
      98.7000   0.000100508
      98.8000   9.97387e-05
      98.9000   9.89741e-05
      99.0000   9.82179e-05
      99.1000   9.74675e-05
      99.2000   9.67169e-05
      99.3000   9.59427e-05
      99.4000   9.51754e-05
      99.5000   9.44141e-05
      99.6000   9.36655e-05
      99.7000   9.29661e-05
      99.8000   9.22915e-05
      99.9000   9.17967e-05
      100.000   9.15743e-05
      100.100   9.13206e-05
      100.200   9.10663e-05
      100.300   9.08117e-05
      100.400   9.05572e-05
      100.500   9.03151e-05
      100.600   9.00716e-05
      100.700   8.98276e-05
      100.800   8.95831e-05
      100.900   8.93384e-05
      101.000   8.90940e-05
      101.100   8.88504e-05
      101.200   8.86079e-05
      101.300   8.83665e-05
      101.400   8.81261e-05
      101.500   8.78562e-05
      101.600   8.75486e-05
      101.700   8.72504e-05
      101.800   8.69555e-05
      101.900   8.66608e-05
      102.000   8.63680e-05
      102.100   8.60889e-05
      102.200   8.58166e-05
      102.300   8.55443e-05
      102.400   8.52723e-05
      102.500   8.50002e-05
      102.600   8.47275e-05
      102.700   8.44543e-05
      102.800   8.41809e-05
      102.900   8.39072e-05
      103.000   8.36336e-05
      103.100   8.33604e-05
      103.200   8.30879e-05
      103.300   8.28161e-05
      103.400   8.25449e-05
      103.500   8.22744e-05
      103.600   8.20043e-05
      103.700   8.17333e-05
      103.800   8.14430e-05
      103.900   8.11302e-05
      104.000   8.08166e-05
      104.100   8.05043e-05
      104.200   8.02022e-05
      104.300   7.99596e-05
      104.400   7.97194e-05
      104.500   7.94799e-05
      104.600   7.92398e-05
      104.700   7.89814e-05
      104.800   7.87152e-05
      104.900   7.84490e-05
      105.000   7.81833e-05
      105.100   7.79311e-05
      105.200   7.77120e-05
      105.300   7.74938e-05
      105.400   7.72757e-05
      105.500   7.70579e-05
      105.600   7.68479e-05
      105.700   7.66396e-05
      105.800   7.64309e-05
      105.900   7.62225e-05
      106.000   7.60253e-05
      106.100   7.58513e-05
      106.200   7.56789e-05
      106.300   7.55058e-05
      106.400   7.53324e-05
      106.500   7.51588e-05
      106.600   7.49851e-05
      106.700   7.48114e-05
      106.800   7.46375e-05
      106.900   7.44640e-05
      107.000   7.42905e-05
      107.100   7.41170e-05
      107.200   7.39437e-05
      107.300   7.37708e-05
      107.400   7.35967e-05
      107.500   7.34221e-05
      107.600   7.32481e-05
      107.700   7.30746e-05
      107.800   7.29022e-05
      107.900   7.27251e-05
      108.000   7.25481e-05
      108.100   7.23708e-05
      108.200   7.21926e-05
      108.300   7.20129e-05
      108.400   7.18266e-05
      108.500   7.16395e-05
      108.600   7.14517e-05
      108.700   7.12628e-05
      108.800   7.10557e-05
      108.900   7.08229e-05
      109.000   7.05897e-05
      109.100   7.03563e-05
      109.200   7.01232e-05
      109.300   6.98905e-05
      109.400   6.96581e-05
      109.500   6.94263e-05
      109.600   6.91953e-05
      109.700   6.89649e-05
      109.800   6.87357e-05
      109.900   6.85077e-05
      110.000   6.82808e-05
      110.100   6.80549e-05
      110.200   6.78295e-05
      110.300   6.76158e-05
      110.400   6.74032e-05
      110.500   6.71909e-05
      110.600   6.69782e-05
      110.700   6.67652e-05
      110.800   6.65518e-05
      110.900   6.63379e-05
      111.000   6.61235e-05
      111.100   6.59088e-05
      111.200   6.56949e-05
      111.300   6.55033e-05
      111.400   6.53119e-05
      111.500   6.51200e-05
      111.600   6.49279e-05
      111.700   6.47366e-05
      111.800   6.45595e-05
      111.900   6.43829e-05
      112.000   6.42066e-05
      112.100   6.40304e-05
      112.200   6.38546e-05
      112.300   6.36649e-05
      112.400   6.34753e-05
      112.500   6.32866e-05
      112.600   6.30986e-05
      112.700   6.29137e-05
      112.800   6.27432e-05
      112.900   6.25385e-05
      113.000   6.23458e-05
      113.100   6.21583e-05
      113.200   6.19639e-05
      113.300   6.17770e-05
      113.400   6.15112e-05
      113.500   6.12260e-05
      113.600   6.10092e-05
      113.700   6.07715e-05
      113.800   6.04875e-05
      113.900   6.02710e-05
      114.000   6.00543e-05
      114.100   5.97894e-05
      114.200   5.95488e-05
      114.300   5.93470e-05
      114.400   5.91351e-05
      114.500   5.89128e-05
      114.600   5.87410e-05
      114.700   5.85316e-05
      114.800   5.83480e-05
      114.900   5.82238e-05
      115.000   5.80569e-05
      115.100   5.78649e-05
      115.200   5.76704e-05
      115.300   5.75297e-05
      115.400   5.73377e-05
      115.500   5.71709e-05
      115.600   5.69825e-05
      115.700   5.67616e-05
      115.800   5.65842e-05
      115.900   5.63837e-05
      116.000   5.62208e-05
      116.100   5.61159e-05
      116.200   5.60061e-05
      116.300   5.58854e-05
      116.400   5.57456e-05
      116.500   5.56471e-05
      116.600   5.55353e-05
      116.700   5.54336e-05
      116.800   5.53192e-05
      116.900   5.51534e-05
      117.000   5.50452e-05
      117.100   5.51026e-05
      117.200   5.52770e-05
      117.300   5.53368e-05
      117.400   5.53889e-05
      117.500   5.54429e-05
      117.600   5.54292e-05
      117.700   5.53889e-05
      117.800   5.53130e-05
      117.900   5.52189e-05
      118.000   5.50906e-05
      118.100   5.49295e-05
      118.200   5.47942e-05
      118.300   5.46700e-05
      118.400   5.44162e-05
      118.500   5.41729e-05
      118.600   5.39892e-05
      118.700   5.37843e-05
      118.800   5.35506e-05
      118.900   5.33368e-05
      119.000   5.30525e-05
      119.100   5.26889e-05
      119.200   5.23961e-05
      119.300   5.21623e-05
      119.400   5.19614e-05
      119.500   5.17752e-05
      119.600   5.15423e-05
      119.700   5.12550e-05
      119.800   5.08595e-05
      119.900   5.03209e-05
      120.000   4.98292e-05
      120.100   4.93753e-05
      120.200   4.91000e-05
      120.300   4.89277e-05
      120.400   4.87542e-05
      120.500   4.84356e-05
      120.600   4.80068e-05
      120.700   4.75432e-05
      120.800   4.71035e-05
      120.900   4.68545e-05
      121.000   4.69032e-05
      121.100   4.68986e-05
      121.200   4.67443e-05
      121.300   4.64835e-05
      121.400   4.61414e-05
      121.500   4.57380e-05
      121.600   4.50966e-05
      121.700   4.45511e-05
      121.800   4.39221e-05
      121.900   4.32832e-05
      122.000   4.25880e-05
      122.100   4.19373e-05
      122.200   4.12955e-05
      122.300   4.08578e-05
      122.400   4.06410e-05
      122.500   4.04712e-05
      122.600   4.02733e-05
      122.700   4.00734e-05
      122.800   3.98233e-05
      122.900   3.96025e-05
      123.000   3.96408e-05
      123.100   4.01303e-05
      123.200   4.06516e-05
      123.300   4.14074e-05
      123.400   4.23589e-05
      123.500   4.35904e-05
      123.600   4.46677e-05
      123.700   4.52797e-05
      123.800   4.57600e-05
      123.900   4.63766e-05
      124.000   4.72141e-05
      124.100   4.87683e-05
      124.200   5.18522e-05
      124.300   5.64361e-05
      124.400   6.08812e-05
      124.500   6.22748e-05
      124.600   6.22490e-05
      124.700   6.20590e-05
      124.800   6.18857e-05
      124.900   6.17113e-05
      125.000   6.15346e-05
      125.100   6.13414e-05
      125.200   6.11464e-05
      125.300   6.09513e-05
      125.400   6.07563e-05
      125.500   6.05615e-05
      125.600   6.03667e-05
      125.700   6.01724e-05
      125.800   5.99781e-05
      125.900   5.97844e-05
      126.000   5.95912e-05
      126.100   5.93986e-05
      126.200   5.92066e-05
      126.300   5.90151e-05
      126.400   5.88243e-05
      126.500   5.86339e-05
      126.600   5.84441e-05
      126.700   5.82548e-05
      126.800   5.80659e-05
      126.900   5.78772e-05
      127.000   5.76871e-05
      127.100   5.74913e-05
      127.200   5.72928e-05
      127.300   5.70936e-05
      127.400   5.68946e-05
      127.500   5.66955e-05
      127.600   5.64965e-05
      127.700   5.62975e-05
      127.800   5.60984e-05
      127.900   5.58994e-05
      128.000   5.57004e-05
      128.100   5.55015e-05
      128.200   5.53027e-05
      128.300   5.51039e-05
      128.400   5.49053e-05
      128.500   5.47068e-05
      128.600   5.45083e-05
      128.700   5.43102e-05
      128.800   5.41123e-05
      128.900   5.39145e-05
      129.000   5.37173e-05
      129.100   5.35195e-05
      129.200   5.33187e-05
      129.300   5.31184e-05
      129.400   5.29189e-05
      129.500   5.27200e-05
      129.600   5.25219e-05
      129.700   5.23245e-05
      129.800   5.21277e-05
      129.900   5.19316e-05
      130.000   5.17363e-05
      130.100   5.15416e-05
      130.200   5.13474e-05
      130.300   5.11538e-05
      130.400   5.09607e-05
      130.500   5.07680e-05
      130.600   5.05756e-05
      130.700   5.03837e-05
      130.800   5.01922e-05
      130.900   5.00011e-05
      131.000   4.98102e-05
      131.100   4.96196e-05
      131.200   4.94290e-05
      131.300   4.92378e-05
      131.400   4.90469e-05
      131.500   4.88563e-05
      131.600   4.86660e-05
      131.700   4.84761e-05
      131.800   4.82864e-05
      131.900   4.80971e-05
      132.000   4.79080e-05
      132.100   4.77193e-05
      132.200   4.75309e-05
      132.300   4.73428e-05
      132.400   4.71552e-05
      132.500   4.69680e-05
      132.600   4.67812e-05
      132.700   4.65949e-05
      132.800   4.64091e-05
      132.900   4.62240e-05
      133.000   4.60393e-05
      133.100   4.58551e-05
      133.200   4.56715e-05
      133.300   4.54882e-05
      133.400   4.53050e-05
      133.500   4.51221e-05
      133.600   4.49397e-05
      133.700   4.47578e-05
      133.800   4.45764e-05
      133.900   4.43955e-05
      134.000   4.42151e-05
      134.100   4.40351e-05
      134.200   4.38556e-05
      134.300   4.36766e-05
      134.400   4.34982e-05
      134.500   4.33203e-05
      134.600   4.31429e-05
      134.700   4.29660e-05
      134.800   4.27897e-05
      134.900   4.26139e-05
      135.000   4.24386e-05
      135.100   4.22639e-05
      135.200   4.20897e-05
      135.300   4.19161e-05
      135.400   4.17429e-05
      135.500   4.15699e-05
      135.600   4.13968e-05
      135.700   4.12241e-05
      135.800   4.10519e-05
      135.900   4.08802e-05
      136.000   4.07091e-05
      136.100   4.05383e-05
      136.200   4.03683e-05
      136.300   4.01986e-05
      136.400   4.00294e-05
      136.500   3.98608e-05
      136.600   3.96926e-05
      136.700   3.95249e-05
      136.800   3.93576e-05
      136.900   3.91908e-05
      137.000   3.90244e-05
      137.100   3.88584e-05
      137.200   3.86927e-05
      137.300   3.85273e-05
      137.400   3.83625e-05
      137.500   3.81980e-05
      137.600   3.80408e-05
      137.700   3.79013e-05
      137.800   3.77751e-05
      137.900   3.76490e-05
      138.000   3.75231e-05
      138.100   3.73974e-05
      138.200   3.72721e-05
      138.300   3.71468e-05
      138.400   3.70219e-05
      138.500   3.68972e-05
      138.600   3.67729e-05
      138.700   3.66488e-05
      138.800   3.65251e-05
      138.900   3.64017e-05
      139.000   3.62786e-05
      139.100   3.61559e-05
      139.200   3.60336e-05
      139.300   3.59116e-05
      139.400   3.57899e-05
      139.500   3.56686e-05
      139.600   3.55476e-05
      139.700   3.54270e-05
      139.800   3.53067e-05
      139.900   3.51866e-05
      140.000   3.50666e-05
      140.100   3.49468e-05
      140.200   3.48274e-05
      140.300   3.47082e-05
      140.400   3.45893e-05
      140.500   3.44706e-05
      140.600   3.43521e-05
      140.700   3.42337e-05
      140.800   3.41156e-05
      140.900   3.39975e-05
      141.000   3.38795e-05
      141.100   3.37616e-05
      141.200   3.36438e-05
      141.300   3.35260e-05
      141.400   3.34083e-05
      141.500   3.32907e-05
      141.600   3.31732e-05
      141.700   3.30556e-05
      141.800   3.29383e-05
      141.900   3.28211e-05
      142.000   3.27041e-05
      142.100   3.26003e-05
      142.200   3.25341e-05
      142.300   3.25001e-05
      142.400   3.24659e-05
      142.500   3.24312e-05
      142.600   3.23963e-05
      142.700   3.23611e-05
      142.800   3.23258e-05
      142.900   3.22902e-05
      143.000   3.22544e-05
      143.100   3.22183e-05
      143.200   3.21821e-05
      143.300   3.21456e-05
      143.400   3.21090e-05
      143.500   3.20724e-05
      143.600   3.20356e-05
      143.700   3.19986e-05
      143.800   3.19616e-05
      143.900   3.19244e-05
      144.000   3.18871e-05
      144.100   3.18496e-05
      144.200   3.18120e-05
      144.300   3.17743e-05
      144.400   3.17399e-05
      144.500   3.17528e-05
      144.600   3.17805e-05
      144.700   3.18095e-05
      144.800   3.18378e-05
      144.900   3.18656e-05
      145.000   3.18928e-05
      145.100   3.19195e-05
      145.200   3.19455e-05
      145.300   3.19708e-05
      145.400   3.19955e-05
      145.500   3.20196e-05
      145.600   3.20429e-05
      145.700   3.20654e-05
      145.800   3.20874e-05
      145.900   3.21087e-05
      146.000   3.21293e-05
      146.100   3.21492e-05
      146.200   3.21685e-05
      146.300   3.21872e-05
      146.400   3.22052e-05
      146.500   3.22224e-05
      146.600   3.22391e-05
      146.700   3.22552e-05
      146.800   3.22688e-05
      146.900   3.22789e-05
      147.000   3.22885e-05
      147.100   3.22974e-05
      147.200   3.23059e-05
      147.300   3.23140e-05
      147.400   3.23215e-05
      147.500   3.23287e-05
      147.600   3.23355e-05
      147.700   3.23418e-05
      147.800   3.23477e-05
      147.900   3.23532e-05
      148.000   3.23584e-05
      148.100   3.23632e-05
      148.200   3.23677e-05
      148.300   3.23719e-05
      148.400   3.23757e-05
      148.500   3.23791e-05
      148.600   3.23822e-05
      148.700   3.23848e-05
      148.800   3.23870e-05
      148.900   3.23888e-05
      149.000   3.23902e-05
      149.100   3.23911e-05
      149.200   3.23912e-05
      149.300   3.23909e-05
      149.400   3.23900e-05
      149.500   3.23885e-05
      149.600   3.23865e-05
      149.700   3.23838e-05
      149.800   3.23806e-05
      149.900   3.23769e-05
      150.000   3.23728e-05
      150.100   3.23680e-05
      150.200   3.23624e-05
      150.300   3.23563e-05
      150.400   3.23496e-05
      150.500   3.23424e-05
      150.600   3.23346e-05
      150.700   3.23262e-05
      150.800   3.23173e-05
      150.900   3.23076e-05
      151.000   3.22973e-05
      151.100   3.22867e-05
      151.200   3.22754e-05
      151.300   3.22635e-05
      151.400   3.22511e-05
      151.500   3.22382e-05
      151.600   3.22252e-05
      151.700   3.22121e-05
      151.800   3.21986e-05
      151.900   3.21846e-05
      152.000   3.21701e-05
      152.100   3.21552e-05
      152.200   3.21400e-05
      152.300   3.21242e-05
      152.400   3.21080e-05
      152.500   3.20915e-05
      152.600   3.20745e-05
      152.700   3.20571e-05
      152.800   3.20394e-05
      152.900   3.20212e-05
      153.000   3.20027e-05
      153.100   3.19837e-05
      153.200   3.19644e-05
      153.300   3.19447e-05
      153.400   3.19246e-05
      153.500   3.19039e-05
      153.600   3.18829e-05
      153.700   3.18616e-05
      153.800   3.18397e-05
      153.900   3.18173e-05
      154.000   3.17828e-05
      154.100   3.17340e-05
      154.200   3.16829e-05
      154.300   3.16315e-05
      154.400   3.15797e-05
      154.500   3.15274e-05
      154.600   3.14747e-05
      154.700   3.14217e-05
      154.800   3.13682e-05
      154.900   3.13143e-05
      155.000   3.12599e-05
      155.100   3.12053e-05
      155.200   3.11501e-05
      155.300   3.10945e-05
      155.400   3.10386e-05
      155.500   3.09823e-05
      155.600   3.09255e-05
      155.700   3.08683e-05
      155.800   3.08108e-05
      155.900   3.07528e-05
      156.000   3.06945e-05
      156.100   3.06357e-05
      156.200   3.05766e-05
      156.300   3.05171e-05
      156.400   3.04573e-05
      156.500   3.03930e-05
      156.600   3.03181e-05
      156.700   3.02423e-05
      156.800   3.01662e-05
      156.900   3.00898e-05
      157.000   3.00133e-05
      157.100   2.99363e-05
      157.200   2.98592e-05
      157.300   2.97818e-05
      157.400   2.97043e-05
      157.500   2.96263e-05
      157.600   2.95482e-05
      157.700   2.94698e-05
      157.800   2.93912e-05
      157.900   2.93123e-05
      158.000   2.92331e-05
      158.100   2.91537e-05
      158.200   2.90740e-05
      158.300   2.89940e-05
      158.400   2.89139e-05
      158.500   2.88335e-05
      158.600   2.87528e-05
      158.700   2.86719e-05
      158.800   2.85908e-05
      158.900   2.85095e-05
      159.000   2.84279e-05
      159.100   2.83459e-05
      159.200   2.82638e-05
      159.300   2.81814e-05
      159.400   2.80988e-05
      159.500   2.80160e-05
      159.600   2.79332e-05
      159.700   2.78501e-05
      159.800   2.77669e-05
      159.900   2.76836e-05
      160.000   2.76001e-05
      160.100   2.75164e-05
      160.200   2.74327e-05
      160.300   2.73488e-05
      160.400   2.72648e-05
      160.500   2.71807e-05
      160.600   2.70966e-05
      160.700   2.70123e-05
      160.800   2.69280e-05
      160.900   2.68435e-05
      161.000   2.67590e-05
      161.100   2.66745e-05
      161.200   2.65899e-05
      161.300   2.65052e-05
      161.400   2.64205e-05
      161.500   2.63357e-05
      161.600   2.62507e-05
      161.700   2.61655e-05
      161.800   2.60802e-05
      161.900   2.59949e-05
      162.000   2.59093e-05
      162.100   2.58238e-05
      162.200   2.57382e-05
      162.300   2.56525e-05
      162.400   2.55667e-05
      162.500   2.54808e-05
      162.600   2.53948e-05
      162.700   2.53087e-05
      162.800   2.52224e-05
      162.900   2.51361e-05
      163.000   2.50496e-05
      163.100   2.49631e-05
      163.200   2.48763e-05
      163.300   2.47895e-05
      163.400   2.47025e-05
      163.500   2.46155e-05
      163.600   2.45283e-05
      163.700   2.44410e-05
      163.800   2.43537e-05
      163.900   2.42663e-05
      164.000   2.41787e-05
      164.100   2.40912e-05
      164.200   2.40036e-05
      164.300   2.39173e-05
      164.400   2.38311e-05
      164.500   2.37449e-05
      164.600   2.36586e-05
      164.700   2.35724e-05
      164.800   2.34861e-05
      164.900   2.33999e-05
      165.000   2.33137e-05
      165.100   2.32276e-05
      165.200   2.31415e-05
      165.300   2.30555e-05
      165.400   2.29696e-05
      165.500   2.28838e-05
      165.600   2.27981e-05
      165.700   2.27124e-05
      165.800   2.26270e-05
      165.900   2.25415e-05
      166.000   2.24563e-05
      166.100   2.23712e-05
      166.200   2.22862e-05
      166.300   2.22014e-05
      166.400   2.21167e-05
      166.500   2.20321e-05
      166.600   2.19477e-05
      166.700   2.18635e-05
      166.800   2.17775e-05
      166.900   2.16830e-05
      167.000   2.15809e-05
      167.100   2.14786e-05
      167.200   2.13767e-05
      167.300   2.12749e-05
      167.400   2.11735e-05
      167.500   2.10722e-05
      167.600   2.09712e-05
      167.700   2.08705e-05
      167.800   2.07699e-05
      167.900   2.06695e-05
      168.000   2.05694e-05
      168.100   2.04694e-05
      168.200   2.03696e-05
      168.300   2.02699e-05
      168.400   2.01705e-05
      168.500   2.00713e-05
      168.600   1.99721e-05
      168.700   1.98732e-05
      168.800   1.97744e-05
      168.900   1.96759e-05
      169.000   1.95775e-05
      169.100   1.94792e-05
      169.200   1.93812e-05
      169.300   1.92833e-05
      169.400   1.91856e-05
      169.500   1.90828e-05
      169.600   1.89573e-05
      169.700   1.88090e-05
      169.800   1.86599e-05
      169.900   1.85115e-05
      170.000   1.83637e-05
      170.100   1.82167e-05
      170.200   1.80703e-05
      170.300   2.37810e-05
      170.400   5.15694e-05
      170.500   9.85079e-05
      170.600   0.000146183
      170.700   0.000185091
      170.800   0.000204125
      170.900   0.000206221
      171.000   0.000204100
      171.100   0.000201988
      171.200   0.000199883
      171.300   0.000197786
      171.400   0.000195699
      171.500   0.000193621
      171.600   0.000191553
      171.700   0.000189497
      171.800   0.000187454
      171.900   0.000185427
      172.000   0.000183418
      172.100   0.000181426
      172.200   0.000179455
      172.300   0.000177499
      172.400   0.000175528
      172.500   0.000173572
      172.600   0.000171639
      172.700   0.000169729
      172.800   0.000167841
      172.900   0.000165975
      173.000   0.000164132
      173.100   0.000162311
      173.200   0.000160512
      173.300   0.000158735
      173.400   0.000156979
      173.500   0.000155244
      173.600   0.000153530
      173.700   0.000151836
      173.800   0.000150162
      173.900   0.000148508
      174.000   0.000146872
      174.100   0.000145255
      174.200   0.000143656
      174.300   0.000142075
      174.400   0.000140512
      174.500   0.000138965
      174.600   0.000137433
      174.700   0.000135919
      174.800   0.000134420
      174.900   0.000132936
      175.000   0.000131466
      175.100   0.000130011
      175.200   0.000128576
      175.300   0.000127153
      175.400   0.000125745
      175.500   0.000124350
      175.600   0.000122970
      175.700   0.000121603
      175.800   0.000120250
      175.900   0.000118910
      176.000   0.000117583
      176.100   0.000116271
      176.200   0.000114971
      176.300   0.000113684
      176.400   0.000112411
      176.500   0.000111151
      176.600   0.000109903
      176.700   0.000108668
      176.800   0.000107445
      176.900   0.000106236
      177.000   0.000105038
      177.100   0.000103853
      177.200   0.000102680
      177.300   0.000101519
      177.400   0.000100370
      177.500   9.92319e-05
      177.600   9.81058e-05
      177.700   9.69911e-05
      177.800   9.58877e-05
      177.900   9.47943e-05
      178.000   9.37181e-05
      178.100   9.26535e-05
      178.200   9.15990e-05
      178.300   9.05550e-05
      178.400   8.95218e-05
      178.500   8.84989e-05
      178.600   8.74859e-05
      178.700   8.64828e-05
      178.800   8.54901e-05
      178.900   8.45075e-05
      179.000   8.35347e-05
      179.100   8.25715e-05
      179.200   8.16184e-05
      179.300   8.06752e-05
      179.400   7.97418e-05
      179.500   7.88186e-05
      179.600   7.79049e-05
      179.700   7.70016e-05
      179.800   7.61077e-05
      179.900   7.52237e-05
      180.000   7.43492e-05
      180.100   7.34847e-05
      180.200   7.26301e-05
      180.300   7.17852e-05
      180.400   7.09497e-05
      180.500   7.01242e-05
      180.600   6.93081e-05
      180.700   6.85017e-05
      180.800   6.76869e-05
      180.900   6.68612e-05
      181.000   6.60401e-05
      181.100   6.52295e-05
      181.200   6.44286e-05
      181.300   6.36374e-05
      181.400   6.28564e-05
      181.500   6.20848e-05
      181.600   6.13227e-05
      181.700   6.05697e-05
      181.800   5.98261e-05
      181.900   5.90915e-05
      182.000   5.83661e-05
      182.100   5.76492e-05
      182.200   5.69414e-05
      182.300   5.62419e-05
      182.400   5.55510e-05
      182.500   5.48682e-05
      182.600   5.41934e-05
      182.700   5.35267e-05
      182.800   5.28679e-05
      182.900   5.22166e-05
      183.000   5.15732e-05
      183.100   5.09375e-05
      183.200   5.03091e-05
      183.300   4.96879e-05
      183.400   4.90740e-05
      183.500   4.84674e-05
      183.600   4.78679e-05
      183.700   4.72424e-05
      183.800   4.64958e-05
      183.900   4.57362e-05
      184.000   4.49884e-05
      184.100   4.42518e-05
      184.200   4.35268e-05
      184.300   4.28124e-05
      184.400   4.21090e-05
      184.500   4.14165e-05
      184.600   4.07343e-05
      184.700   4.00623e-05
      184.800   3.94007e-05
      184.900   3.87491e-05
      185.000   3.81075e-05
      185.100   3.74754e-05
      185.200   3.68528e-05
      185.300   3.62401e-05
      185.400   3.56365e-05
      185.500   3.50422e-05
      185.600   3.44569e-05
      185.700   3.38801e-05
      185.800   3.33127e-05
      185.900   3.27543e-05
      186.000   3.22039e-05
      186.100   3.16620e-05
      186.200   3.11284e-05
      186.300   3.06027e-05
      186.400   3.00850e-05
      186.500   2.95750e-05
      186.600   2.90727e-05
      186.700   2.85779e-05
      186.800   2.80905e-05
      186.900   2.76104e-05
      187.000   2.71374e-05
      187.100   2.66717e-05
      187.200   2.62130e-05
      187.300   2.57616e-05
      187.400   2.53171e-05
      187.500   2.48795e-05
      187.600   2.44485e-05
      187.700   2.40242e-05
      187.800   2.36063e-05
      187.900   2.31948e-05
      188.000   2.27899e-05
      188.100   2.23913e-05
      188.200   2.19988e-05
      188.300   2.16123e-05
      188.400   2.12320e-05
      188.500   2.08578e-05
      188.600   2.04897e-05
      188.700   2.01277e-05
      188.800   1.97717e-05
      188.900   1.94216e-05
      189.000   1.90770e-05
      189.100   1.87379e-05
      189.200   1.84045e-05
      189.300   1.80766e-05
      189.400   1.77542e-05
      189.500   1.74370e-05
      189.600   1.71249e-05
      189.700   1.68162e-05
      189.800   1.65010e-05
      189.900   1.61919e-05
      190.000   1.58880e-05
      190.100   1.55895e-05
      190.200   1.52964e-05
      190.300   1.50083e-05
      190.400   1.47253e-05
      190.500   1.44472e-05
      190.600   1.41742e-05
      190.700   1.39059e-05
      190.800   1.36424e-05
      190.900   1.33836e-05
      191.000   1.31295e-05
      191.100   1.28802e-05
      191.200   1.26352e-05
      191.300   1.23946e-05
      191.400   1.21583e-05
      191.500   1.19261e-05
      191.600   1.16981e-05
      191.700   1.14741e-05
      191.800   1.12540e-05
      191.900   1.10379e-05
      192.000   1.08258e-05
      192.100   1.06176e-05
      192.200   1.04133e-05
      192.300   1.02126e-05
      192.400   1.00154e-05
      192.500   9.82179e-06
      192.600   9.63165e-06
      192.700   9.44151e-06
      192.800   9.23675e-06
      192.900   9.00383e-06
      193.000   8.77636e-06
      193.100   8.55429e-06
      193.200   8.33754e-06
      193.300   8.12582e-06
      193.400   7.91908e-06
      193.500   7.71707e-06
      193.600   7.51964e-06
      193.700   7.32679e-06
      193.800   7.13851e-06
      193.900   6.95466e-06
      194.000   6.77504e-06
      194.100   6.59985e-06
      194.200   6.42909e-06
      194.300   6.26233e-06
      194.400   6.09946e-06
      194.500   5.94043e-06
      194.600   5.78512e-06
      194.700   5.63355e-06
      194.800   5.48562e-06
      194.900   5.34114e-06
      195.000   5.20016e-06
      195.100   5.06284e-06
      195.200   4.92886e-06
      195.300   4.79811e-06
      195.400   4.67046e-06
      195.500   4.54585e-06
      195.600   4.42422e-06
      195.700   4.30555e-06
      195.800   4.18973e-06
      195.900   4.07671e-06
      196.000   3.96592e-06
      196.100   3.85785e-06
      196.200   3.75242e-06
      196.300   3.64958e-06
      196.400   3.54925e-06
      196.500   3.45136e-06
      196.600   3.35592e-06
      196.700   3.26284e-06
      196.800   3.17219e-06
      196.900   3.08393e-06
      197.000   2.99790e-06
      197.100   2.91402e-06
      197.200   2.83225e-06
      197.300   2.75250e-06
      197.400   2.67471e-06
      197.500   2.59893e-06
      197.600   2.52509e-06
      197.700   2.45335e-06
      197.800   2.38347e-06
      197.900   2.31533e-06
      198.000   2.24896e-06
      198.100   2.18431e-06
      198.200   2.12130e-06
      198.300   2.05989e-06
      198.400   2.00014e-06
      198.500   1.94209e-06
      198.600   1.88563e-06
      198.700   1.83063e-06
      198.800   1.77707e-06
      198.900   1.72494e-06
      199.000   1.67529e-06
      199.100   1.63024e-06
      199.200   1.59093e-06
      199.300   1.55256e-06
      199.400   1.51508e-06
      199.500   1.47844e-06
      199.600   1.44260e-06
      199.700   1.40755e-06
      199.800   1.37328e-06
      199.900   1.33979e-06
      200.000   1.30704e-06
      200.100   1.27515e-06
      200.200   1.24395e-06
      200.300   1.21346e-06
      200.400   1.18367e-06
      200.500   1.15456e-06
      200.600   1.12611e-06
      200.700   1.09832e-06
      200.800   1.07115e-06
      200.900   1.04461e-06
      201.000   1.01872e-06
      201.100   9.93430e-07
      201.200   9.68726e-07
      201.300   9.44601e-07
      201.400   9.21047e-07
      201.500   8.98018e-07
      201.600   8.75537e-07
      201.700   8.53582e-07
      201.800   8.32130e-07
      201.900   8.11204e-07
      202.000   7.90800e-07
      202.100   7.70858e-07
      202.200   7.51394e-07
      202.300   7.32767e-07
      202.400   7.15108e-07
      202.500   6.97932e-07
      202.600   6.81135e-07
      202.700   6.64716e-07
      202.800   6.48681e-07
      202.900   6.33023e-07
      203.000   6.17728e-07
      203.100   6.02782e-07
      203.200   5.88173e-07
      203.300   5.73891e-07
      203.400   5.59938e-07
      203.500   5.46310e-07
      203.600   5.32992e-07
      203.700   5.19978e-07
      203.800   5.07286e-07
      203.900   4.94891e-07
      204.000   4.82781e-07
      204.100   4.70955e-07
      204.200   4.59408e-07
      204.300   4.48122e-07
      204.400   4.37104e-07
      204.500   4.26342e-07
      204.600   4.15828e-07
      204.700   4.05564e-07
      204.800   3.95552e-07
      204.900   3.85779e-07
      205.000   3.76235e-07
      205.100   3.66920e-07
      205.200   3.57818e-07
      205.300   3.48937e-07
      205.400   3.40263e-07
      205.500   3.31791e-07
      205.600   3.23552e-07
      205.700   3.15538e-07
      205.800   3.07711e-07
      205.900   3.00075e-07
      206.000   2.92629e-07
      206.100   2.85352e-07
      206.200   2.78244e-07
      206.300   2.71307e-07
      206.400   2.64533e-07
      206.500   2.57914e-07
      206.600   2.51454e-07
      206.700   2.45146e-07
      206.800   2.38982e-07
      206.900   2.32964e-07
      207.000   2.27092e-07
      207.100   2.21361e-07
      207.200   2.15768e-07
      207.300   2.10309e-07
      207.400   2.04975e-07
      207.500   1.99768e-07
      207.600   1.94685e-07
      207.700   1.89719e-07
      207.800   1.84872e-07
      207.900   1.80142e-07
      208.000   1.75522e-07
      208.100   1.71013e-07
      208.200   1.66613e-07
      208.300   1.62316e-07
      208.400   1.58127e-07
      208.500   1.54041e-07
      208.600   1.50050e-07
      208.700   1.46154e-07
      208.800   1.42347e-07
      208.900   1.38395e-07
      209.000   1.34230e-07
      209.100   1.30182e-07
      209.200   1.26247e-07
      209.300   1.22420e-07
      209.400   1.18704e-07
      209.500   1.15090e-07
      209.600   1.11578e-07
      209.700   1.08168e-07
      209.800   1.04861e-07
      209.900   1.01645e-07
      210.000   9.85210e-08
      210.100   9.54873e-08
      210.200   9.25397e-08
      210.300   8.96775e-08
      210.400   8.68977e-08
      210.500   8.41974e-08
      210.600   8.15757e-08
      210.700   7.90310e-08
      210.800   7.65596e-08
      210.900   7.41603e-08
      211.000   7.18310e-08
      211.100   6.95711e-08
      211.200   6.73770e-08
      211.300   6.52507e-08
      211.400   6.31888e-08
      211.500   6.11864e-08
      211.600   5.92438e-08
      211.700   5.73598e-08
      211.800   5.55305e-08
      211.900   5.37561e-08
      212.000   5.20359e-08
      212.100   5.03668e-08
      212.200   4.87005e-08
      212.300   4.63756e-08
      212.400   4.37292e-08
      212.500   4.12219e-08
      212.600   3.88489e-08
      212.700   3.66016e-08
      212.800   3.44748e-08
      212.900   3.24635e-08
      213.000   3.05618e-08
      213.100   2.87665e-08
      213.200   2.70686e-08
      213.300   2.54648e-08
      213.400   2.39484e-08
      213.500   2.25160e-08
      213.600   2.11633e-08
      213.700   1.98868e-08
      213.800   1.86810e-08
      213.900   1.75442e-08
      214.000   1.64717e-08
      214.100   1.54599e-08
      214.200   1.45066e-08
      214.300   1.36079e-08
      214.400   1.27608e-08
      214.500   1.19631e-08
      214.600   1.12123e-08
      214.700   1.05053e-08
      214.800   9.83998e-09
      214.900   9.21446e-09
      215.000   8.62565e-09
      215.100   8.07246e-09
      215.200   7.55331e-09
      215.300   7.06590e-09
      215.400   6.60759e-09
      215.500   6.17723e-09
      215.600   5.77352e-09
      215.700   5.39426e-09
      215.800   5.03842e-09
      215.900   4.70484e-09
      216.000   4.39183e-09
      216.100   4.09835e-09
      216.200   3.82343e-09
      216.300   3.56589e-09
      216.400   3.32464e-09
      216.500   3.09867e-09
      216.600   2.88724e-09
      216.700   2.68942e-09
      216.800   2.50431e-09
      216.900   2.33127e-09
      217.000   2.16951e-09
      217.100   2.01822e-09
      217.200   1.87701e-09
      217.300   1.74508e-09
      217.400   1.62185e-09
      217.500   1.50691e-09
      217.600   1.39960e-09
      217.700   1.29950e-09
      217.800   1.20615e-09
      217.900   1.11924e-09
      218.000   1.03829e-09
      218.100   9.62889e-10
      218.200   8.92675e-10
      218.300   8.27335e-10
      218.400   7.66498e-10
      218.500   7.09867e-10
      218.600   6.57238e-10
      218.700   6.08270e-10
      218.800   5.62757e-10
      218.900   5.20497e-10
      219.000   4.81215e-10
      219.100   4.45099e-10
      219.200   4.14530e-10
      219.300   3.90449e-10
      219.400   3.67686e-10
      219.500   3.46195e-10
      219.600   3.25897e-10
      219.700   3.06728e-10
      219.800   2.88641e-10
      219.900   2.71564e-10
      220.000   2.55444e-10
      220.100   2.40234e-10
      220.200   2.25889e-10
      220.300   2.12364e-10
      220.400   1.99604e-10
      220.500   1.87576e-10
      220.600   1.76244e-10
      220.700   1.65559e-10
      220.800   1.55487e-10
      220.900   1.46008e-10
      221.000   1.37076e-10
      221.100   1.28661e-10
      221.200   1.20745e-10
      221.300   1.13291e-10
      221.400   1.06275e-10
      221.500   9.96761e-11
      221.600   9.34667e-11
      221.700   8.76248e-11
      221.800   8.21312e-11
      221.900   7.69690e-11
      222.000   7.21165e-11
      222.100   6.75533e-11
      222.200   6.32696e-11
      222.300   5.92438e-11
      222.400   5.54621e-11
      222.500   5.19104e-11
      222.600   4.85787e-11
      222.700   4.54497e-11
      222.800   4.25133e-11
      222.900   3.97606e-11
      223.000   3.71768e-11
      223.100   3.47535e-11
      223.200   3.24811e-11
      223.300   3.03520e-11
      223.400   2.83560e-11
      223.500   2.64847e-11
      223.600   2.47331e-11
      223.700   2.30916e-11
      223.800   2.15539e-11
      223.900   2.01161e-11
      224.000   1.87687e-11
      224.100   1.75078e-11
      224.200   1.63282e-11
      224.300   1.52252e-11
      224.400   1.41931e-11
      224.500   1.32281e-11
      224.600   1.23258e-11
      224.700   1.14833e-11
      224.800   1.06956e-11
      224.900   9.95948e-12
      225.000   9.27227e-12
      225.100   8.63030e-12
      225.200   8.03093e-12
      225.300   7.47199e-12
      225.400   6.95000e-12
      225.500   6.46293e-12
      225.600   6.00869e-12
      225.700   5.58531e-12
      225.800   5.19038e-12
      225.900   4.82229e-12
      226.000   4.47947e-12
      226.100   4.15986e-12
      226.200   3.86214e-12
      226.300   3.58533e-12
      226.400   3.32774e-12
      226.500   3.08775e-12
      226.600   2.86434e-12
      226.700   2.65662e-12
      226.800   2.46324e-12
      226.900   2.28334e-12
      227.000   2.11620e-12
      227.100   1.96077e-12
      227.200   1.81632e-12
      227.300   1.68214e-12
      227.400   1.55751e-12
      227.500   1.44174e-12
      227.600   1.33428e-12
      227.700   1.23452e-12
      227.800   1.14198e-12
      227.900   1.05612e-12
      228.000   9.76477e-13
      228.100   9.02625e-13
      228.200   8.34147e-13
      228.300   7.70688e-13
      228.400   7.11901e-13
      228.500   6.57421e-13
      228.600   6.06978e-13
      228.700   5.60265e-13
      228.800   5.17015e-13
      228.900   4.77009e-13
      229.000   4.39975e-13
      229.100   4.05721e-13
      229.200   3.74047e-13
      229.300   3.44763e-13
      229.400   3.17695e-13
      229.500   2.92678e-13
      229.600   2.69566e-13
      229.700   2.48220e-13
      229.800   2.28504e-13
      229.900   2.10373e-13
      230.000   1.94193e-13
      230.100   1.80271e-13
      230.200   1.67316e-13
      230.300   1.55269e-13
      230.400   1.44059e-13
      230.500   1.33640e-13
      230.600   1.23964e-13
      230.700   1.14965e-13
      230.800   1.06599e-13
      230.900   9.88262e-14
      231.000   9.15988e-14
      231.100   8.48852e-14
      231.200   7.86474e-14
      231.300   7.28556e-14
      231.400   6.74793e-14
      231.500   6.24842e-14
      231.600   5.78470e-14
      231.700   5.35449e-14
      231.800   4.95532e-14
      231.900   4.58498e-14
      232.000   4.24146e-14
      232.100   3.92283e-14
      232.200   3.62746e-14
      232.300   3.35366e-14
      232.400   3.09985e-14
      232.500   2.86460e-14
      232.600   2.64674e-14
      232.700   2.44494e-14
      232.800   2.25804e-14
      232.900   2.08499e-14
      233.000   1.92478e-14
      233.100   1.77656e-14
      233.200   1.63934e-14
      233.300   1.51242e-14
      233.400   1.39506e-14
      233.500   1.28672e-14
      233.600   1.18667e-14
      233.700   1.09414e-14
      233.800   1.00783e-14
      233.900   9.28056e-15
      234.000   8.54355e-15
      234.100   7.86362e-15
      234.200   7.23621e-15
      234.300   6.65734e-15
      234.400   6.12338e-15
      234.500   5.63103e-15
      234.600   5.17700e-15
      234.700   4.75859e-15
      234.800   4.37309e-15
      234.900   4.01777e-15
      235.000   3.69043e-15
      235.100   3.38905e-15
      235.200   3.11154e-15
      235.300   2.85607e-15
      235.400   2.62097e-15
      235.500   2.40462e-15
      235.600   2.20567e-15
      235.700   2.02280e-15
      235.800   1.85523e-15
      235.900   1.70114e-15
      236.000   1.55949e-15
      236.100   1.42927e-15
      236.200   1.30962e-15
      236.300   1.19967e-15
      236.400   1.09871e-15
      236.500   1.00598e-15
      236.600   9.20867e-16
      236.700   8.42741e-16
      236.800   7.71037e-16
      236.900   7.05267e-16
      237.000   6.44944e-16
      237.100   5.89615e-16
      237.200   5.38916e-16
      237.300   4.92433e-16
      237.400   4.50041e-16
      237.500   4.13007e-16
      237.600   3.82099e-16
      237.700   3.53526e-16
      237.800   3.27029e-16
      237.900   3.02460e-16
      238.000   2.79695e-16
      238.100   2.58585e-16
      238.200   2.39027e-16
      238.300   2.20903e-16
      238.400   2.04116e-16
      238.500   1.88567e-16
      238.600   1.74169e-16
      238.700   1.60843e-16
      238.800   1.48505e-16
      238.900   1.37086e-16
      239.000   1.26519e-16
      239.100   1.16745e-16
      239.200   1.07707e-16
      239.300   9.93704e-17
      239.400   9.16808e-17
      239.500   8.45679e-17
      239.600   7.79909e-17
      239.700   7.19132e-17
      239.800   6.62939e-17
      239.900   6.11015e-17
      240.000   5.63047e-17
      240.100   5.18726e-17
      240.200   4.77793e-17
      240.300   4.40007e-17
      240.400   4.05109e-17
      240.500   3.72919e-17
      240.600   3.43210e-17
      240.700   3.15804e-17
      240.800   2.90596e-17
      240.900   2.67409e-17
      241.000   2.46023e-17
      241.100   2.26299e-17
      241.200   2.08114e-17
      241.300   1.92236e-17
      241.400   1.79169e-17
      241.500   1.67805e-17
      241.600   1.57144e-17
      241.700   1.47140e-17
      241.800   1.37756e-17
      241.900   1.28954e-17
      242.000   1.20701e-17
      242.100   1.12961e-17
      242.200   1.05727e-17
      242.300   9.89589e-18
      242.400   9.26114e-18
      242.500   8.66605e-18
      242.600   8.10820e-18
      242.700   7.58521e-18
      242.800   7.09519e-18
      242.900   6.63596e-18
      243.000   6.20568e-18
      243.100   5.80259e-18
      243.200   5.42485e-18
      243.300   5.07114e-18
      243.400   4.74001e-18
      243.500   4.43072e-18
      243.600   4.14202e-18
      243.700   3.87152e-18
      243.800   3.61819e-18
      243.900   3.38113e-18
      244.000   3.15910e-18
      244.100   2.95129e-18
      244.200   2.75682e-18
      244.300   2.57476e-18
      244.400   2.40448e-18
      244.500   2.24513e-18
      244.600   2.09607e-18
      244.700   1.95696e-18
      244.800   1.82736e-18
      244.900   1.70615e-18
      245.000   1.59271e-18
      245.100   1.48664e-18
      245.200   1.38749e-18
      245.300   1.29477e-18
      245.400   1.20805e-18
      245.500   1.12703e-18
      245.600   1.05129e-18
      245.700   9.80488e-19
      245.800   9.14314e-19
      245.900   8.52809e-19
      246.000   7.95452e-19
      246.100   7.41839e-19
      246.200   6.91751e-19
      246.300   6.44947e-19
      246.400   6.01241e-19
      246.500   5.60410e-19
      246.600   5.22279e-19
      246.700   4.86681e-19
      246.800   4.53430e-19
      246.900   4.22394e-19
      247.000   3.93567e-19
      247.100   3.66719e-19
      247.200   3.41656e-19
      247.300   3.18263e-19
      247.400   2.96424e-19
      247.500   2.76045e-19
      247.600   2.57030e-19
      247.700   2.39288e-19
      247.800   2.22738e-19
      247.900   2.07300e-19
      248.000   1.92906e-19
      248.100   1.79592e-19
      248.200   1.67169e-19
      248.300   1.55581e-19
      248.400   1.44776e-19
      248.500   1.34696e-19
      248.600   1.25300e-19
      248.700   1.16543e-19
      248.800   1.08381e-19
      248.900   1.00776e-19
      249.000   9.36891e-20
      249.100   8.71301e-20
      249.200   8.17590e-20
      249.300   7.74737e-20
      249.400   7.35881e-20
      249.500   6.98931e-20
      249.600   6.63782e-20
      249.700   6.30361e-20
      249.800   5.98586e-20
      249.900   5.68363e-20
      250.000   5.39644e-20
      250.100   5.12432e-20
      250.200   4.86598e-20
      250.300   4.62058e-20
      250.400   4.38727e-20
      250.500   4.16555e-20
      250.600   3.95483e-20
      250.700   3.75452e-20
      250.800   3.56417e-20
      250.900   3.38326e-20
      251.000   3.21138e-20
      251.100   3.04803e-20
      251.200   2.89309e-20
      251.300   2.74626e-20
      251.400   2.60669e-20
      251.500   2.47405e-20
      251.600   2.34806e-20
      251.700   2.22839e-20
      251.800   2.11469e-20
      251.900   2.00667e-20
      252.000   1.90403e-20
      252.100   1.80661e-20
      252.200   1.71402e-20
      252.300   1.62623e-20
      252.400   1.54300e-20
      252.500   1.46400e-20
      252.600   1.38894e-20
      252.700   1.31767e-20
      252.800   1.24999e-20
      252.900   1.18571e-20
      253.000   1.12468e-20
      253.100   1.06674e-20
      253.200   1.01651e-20
      253.300   9.88830e-21
      253.400   9.66462e-21
      253.500   9.44624e-21
      253.600   9.23288e-21
      253.700   9.02426e-21
      253.800   8.82038e-21
      253.900   8.62100e-21
      254.000   8.42609e-21
      254.100   8.23550e-21
      254.200   8.04917e-21
      254.300   7.86700e-21
      254.400   7.68889e-21
      254.500   7.51481e-21
      254.600   7.34452e-21
      254.700   7.17812e-21
      254.800   7.01566e-21
      254.900   6.85674e-21
      255.000   6.70141e-21
      255.100   6.54946e-21
      255.200   6.40096e-21
      255.300   6.25573e-21
      255.400   6.11376e-21
      255.500   5.97498e-21
      255.600   5.83926e-21
      255.700   5.70656e-21
      255.800   5.57682e-21
      255.900   5.44996e-21
      256.000   5.32589e-21
      256.100   5.20475e-21
      256.200   5.08629e-21
      256.300   4.97048e-21
      256.400   4.85734e-21
      256.500   4.74665e-21
      256.600   4.63843e-21
      256.700   4.53263e-21
      256.800   4.42920e-21
      256.900   4.32806e-21
      257.000   4.22917e-21
      257.100   4.13250e-21
      257.200   4.03803e-21
      257.300   3.94563e-21
      257.400   3.85607e-21
      257.500   3.76879e-21
      257.600   3.68353e-21
      257.700   3.60017e-21
      257.800   3.51866e-21
      257.900   3.43897e-21
      258.000   3.36104e-21
      258.100   3.28481e-21
      258.200   3.21031e-21
      258.300   3.13745e-21
      258.400   3.06619e-21
      258.500   2.99650e-21
      258.600   2.92840e-21
      258.700   2.86179e-21
      258.800   2.79665e-21
      258.900   2.73300e-21
      259.000   2.67075e-21
      259.100   2.60988e-21
      259.200   2.55040e-21
      259.300   2.49229e-21
      259.400   2.43548e-21
      259.500   2.37991e-21
      259.600   2.32562e-21
      259.700   2.27253e-21
      259.800   2.22063e-21
      259.900   2.16987e-21
      260.000   2.12027e-21
      260.100   2.07178e-21
      260.200   2.02439e-21
      260.300   1.97806e-21
      260.400   1.93277e-21
      260.500   1.88851e-21
      260.600   1.84522e-21
      260.700   1.80293e-21
      260.800   1.76161e-21
      260.900   1.72119e-21
      261.000   1.68171e-21
      261.100   1.64316e-21
      261.200   1.60544e-21
      261.300   1.56860e-21
      261.400   1.53259e-21
      261.500   1.49744e-21
      261.600   1.46320e-21
      261.700   1.42975e-21
      261.800   1.39707e-21
      261.900   1.36511e-21
      262.000   1.33387e-21
      262.100   1.30334e-21
      262.200   1.27351e-21
      262.300   1.24435e-21
      262.400   1.21586e-21
      262.500   1.18800e-21
      262.600   1.16077e-21
      262.700   1.13417e-21
      262.800   1.10817e-21
      262.900   1.08275e-21
      263.000   1.05794e-21
      263.100   1.03368e-21
      263.200   1.00999e-21
      263.300   9.86824e-22
      263.400   9.64192e-22
      263.500   9.42080e-22
      263.600   9.20475e-22
      263.700   8.99356e-22
      263.800   8.78717e-22
      263.900   8.58568e-22
      264.000   8.38865e-22
      264.100   8.19610e-22
      264.200   8.00788e-22
      264.300   7.82411e-22
      264.400   7.64453e-22
      264.500   7.46897e-22
      264.600   7.29747e-22
      264.700   7.12993e-22
      264.800   6.96612e-22
      264.900   6.80618e-22
      265.000   6.64987e-22
      265.100   6.49707e-22
      265.200   6.34783e-22
      265.300   6.20200e-22
      265.400   6.05959e-22
      265.500   5.92037e-22
      265.600   5.78439e-22
      265.700   5.66752e-22
      265.800   5.62108e-22
      265.900   5.57725e-22
      266.000   5.53374e-22
      266.100   5.49061e-22
      266.200   5.44782e-22
      266.300   5.40536e-22
      266.400   5.36326e-22
      266.500   5.32150e-22
      266.600   5.28006e-22
      266.700   5.23888e-22
      266.800   5.19814e-22
      266.900   5.15771e-22
      267.000   5.11760e-22
      267.100   5.07782e-22
      267.200   5.03838e-22
      267.300   4.99923e-22
      267.400   4.96038e-22
      267.500   4.92188e-22
      267.600   4.88368e-22
      267.700   4.84581e-22
      267.800   4.80819e-22
      267.900   4.77091e-22
      268.000   4.73398e-22
      268.100   4.69735e-22
      268.200   4.66100e-22
      268.300   4.62498e-22
      268.400   4.58920e-22
      268.500   4.55370e-22
      268.600   4.51849e-22
      268.700   4.48365e-22
      268.800   4.44906e-22
      268.900   4.41473e-22
      269.000   4.38073e-22
      269.100   4.34693e-22
      269.200   4.31348e-22
      269.300   4.28029e-22
      269.400   4.24736e-22
      269.500   4.21469e-22
      269.600   4.18234e-22
      269.700   4.15017e-22
      269.800   4.11832e-22
      269.900   4.08672e-22
      270.000   4.05541e-22
      270.100   4.02448e-22
      270.200   3.99383e-22
      270.300   3.96347e-22
      270.400   3.93329e-22
      270.500   3.90338e-22
      270.600   3.87367e-22
      270.700   3.84428e-22
      270.800   3.81507e-22
      270.900   3.78611e-22
      271.000   3.75740e-22
      271.100   3.72889e-22
      271.200   3.70061e-22
      271.300   3.67256e-22
      271.400   3.64473e-22
      271.500   3.61715e-22
      271.600   3.58975e-22
      271.700   3.56255e-22
      271.800   3.53561e-22
      271.900   3.50885e-22
      272.000   3.48231e-22
      272.100   3.45597e-22
      272.200   3.42983e-22
      272.300   3.40387e-22
      272.400   3.37813e-22
      272.500   3.35259e-22
      272.600   3.32725e-22
      272.700   3.30210e-22
      272.800   3.27711e-22
      272.900   3.25235e-22
      273.000   3.22776e-22
      273.100   3.20334e-22
      273.200   3.17914e-22
      273.300   3.15511e-22
      273.400   3.13124e-22
      273.500   3.10754e-22
      273.600   3.08403e-22
      273.700   3.06069e-22
      273.800   3.03750e-22
      273.900   3.01450e-22
      274.000   2.99169e-22
      274.100   2.96903e-22
      274.200   2.94651e-22
      274.300   2.92418e-22
      274.400   2.90133e-22
      274.500   2.87714e-22
      274.600   2.85282e-22
      274.700   2.82870e-22
      274.800   2.80478e-22
      274.900   2.78105e-22
      275.000   2.75748e-22
      275.100   2.73411e-22
      275.200   2.71092e-22
      275.300   2.68790e-22
      275.400   2.66508e-22
      275.500   2.64242e-22
      275.600   2.61995e-22
      275.700   2.59765e-22
      275.800   2.57552e-22
      275.900   2.55358e-22
      276.000   2.53181e-22
      276.100   2.51020e-22
      276.200   2.48874e-22
      276.300   2.46745e-22
      276.400   2.44634e-22
      276.500   2.42539e-22
      276.600   2.40461e-22
      276.700   2.38397e-22
      276.800   2.36350e-22
      276.900   2.34317e-22
      277.000   2.32301e-22
      277.100   2.30300e-22
      277.200   2.28316e-22
      277.300   2.26346e-22
      277.400   2.24392e-22
      277.500   2.22451e-22
      277.600   2.20526e-22
      277.700   2.18614e-22
      277.800   2.16716e-22
      277.900   2.14837e-22
      278.000   2.12971e-22
      278.100   2.11119e-22
      278.200   2.09281e-22
      278.300   2.07458e-22
      278.400   2.05648e-22
      278.500   2.03852e-22
      278.600   2.02069e-22
      278.700   2.00301e-22
      278.800   1.98628e-22
      278.900   1.97342e-22
      279.000   1.96073e-22
      279.100   1.94809e-22
      279.200   1.93549e-22
      279.300   1.92298e-22
      279.400   1.91052e-22
      279.500   1.89810e-22
      279.600   1.88577e-22
      279.700   1.87348e-22
      279.800   1.86126e-22
      279.900   1.84911e-22
      280.000   1.83701e-22
      280.100   1.82496e-22
      280.200   1.81298e-22
      280.300   1.80105e-22
      280.400   1.78920e-22
      280.500   1.77740e-22
      280.600   1.76565e-22
      280.700   1.75398e-22
      280.800   1.74235e-22
      280.900   1.73078e-22
      281.000   1.71927e-22
      281.100   1.70782e-22
      281.200   1.69643e-22
      281.300   1.68510e-22
      281.400   1.67383e-22
      281.500   1.66262e-22
      281.600   1.65145e-22
      281.700   1.64034e-22
      281.800   1.62932e-22
      281.900   1.61834e-22
      282.000   1.60741e-22
      282.100   1.59655e-22
      282.200   1.58575e-22
      282.300   1.57499e-22
      282.400   1.56429e-22
      282.500   1.55365e-22
      282.600   1.54308e-22
      282.700   1.53257e-22
      282.800   1.52209e-22
      282.900   1.51170e-22
      283.000   1.50136e-22
      283.100   1.49106e-22
      283.200   1.48083e-22
      283.300   1.47366e-22
      283.400   1.48286e-22
      283.500   1.49407e-22
      283.600   1.50532e-22
      283.700   1.51665e-22
      283.800   1.52801e-22
      283.900   1.53942e-22
      284.000   1.55089e-22
      284.100   1.56240e-22
      284.200   1.57398e-22
      284.300   1.58563e-22
      284.400   1.59731e-22
      284.500   1.60905e-22
      284.600   1.62086e-22
      284.700   1.63270e-22
      284.800   1.64461e-22
      284.900   1.65658e-22
      285.000   1.66860e-22
      285.100   1.68067e-22
      285.200   1.69279e-22
      285.300   1.70498e-22
      285.400   1.71725e-22
      285.500   1.72953e-22
      285.600   1.74190e-22
      285.700   1.75431e-22
      285.800   1.76679e-22
      285.900   1.77933e-22
      286.000   1.79190e-22
      286.100   1.80457e-22
      286.200   1.81730e-22
      286.300   1.83009e-22
      286.400   1.84291e-22
      286.500   1.85580e-22
      286.600   1.86876e-22
      286.700   1.88177e-22
      286.800   1.89485e-22
      286.900   1.90801e-22
      287.000   1.92121e-22
      287.100   1.93448e-22
      287.200   1.94781e-22
      287.300   1.96118e-22
      287.400   1.97463e-22
      287.500   1.98816e-22
      287.600   2.00175e-22
      287.700   2.01541e-22
      287.800   2.02913e-22
      287.900   2.04293e-22
      288.000   2.05681e-22
      288.100   2.07078e-22
      288.200   2.08479e-22
      288.300   2.09888e-22
      288.400   2.11309e-22
      288.500   2.12731e-22
      288.600   2.14162e-22
      288.700   2.15602e-22
      288.800   2.17047e-22
      288.900   2.18498e-22
      289.000   2.19959e-22
      289.100   2.21425e-22
      289.200   2.22896e-22
      289.300   2.24377e-22
      289.400   2.25867e-22
      289.500   2.27363e-22
      289.600   2.28865e-22
      289.700   2.30376e-22
      289.800   2.31894e-22
      289.900   2.33418e-22
      290.000   2.34954e-22
      290.100   2.36491e-22
      290.200   2.38042e-22
      290.300   2.39599e-22
      290.400   2.41162e-22
      290.500   2.42734e-22
      290.600   2.44312e-22
      290.700   2.45899e-22
      290.800   2.47494e-22
      290.900   2.49098e-22
      291.000   2.50710e-22
      291.100   2.52329e-22
      291.200   2.53954e-22
      291.300   2.55590e-22
      291.400   2.57231e-22
      291.500   2.58881e-22
      291.600   2.60541e-22
      291.700   2.62205e-22
      291.800   2.63880e-22
      291.900   2.65562e-22
      292.000   2.67256e-22
      292.100   2.68958e-22
      292.200   2.70665e-22
      292.300   2.72380e-22
      292.400   2.74104e-22
      292.500   2.75837e-22
      292.600   2.77572e-22
      292.700   2.79311e-22
      292.800   2.81057e-22
      292.900   2.82810e-22
      293.000   2.84572e-22
      293.100   2.86345e-22
      293.200   2.88122e-22
      293.300   2.89906e-22
      293.400   2.91703e-22
      293.500   2.93505e-22
      293.600   2.95317e-22
      293.700   2.97138e-22
      293.800   2.98968e-22
      293.900   3.00802e-22
      294.000   3.02644e-22
      294.100   3.04496e-22
      294.200   3.06356e-22
      294.300   3.08225e-22
      294.400   3.10102e-22
      294.500   3.11984e-22
      294.600   3.13874e-22
      294.700   3.15776e-22
      294.800   3.17684e-22
      294.900   3.19596e-22
      295.000   3.21522e-22
      295.100   3.23456e-22
      295.200   3.25396e-22
      295.300   3.27342e-22
      295.400   3.29297e-22
      295.500   3.31260e-22
      295.600   3.33229e-22
      295.700   3.35206e-22
      295.800   3.37190e-22
      295.900   3.39182e-22
      296.000   3.41186e-22
      296.100   3.43192e-22
      296.200   3.45209e-22
      296.300   3.47230e-22
      296.400   3.49261e-22
      296.500   3.51297e-22
      296.600   3.53344e-22
      296.700   3.55395e-22
      296.800   3.57453e-22
      296.900   3.59520e-22
      297.000   3.61595e-22
      297.100   3.63676e-22
      297.200   3.65982e-22
      297.300   3.69947e-22
      297.400   3.78002e-22
      297.500   3.86219e-22
      297.600   3.94604e-22
      297.700   4.03170e-22
      297.800   4.11898e-22
      297.900   4.20799e-22
      298.000   4.29868e-22
      298.100   4.39115e-22
      298.200   4.48540e-22
      298.300   4.58145e-22
      298.400   4.67942e-22
      298.500   4.77925e-22
      298.600   4.88104e-22
      298.700   4.98470e-22
      298.800   5.09036e-22
      298.900   5.19818e-22
      299.000   5.30811e-22
      299.100   5.42011e-22
      299.200   5.53426e-22
      299.300   5.65048e-22
      299.400   5.76895e-22
      299.500   5.88964e-22
      299.600   6.01250e-22
      299.700   6.13765e-22
      299.800   6.26524e-22
      299.900   6.39515e-22
      300.000   6.52738e-22
      300.100   6.66229e-22
      300.192   6.78859e-22
      300.285   6.91842e-22
      300.377   7.04902e-22
      300.470   7.18334e-22
      300.562   7.31834e-22
      300.654   7.45562e-22
      300.747   7.59694e-22
      300.839   7.73893e-22
      300.932   7.88487e-22
      301.025   8.03343e-22
      301.117   8.18270e-22
      301.210   8.33605e-22
      301.303   8.49218e-22
      301.395   8.64889e-22
      301.488   8.81020e-22
      301.581   8.97386e-22
      301.674   9.14050e-22
      301.766   9.30791e-22
      301.859   9.48011e-22
      301.952   9.65491e-22
      302.045   9.83275e-22
      302.138   1.03165e-21
      302.231   1.09488e-21
      302.324   1.16227e-21
      302.417   1.23368e-21
      302.510   1.30923e-21
      302.603   1.38910e-21
      302.696   1.47363e-21
      302.789   1.56311e-21
      302.882   1.65772e-21
      302.976   1.75884e-21
      303.069   1.86465e-21
      303.162   1.97650e-21
      303.255   2.09472e-21
      303.349   2.22105e-21
      303.442   2.35317e-21
      303.535   2.49261e-21
      303.629   2.64152e-21
      303.722   2.79721e-21
      303.816   2.96340e-21
      303.909   3.13707e-21
      304.003   3.32231e-21
      304.096   3.51590e-21
      304.190   3.72242e-21
      304.283   3.93800e-21
      304.377   4.16770e-21
      304.471   4.41027e-21
      304.564   4.66339e-21
      304.658   4.93316e-21
      304.752   5.21796e-21
      304.846   5.51793e-21
      304.939   5.83089e-21
      305.033   6.16431e-21
      305.127   6.51565e-21
      305.221   6.88583e-21
      305.315   7.27619e-21
      305.409   7.68711e-21
      305.503   8.12001e-21
      305.597   8.57617e-21
      305.691   9.05622e-21
      305.785   9.56204e-21
      305.879   1.00943e-20
      305.973   1.06541e-20
      306.067   1.12437e-20
      306.161   1.18638e-20
      306.255   1.25163e-20
      306.350   1.32101e-20
      306.444   1.39323e-20
      306.538   1.46919e-20
      306.633   1.54988e-20
      306.727   1.63388e-20
      306.821   1.72217e-20
      306.916   1.81592e-20
      307.010   1.91393e-20
      307.105   2.01845e-20
      307.199   2.12722e-20
      307.294   2.24278e-20
      307.388   2.36291e-20
      307.483   2.49048e-20
      307.577   2.62311e-20
      307.672   2.76391e-20
      307.767   2.91178e-20
      307.861   3.06533e-20
      307.956   3.22841e-20
      308.051   3.39963e-20
      308.146   3.57934e-20
      308.240   3.76587e-20
      308.335   3.96367e-20
      308.430   4.17133e-20
      308.525   4.38931e-20
      308.620   4.61779e-20
      308.715   4.85753e-20
      308.810   5.10897e-20
      308.905   5.37259e-20
      309.000   5.64883e-20
      309.095   5.93852e-20
      309.190   6.24211e-20
      309.285   6.56038e-20
      309.380   6.89382e-20
      309.476   7.24680e-20
      309.571   7.61288e-20
      309.666   7.99657e-20
      309.761   8.39815e-20
      309.857   8.82303e-20
      309.952   9.26337e-20
      310.047   9.72410e-20
      310.143   1.02118e-19
      310.238   1.07169e-19
      310.334   1.12509e-19
      310.429   1.18044e-19
      310.525   1.23890e-19
      310.620   1.29945e-19
      310.716   1.36345e-19
      310.811   1.42970e-19
      310.907   1.49965e-19
      311.003   1.57281e-19
      311.098   1.64853e-19
      311.194   1.72851e-19
      311.290   1.81213e-19
      311.386   1.89950e-19
      311.481   1.98984e-19
      311.577   2.08517e-19
      311.673   2.18484e-19
      311.769   2.28896e-19
      311.865   2.39760e-19
      311.961   2.51161e-19
      312.057   2.63167e-19
      312.153   2.75731e-19
      312.249   2.88860e-19
      312.345   3.02573e-19
      312.441   3.16897e-19
      312.537   3.31846e-19
      312.633   3.47452e-19
      312.730   3.63929e-19
      312.826   3.80947e-19
      312.922   3.98702e-19
      313.018   4.17236e-19
      313.115   4.36779e-19
      313.211   4.56971e-19
      313.307   4.78028e-19
      313.404   5.00220e-19
      313.500   5.23136e-19
      313.597   5.47278e-19
      313.693   5.72178e-19
      313.790   5.98430e-19
      313.886   6.25517e-19
      313.983   6.54054e-19
      314.079   6.83494e-19
      314.176   7.14475e-19
      314.273   7.46776e-19
      314.369   7.80086e-19
      314.466   8.15149e-19
      314.563   8.51683e-19
      314.660   8.89703e-19
      314.756   9.28928e-19
      314.853   9.70179e-19
      314.950   1.01314e-18
      315.047   1.05787e-18
      315.144   1.10445e-18
      315.241   1.15292e-18
      315.338   1.20339e-18
      315.435   1.25589e-18
      315.532   1.31053e-18
      315.629   1.36735e-18
      315.726   1.42648e-18
      315.823   1.48804e-18
      315.921   1.55265e-18
      316.018   1.61922e-18
      316.115   1.68844e-18
      316.212   1.76041e-18
      316.310   1.83600e-18
      316.407   1.91376e-18
      316.504   1.99463e-18
      316.602   2.07953e-18
      316.699   2.16687e-18
      316.796   2.25755e-18
      316.894   2.35278e-18
      316.991   2.45081e-18
      317.089   2.55434e-18
      317.187   2.66232e-18
      317.284   2.77333e-18
      317.382   2.88984e-18
      317.479   3.00966e-18
      317.577   3.13532e-18
      317.675   3.26579e-18
      317.773   3.40139e-18
      317.870   3.54073e-18
      317.968   3.68699e-18
      318.066   3.83876e-18
      318.164   3.99630e-18
      318.262   4.15983e-18
      318.360   4.32963e-18
      318.458   4.50581e-18
      318.556   4.68855e-18
      318.654   4.87818e-18
      318.752   5.07485e-18
      318.850   5.27887e-18
      318.948   5.49058e-18
      319.046   5.71015e-18
      319.144   5.93783e-18
      319.242   6.17381e-18
      319.341   6.42107e-18
      319.439   6.67478e-18
      319.537   6.93777e-18
      319.635   7.21036e-18
      319.734   7.49569e-18
      319.832   7.78842e-18
      319.930   8.09175e-18
      320.029   8.40918e-18
      320.127   8.73470e-18
      320.226   9.07544e-18
      320.324   9.42486e-18
      320.423   9.79039e-18
      320.522   1.01689e-17
      320.620   1.05567e-17
      320.719   1.09625e-17
      320.818   1.13826e-17
      320.916   1.18131e-17
      321.015   1.22633e-17
      321.114   1.27291e-17
      321.213   1.32113e-17
      321.311   1.37051e-17
      321.410   1.42209e-17
      321.509   1.47548e-17
      321.608   1.53068e-17
      321.707   1.58781e-17
      321.806   1.64690e-17
      321.905   1.70797e-17
      322.004   1.77118e-17
      322.103   1.84560e-17
      322.202   1.93871e-17
      322.301   2.04307e-17
      322.401   2.15376e-17
      322.500   2.26884e-17
      322.599   2.38957e-17
      322.698   2.51623e-17
      322.798   2.65057e-17
      322.897   2.79011e-17
      322.996   2.93636e-17
      323.096   3.09140e-17
      323.195   3.25229e-17
      323.294   3.42088e-17
      323.394   3.59936e-17
      323.493   3.78458e-17
      323.593   3.98062e-17
      323.692   4.18390e-17
      323.792   4.39894e-17
      323.892   4.62415e-17
      323.991   4.85769e-17
      324.091   5.10455e-17
      324.191   5.36310e-17
      324.291   5.63356e-17
      324.390   5.91357e-17
      324.490   6.20982e-17
      324.590   6.51935e-17
      324.690   6.84305e-17
      324.790   7.18168e-17
      324.890   7.53561e-17
      324.990   7.90580e-17
      325.090   8.29276e-17
      325.190   8.69672e-17
      325.290   9.11870e-17
      325.390   9.55987e-17
      325.490   1.00203e-16
      325.590   1.05010e-16
      325.690   1.10030e-16
      325.790   1.15269e-16
      325.891   1.20793e-16
      325.991   1.26500e-16
      326.091   1.32456e-16
      326.192   1.38730e-16
      326.292   1.45210e-16
      326.392   1.51964e-16
      326.493   1.59080e-16
      326.593   1.66424e-16
      326.694   1.74150e-16
      326.794   1.82126e-16
      326.895   1.90521e-16
      326.995   1.99181e-16
      327.096   2.08284e-16
      327.197   2.17771e-16
      327.297   2.27567e-16
      327.398   2.37899e-16
      327.499   2.48675e-16
      327.599   2.59788e-16
      327.700   2.71468e-16
      327.801   2.83619e-16
      327.902   2.96260e-16
      328.003   3.09422e-16
      328.104   3.23112e-16
      328.205   3.37351e-16
      328.306   3.52155e-16
      328.407   3.67544e-16
      328.508   3.83545e-16
      328.609   4.00173e-16
      328.710   4.17447e-16
      328.811   4.35400e-16
      328.912   4.54054e-16
      329.013   4.73419e-16
      329.115   4.93737e-16
      329.216   5.14633e-16
      329.317   5.36316e-16
      329.419   5.59045e-16
      329.520   5.82417e-16
      329.621   6.06663e-16
      329.723   6.32085e-16
      329.824   6.58155e-16
      329.926   6.85482e-16
      330.027   7.13557e-16
      330.129   7.42953e-16
      330.230   7.73110e-16
      330.332   8.04700e-16
      330.434   8.37428e-16
      330.535   8.71024e-16
      330.637   9.06166e-16
      330.739   9.42542e-16
      330.840   9.79869e-16
      330.942   1.01892e-15
      331.044   1.05934e-15
      331.146   1.10119e-15
      331.248   1.14450e-15
      331.350   1.18933e-15
      331.452   1.23576e-15
      331.554   1.28446e-15
      331.656   1.33601e-15
      331.758   1.38939e-15
      331.860   1.44472e-15
      331.962   1.50199e-15
      332.064   1.56129e-15
      332.166   1.62265e-15
      332.268   1.68620e-15
      332.371   1.75259e-15
      332.473   1.82064e-15
      332.575   1.88816e-15
      332.677   1.94823e-15
      332.780   2.00278e-15
      332.882   2.05814e-15
      332.985   2.11535e-15
      333.087   2.17339e-15
      333.190   2.23338e-15
      333.292   2.29351e-15
      333.395   2.35381e-15
      333.497   2.41409e-15
      333.600   2.47630e-15
      333.702   2.53923e-15
      333.805   2.60410e-15
      333.908   2.67047e-15
      334.011   2.73820e-15
      334.113   2.80668e-15
      334.216   2.87733e-15
      334.319   2.94945e-15
      334.422   3.02309e-15
      334.525   3.09828e-15
      334.628   3.17504e-15
      334.731   3.25333e-15
      334.834   3.33328e-15
      334.937   3.41490e-15
      335.040   3.49820e-15
      335.143   3.58311e-15
      335.246   3.66978e-15
      335.349   3.75816e-15
      335.452   3.84829e-15
      335.555   3.94023e-15
      335.659   4.03495e-15
      335.762   4.13065e-15
      335.865   4.22814e-15
      335.969   4.32854e-15
      336.072   4.42995e-15
      336.175   4.53321e-15
      336.279   4.63950e-15
      336.382   4.74684e-15
      336.486   4.85731e-15
      336.589   4.96872e-15
      336.693   5.08340e-15
      336.796   5.19900e-15
      336.900   5.31806e-15
      337.004   5.43937e-15
      337.107   5.56154e-15
      337.211   5.68734e-15
      337.315   5.81538e-15
      337.419   5.94580e-15
      337.523   6.07851e-15
      337.626   6.21235e-15
      337.730   6.34997e-15
      337.834   6.48998e-15
      337.938   6.63225e-15
      338.042   6.77609e-15
      338.146   6.92226e-15
      338.250   7.07095e-15
      338.354   7.22228e-15
      338.458   7.37623e-15
      338.562   7.53282e-15
      338.667   7.69359e-15
      338.771   7.85559e-15
      338.875   8.02026e-15
      338.979   8.18776e-15
      339.084   8.35963e-15
      339.188   8.53263e-15
      339.292   8.70867e-15
      339.397   8.88931e-15
      339.501   9.07112e-15
      339.606   9.25786e-15
      339.710   9.44562e-15
      339.815   9.63842e-15
      339.919   9.83230e-15
      340.024   1.00314e-14
      340.128   1.02314e-14
      340.233   1.04369e-14
      340.338   1.06455e-14
      340.442   1.08553e-14
      340.547   1.10705e-14
      340.652   1.12891e-14
      340.757   1.15111e-14
      340.862   1.17365e-14
      340.966   1.19632e-14
      341.071   1.21953e-14
      341.176   1.24312e-14
      341.281   1.26706e-14
      341.386   1.29136e-14
      341.491   1.31603e-14
      341.596   1.34107e-14
      341.702   1.36673e-14
      341.807   1.39250e-14
      341.912   1.41867e-14
      342.017   1.44523e-14
      342.122   1.47217e-14
      342.228   1.49973e-14
      342.333   1.52745e-14
      342.438   1.55558e-14
      342.544   1.58436e-14
      342.649   1.61327e-14
      342.754   1.64260e-14
      342.860   1.67261e-14
      342.965   1.70279e-14
      343.071   1.73363e-14
      343.176   1.76464e-14
      343.282   1.79638e-14
      343.388   1.82855e-14
      343.493   1.86103e-14
      343.599   1.89580e-14
      343.705   1.93127e-14
      343.810   1.96689e-14
      343.916   2.00336e-14
      344.022   2.04040e-14
      344.128   2.07794e-14
      344.234   2.11606e-14
      344.340   2.15470e-14
      344.446   2.19390e-14
      344.552   2.23367e-14
      344.658   2.27403e-14
      344.764   2.31488e-14
      344.870   2.35638e-14
      344.976   2.39841e-14
      345.082   2.44105e-14
      345.188   2.48427e-14
      345.294   2.52810e-14
      345.401   2.57296e-14
      345.507   2.61799e-14
      345.613   2.66362e-14
      345.719   2.70989e-14
      345.826   2.75724e-14
      345.932   2.80476e-14
      346.039   2.85337e-14
      346.145   2.90217e-14
      346.252   2.95209e-14
      346.358   3.00219e-14
      346.465   3.05338e-14
      346.571   3.10482e-14
      346.678   3.15739e-14
      346.785   3.21067e-14
      346.891   3.26408e-14
      346.998   3.31868e-14
      347.105   3.37402e-14
      347.212   3.43007e-14
      347.319   3.48684e-14
      347.425   3.54376e-14
      347.532   3.60196e-14
      347.639   3.66085e-14
      347.746   3.72049e-14
      347.853   3.78093e-14
      347.960   3.84203e-14
      348.067   3.90393e-14
      348.174   3.96655e-14
      348.281   4.02990e-14
      348.389   4.09468e-14
      348.496   4.15956e-14
      348.603   4.22530e-14
      348.710   4.29173e-14
      348.818   4.35967e-14
      348.925   4.42729e-14
      349.032   4.47366e-14
      349.140   4.46720e-14
      349.247   4.46072e-14
      349.355   4.45419e-14
      349.462   4.44769e-14
      349.570   4.44112e-14
      349.677   4.43459e-14
      349.785   4.42797e-14
      349.892   4.42141e-14
      350.000   4.41481e-14
      350.100   4.40866e-14
      350.193   4.40294e-14
      350.287   4.39713e-14
      350.380   4.39136e-14
      350.473   4.38562e-14
      350.567   4.37977e-14
      350.660   4.37397e-14
      350.754   4.36814e-14
      350.847   4.36234e-14
      350.941   4.35645e-14
      351.034   4.35062e-14
      351.128   4.34475e-14
      351.221   4.33890e-14
      351.315   4.33301e-14
      351.409   4.32708e-14
      351.502   4.32121e-14
      351.596   4.31526e-14
      351.690   4.30931e-14
      351.783   4.30342e-14
      351.877   4.29748e-14
      351.971   4.29149e-14
      352.065   4.28552e-14
      352.159   4.27954e-14
      352.252   4.27361e-14
      352.346   4.26759e-14
      352.440   4.26157e-14
      352.534   4.25555e-14
      352.628   4.24954e-14
      352.722   4.24349e-14
      352.816   4.23745e-14
      352.910   4.23138e-14
      353.004   4.22533e-14
      353.098   4.21925e-14
      353.192   4.21316e-14
      353.287   4.20700e-14
      353.381   4.20091e-14
      353.475   4.19482e-14
      353.569   4.18869e-14
      353.663   4.18255e-14
      353.758   4.17638e-14
      353.852   4.17025e-14
      353.946   4.16410e-14
      354.041   4.15787e-14
      354.135   4.15171e-14
      354.229   4.14551e-14
      354.324   4.13929e-14
      354.418   4.13307e-14
      354.513   4.12680e-14
      354.607   4.12061e-14
      354.702   4.10800e-14
      354.796   4.09158e-14
      354.891   4.07468e-14
      354.985   4.05804e-14
      355.080   4.04127e-14
      355.175   4.02456e-14
      355.269   4.00808e-14
      355.364   3.99150e-14
      355.459   3.97497e-14
      355.553   3.95869e-14
      355.648   3.94228e-14
      355.743   3.92595e-14
      355.838   3.90964e-14
      355.933   3.89343e-14
      356.027   3.87742e-14
      356.122   3.86131e-14
      356.217   3.84525e-14
      356.312   3.82926e-14
      356.407   3.81331e-14
      356.502   3.79742e-14
      356.597   3.78159e-14
      356.692   3.76582e-14
      356.787   3.75011e-14
      356.882   3.73443e-14
      356.977   3.71883e-14
      357.073   3.70311e-14
      357.168   3.68759e-14
      357.263   3.67214e-14
      357.358   3.65675e-14
      357.453   3.64141e-14
      357.549   3.62596e-14
      357.644   3.61072e-14
      357.739   3.59554e-14
      357.835   3.58025e-14
      357.930   3.56516e-14
      358.025   3.55012e-14
      358.121   3.53497e-14
      358.216   3.52004e-14
      358.312   3.50500e-14
      358.407   3.49016e-14
      358.503   3.47522e-14
      358.598   3.46049e-14
      358.694   3.44564e-14
      358.790   3.43085e-14
      358.885   3.41625e-14
      358.981   3.40156e-14
      359.076   3.38705e-14
      359.172   3.37246e-14
      359.268   3.35788e-14
      359.364   3.34337e-14
      359.459   3.32907e-14
      359.555   3.31466e-14
      359.651   3.30027e-14
      359.747   3.28594e-14
      359.843   3.27166e-14
      359.939   3.25742e-14
      360.035   3.24324e-14
      360.131   3.22909e-14
      360.227   3.21498e-14
      360.323   3.20093e-14
      360.419   3.20536e-14
      360.515   3.22618e-14
      360.611   3.25021e-14
      360.707   3.27433e-14
      360.803   3.29847e-14
      360.899   3.32272e-14
      360.995   3.34705e-14
      361.092   3.37169e-14
      361.188   3.39616e-14
      361.284   3.42069e-14
      361.380   3.44529e-14
      361.477   3.47022e-14
      361.573   3.49497e-14
      361.669   3.51976e-14
      361.766   3.54487e-14
      361.862   3.56978e-14
      361.959   3.59501e-14
      362.055   3.62005e-14
      362.152   3.64540e-14
      362.248   3.67055e-14
      362.345   3.69602e-14
      362.441   3.72128e-14
      362.538   3.74685e-14
      362.635   3.77247e-14
      362.731   3.79788e-14
      362.828   3.82358e-14
      362.925   3.84934e-14
      363.021   3.87491e-14
      363.118   3.90075e-14
      363.215   3.92665e-14
      363.312   3.95259e-14
      363.409   3.97857e-14
      363.505   4.00429e-14
      363.602   4.03037e-14
      363.699   4.05648e-14
      363.796   4.08259e-14
      363.893   4.10873e-14
      363.990   4.13490e-14
      364.087   4.16111e-14
      364.184   4.18734e-14
      364.281   4.21361e-14
      364.378   4.23991e-14
      364.475   4.26621e-14
      364.573   4.29281e-14
      364.670   4.31914e-14
      364.767   4.34551e-14
      364.864   4.37190e-14
      364.961   4.39827e-14
      365.059   4.42495e-14
      365.156   4.45135e-14
      365.253   4.47778e-14
      365.351   4.50448e-14
      365.448   4.53091e-14
      365.545   4.55736e-14
      365.643   4.58408e-14
      365.740   4.61051e-14
      365.838   4.63723e-14
      365.935   4.66364e-14
      366.033   4.69035e-14
      366.130   4.71677e-14
      366.228   4.75221e-14
      366.326   4.80006e-14
      366.423   4.85157e-14
      366.521   4.90395e-14
      366.618   4.95610e-14
      366.716   5.00904e-14
      366.814   5.06226e-14
      366.912   5.11576e-14
      367.010   5.16965e-14
      367.107   5.22322e-14
      367.205   5.27764e-14
      367.303   5.33232e-14
      367.401   5.38727e-14
      367.499   5.44252e-14
      367.597   5.49804e-14
      367.695   5.55379e-14
      367.793   5.60982e-14
      367.891   5.66614e-14
      367.989   5.72279e-14
      368.087   5.77963e-14
      368.185   5.83669e-14
      368.283   5.89407e-14
      368.381   5.95173e-14
      368.480   6.01014e-14
      368.578   6.06828e-14
      368.676   6.12663e-14
      368.774   6.18522e-14
      368.873   6.24467e-14
      368.971   6.30374e-14
      369.069   6.36307e-14
      369.168   6.42324e-14
      369.266   6.48294e-14
      369.364   6.54292e-14
      369.463   6.60379e-14
      369.561   6.66421e-14
      369.660   6.72543e-14
      369.758   6.78622e-14
      369.857   6.84790e-14
      369.955   6.90913e-14
      370.054   6.97119e-14
      370.153   7.03343e-14
      370.251   7.09525e-14
      370.350   7.15790e-14
      370.449   7.22070e-14
      370.547   7.28303e-14
      370.646   7.34624e-14
      370.745   7.40958e-14
      370.844   7.47310e-14
      370.943   7.53679e-14
      371.041   7.59998e-14
      371.140   7.66396e-14
      371.239   7.72814e-14
      371.338   7.79248e-14
      371.437   7.85691e-14
      371.536   7.92143e-14
      371.635   7.98616e-14
      371.734   8.05103e-14
      371.833   8.11599e-14
      371.932   8.18109e-14
      372.032   8.24702e-14
      372.131   8.37000e-14
      372.230   8.61661e-14
      372.329   8.93210e-14
      372.428   9.25673e-14
      372.528   9.59397e-14
      372.627   9.93737e-14
      372.726   1.02905e-13
      372.826   1.06572e-13
      372.925   1.10305e-13
      373.024   1.14140e-13
      373.124   1.18119e-13
      373.223   1.22161e-13
      373.323   1.26355e-13
      373.422   1.30619e-13
      373.522   1.35037e-13
      373.621   1.39522e-13
      373.721   1.44172e-13
      373.820   1.48889e-13
      373.920   1.53774e-13
      374.020   1.58786e-13
      374.119   1.63863e-13
      374.219   1.69123e-13
      374.319   1.74507e-13
      374.419   1.80016e-13
      374.518   1.85603e-13
      374.618   1.91379e-13
      374.718   1.97292e-13
      374.818   2.03333e-13
      374.918   2.09510e-13
      375.018   2.15834e-13
      375.118   2.22293e-13
      375.218   2.28898e-13
      375.318   2.35646e-13
      375.418   2.42542e-13
      375.518   2.49579e-13
      375.618   2.56764e-13
      375.718   2.64100e-13
      375.818   2.71586e-13
      375.918   2.79225e-13
      376.019   2.87097e-13
      376.119   2.95050e-13
      376.219   3.03152e-13
      376.319   3.11418e-13
      376.420   3.19923e-13
      376.520   3.28503e-13
      376.620   3.37243e-13
      376.721   3.46239e-13
      376.821   3.55305e-13
      376.922   3.64702e-13
      377.022   3.75103e-13
      377.122   3.86746e-13
      377.223   3.98773e-13
      377.323   4.10939e-13
      377.424   4.23504e-13
      377.525   4.36330e-13
      377.625   4.49295e-13
      377.726   4.62664e-13
      377.827   4.76314e-13
      377.927   4.90106e-13
      378.028   5.04307e-13
      378.129   5.18797e-13
      378.230   5.33575e-13
      378.330   5.48486e-13
      378.431   5.63829e-13
      378.532   5.79455e-13
      378.633   5.95384e-13
      378.734   6.11606e-13
      378.835   6.28110e-13
      378.936   6.44910e-13
      379.037   6.62003e-13
      379.138   6.79386e-13
      379.239   6.97077e-13
      379.340   7.15054e-13
      379.441   7.33335e-13
      379.542   7.51909e-13
      379.643   7.70777e-13
      379.745   7.90141e-13
      379.846   8.09616e-13
      379.947   8.29376e-13
      380.048   8.49432e-13
      380.150   8.70002e-13
      380.251   8.90662e-13
      380.352   9.11608e-13
      380.454   9.33059e-13
      380.555   9.54602e-13
      380.656   9.76432e-13
      380.758   9.98780e-13
      380.859   1.02119e-12
      380.961   1.04411e-12
      381.062   1.06709e-12
      381.164   1.09061e-12
      381.266   1.11440e-12
      381.367   1.13824e-12
      381.469   1.16261e-12
      381.570   1.18700e-12
      381.672   1.21191e-12
      381.774   1.23712e-12
      381.876   1.26258e-12
      381.977   1.28840e-12
      382.079   1.31587e-12
      382.181   1.34460e-12
      382.283   1.37366e-12
      382.385   1.40305e-12
      382.487   1.43280e-12
      382.589   1.46282e-12
      382.691   1.49317e-12
      382.793   1.52383e-12
      382.895   1.55481e-12
      382.997   1.58610e-12
      383.099   1.61768e-12
      383.201   1.64955e-12
      383.303   1.68174e-12
      383.405   1.71419e-12
      383.507   1.74690e-12
      383.610   1.78024e-12
      383.712   1.81354e-12
      383.814   1.84707e-12
      383.916   1.88087e-12
      384.019   1.91527e-12
      384.121   1.94960e-12
      384.223   1.98414e-12
      384.326   2.01928e-12
      384.428   2.05427e-12
      384.531   2.08982e-12
      384.633   2.12526e-12
      384.736   2.16127e-12
      384.838   2.19712e-12
      384.941   2.23353e-12
      385.043   2.26978e-12
      385.146   2.30658e-12
      385.249   2.34355e-12
      385.351   2.38035e-12
      385.454   2.41770e-12
      385.557   2.45518e-12
      385.660   2.49285e-12
      385.762   2.53028e-12
      385.865   2.56822e-12
      385.968   2.60631e-12
      386.071   2.64454e-12
      386.174   2.68290e-12
      386.277   2.72134e-12
      386.380   2.75990e-12
      386.483   2.79857e-12
      386.586   2.83733e-12
      386.689   2.87618e-12
      386.792   2.91512e-12
      386.895   2.95412e-12
      386.998   2.99319e-12
      387.101   3.01853e-12
      387.204   2.99644e-12
      387.308   2.95828e-12
      387.411   2.92098e-12
      387.514   2.88415e-12
      387.617   2.84781e-12
      387.721   2.81159e-12
      387.824   2.77617e-12
      387.927   2.74117e-12
      388.031   2.70631e-12
      388.134   2.67224e-12
      388.238   2.63828e-12
      388.341   2.60505e-12
      388.445   2.57194e-12
      388.548   2.53955e-12
      388.652   2.50728e-12
      388.755   2.47573e-12
      388.859   2.44427e-12
      388.962   2.41351e-12
      389.066   2.38283e-12
      389.170   2.35257e-12
      389.274   2.32267e-12
      389.377   2.29343e-12
      389.481   2.26427e-12
      389.585   2.23550e-12
      389.689   2.20709e-12
      389.793   2.17903e-12
      389.897   2.15134e-12
      390.000   2.12425e-12
      390.104   2.09725e-12
      390.208   2.07058e-12
      390.312   2.04426e-12
      390.416   2.01825e-12
      390.520   1.99254e-12
      390.625   1.96691e-12
      390.729   1.94188e-12
      390.833   1.91714e-12
      390.937   1.89272e-12
      391.041   1.86861e-12
      391.145   1.84481e-12
      391.250   1.82108e-12
      391.354   1.79786e-12
      391.458   1.77492e-12
      391.563   1.75205e-12
      391.667   1.72970e-12
      391.771   1.70764e-12
      391.876   1.68564e-12
      391.980   1.66413e-12
      392.085   1.64270e-12
      392.189   1.62174e-12
      392.294   1.60086e-12
      392.398   1.58044e-12
      392.503   1.56009e-12
      392.607   1.54019e-12
      392.712   1.52037e-12
      392.817   1.50079e-12
      392.921   1.48166e-12
      393.026   1.46258e-12
      393.131   1.44377e-12
      393.236   1.42517e-12
      393.340   1.40701e-12
      393.445   1.38891e-12
      393.550   1.37104e-12
      393.655   1.35340e-12
      393.760   1.33599e-12
      393.865   1.31881e-12
      393.970   1.30185e-12
      394.075   1.28511e-12
      394.180   1.26859e-12
      394.285   1.25228e-12
      394.390   1.23618e-12
      394.495   1.22029e-12
      394.600   1.20461e-12
      394.706   1.18898e-12
      394.811   1.17371e-12
      394.916   1.15862e-12
      395.021   1.14374e-12
      395.126   1.12906e-12
      395.232   1.11442e-12
      395.337   1.10010e-12
      395.443   1.08585e-12
      395.548   1.07191e-12
      395.653   1.05816e-12
      395.759   1.04444e-12
      395.864   1.03104e-12
      395.970   1.01769e-12
      396.075   1.00464e-12
      396.181   9.91626e-13
      396.286   9.78902e-13
      396.392   9.66237e-13
      396.498   9.53735e-13
      396.603   9.41499e-13
      396.709   9.29317e-13
      396.815   9.17287e-13
      396.921   9.05411e-13
      397.026   8.93809e-13
      397.132   8.82240e-13
      397.238   8.70831e-13
      397.344   8.59557e-13
      397.450   8.48451e-13
      397.556   8.37469e-13
      397.662   8.26631e-13
      397.768   8.15936e-13
      397.874   8.05374e-13
      397.980   7.94950e-13
      398.086   7.84657e-13
      398.192   7.74504e-13
      398.298   7.64477e-13
      398.404   7.54582e-13
      398.510   7.44812e-13
      398.617   7.35088e-13
      398.723   7.25571e-13
      398.829   7.16174e-13
      398.935   7.06901e-13
      399.042   6.97666e-13
      399.148   6.88627e-13
      399.255   6.79631e-13
      399.361   6.70831e-13
      399.467   6.62134e-13
      399.574   6.53482e-13
      399.680   6.45014e-13
      399.787   6.36576e-13
      399.893       0.00000
      400.000       0.00000
