Filter Be-thin
observation_date 22-Sept-2015 22:40:45
wavelength effective area
      1.00000   2.78437e-10
      1.10000   7.94897e-10
      1.20000   2.06654e-09
      1.30000   4.94177e-09
      1.40000   1.12138e-08
      1.50000   2.39247e-08
      1.60000   4.84356e-08
      1.70000   9.40362e-08
      1.80000   1.75079e-07
      1.90000   3.14686e-07
      2.00000   5.47102e-07
      2.10000   9.24121e-07
      2.20000   1.52383e-06
      2.30000   2.44962e-06
      2.40000   3.84583e-06
      2.50000   5.87748e-06
      2.60000   8.96951e-06
      2.70000   1.33724e-05
      2.80000   1.95549e-05
      2.90000   2.83015e-05
      3.00000   4.03204e-05
      3.10000   5.67046e-05
      3.20000   7.88747e-05
      3.30000   0.000108595
      3.40000   0.000147951
      3.50000   0.000199616
      3.60000   0.000268074
      3.70000   0.000356177
      3.80000   0.000471258
      3.90000   0.000620039
      4.00000   0.000810686
      4.10000    0.00105500
      4.20000    0.00136805
      4.30000    0.00176889
      4.40000    0.00228099
      4.50000    0.00293312
      4.60000    0.00375888
      4.70000    0.00481669
      4.80000    0.00616553
      4.90000    0.00779027
      5.00000     0.0101016
      5.10000     0.0129134
      5.20000     0.0165556
      5.30000     0.0210443
      5.40000     0.0267049
      5.50000     0.0339449
      5.60000     0.0418214
      5.70000     0.0542792
      5.80000     0.0635281
      5.90000     0.0968279
      6.00000      0.129921
      6.10000      0.165727
      6.20000      0.203107
      6.30000      0.238587
      6.40000      0.268813
      6.50000      0.290792
      6.60000      0.300305
      6.70000      0.308904
      6.80000      0.308539
      6.90000      0.403713
      7.00000      0.437819
      7.10000      0.461690
      7.20000      0.480198
      7.30000      0.494845
      7.40000      0.505498
      7.50000      0.513503
      7.60000      0.518985
      7.70000      0.520591
      7.80000      0.517366
      7.90000      0.514689
      8.00000      0.740991
      8.10000      0.807454
      8.20000      0.816691
      8.30000      0.822132
      8.40000      0.824130
      8.50000      0.824639
      8.60000      0.823424
      8.70000      0.821063
      8.80000      0.817302
      8.90000      0.812578
      9.00000      0.806845
      9.10000      0.800167
      9.20000      0.792725
      9.30000      0.784457
      9.40000      0.775501
      9.50000      0.765920
      9.60000      0.755689
      9.70000      0.744911
      9.80000      0.733690
      9.90000      0.722064
      10.0000      0.710088
      10.1000      0.697791
      10.2000      0.685204
      10.3000      0.672319
      10.4000      0.659174
      10.5000      0.645802
      10.6000      0.632238
      10.7000      0.618508
      10.8000      0.604640
      10.9000      0.590673
      11.0000      0.576619
      11.1000      0.562516
      11.2000      0.548378
      11.3000      0.534235
      11.4000      0.520091
      11.5000      0.505957
      11.6000      0.491855
      11.7000      0.477767
      11.8000      0.463743
      11.9000      0.449705
      12.0000      0.435223
      12.1000      0.422417
      12.2000      0.417087
      12.3000      0.407381
      12.4000      0.394777
      12.5000      0.382089
      12.6000      0.369487
      12.7000      0.357043
      12.8000      0.344780
      12.9000      0.332707
      13.0000      0.320850
      13.1000      0.309221
      13.2000      0.297850
      13.3000      0.286795
      13.4000      0.276041
      13.5000      0.265575
      13.6000      0.255408
      13.7000      0.245499
      13.8000      0.235844
      13.9000      0.226449
      14.0000      0.217310
      14.1000      0.208408
      14.2000      0.199734
      14.3000      0.191290
      14.4000      0.183082
      14.5000      0.175123
      14.6000      0.167420
      14.7000      0.159947
      14.8000      0.152704
      14.9000      0.145686
      15.0000      0.138893
      15.1000      0.132325
      15.2000      0.126020
      15.3000      0.119942
      15.4000      0.114076
      15.5000      0.108419
      15.6000      0.102972
      15.7000     0.0977487
      15.8000     0.0927577
      15.9000     0.0879590
      16.0000     0.0833464
      16.1000     0.0789156
      16.2000     0.0747068
      16.3000     0.0706815
      16.4000     0.0668176
      16.5000     0.0631096
      16.6000     0.0595794
      16.7000     0.0562278
      16.8000     0.0530150
      16.9000     0.0499365
      17.0000     0.0470176
      17.1000     0.0442678
      17.2000     0.0416478
      17.3000     0.0391521
      17.4000     0.0368136
      17.5000     0.0345950
      17.6000     0.0324904
      17.7000     0.0305277
      17.8000     0.0287494
      17.9000     0.0270526
      18.0000     0.0254254
      18.1000     0.0239078
      18.2000     0.0224404
      18.3000     0.0210163
      18.4000     0.0196476
      18.5000     0.0183368
      18.6000     0.0170682
      18.7000     0.0158542
      18.8000     0.0147184
      18.9000     0.0136371
      19.0000     0.0126345
      19.1000     0.0116997
      19.2000     0.0108109
      19.3000    0.00999422
      19.4000    0.00923878
      19.5000    0.00852721
      19.6000    0.00789946
      19.7000    0.00730642
      19.8000    0.00674439
      19.9000    0.00623722
      20.0000    0.00575347
      20.1000    0.00530362
      20.2000    0.00489059
      20.3000    0.00449667
      20.4000    0.00413989
      20.5000    0.00380472
      20.6000    0.00348893
      20.7000    0.00320527
      20.8000    0.00293425
      20.9000    0.00268804
      21.0000    0.00245926
      21.1000    0.00224385
      21.2000    0.00205159
      21.3000    0.00186762
      21.4000    0.00170289
      21.5000    0.00154878
      21.6000    0.00140536
      21.7000    0.00127661
      21.8000    0.00115323
      21.9000    0.00104470
      22.0000   0.000940964
      22.1000   0.000847696
      22.2000   0.000760706
      22.3000   0.000679217
      22.4000   0.000597649
      22.5000   0.000516403
      22.6000   0.000414317
      22.7000   0.000336619
      22.8000   0.000378093
      22.9000   0.000439292
      23.0000   0.000518084
      23.1000   0.000550608
      23.2000   0.000539339
      23.3000   0.000506466
      23.4000   0.000462780
      23.5000   0.000423427
      23.6000   0.000385278
      23.7000   0.000351298
      23.8000   0.000317978
      23.9000   0.000289420
      24.0000   0.000261537
      24.1000   0.000237340
      24.2000   0.000214036
      24.3000   0.000193797
      24.4000   0.000174512
      24.5000   0.000157639
      24.6000   0.000141720
      24.7000   0.000127769
      24.8000   0.000114693
      24.9000   0.000103205
      25.0000   9.24878e-05
      25.1000   8.30880e-05
      25.2000   7.43290e-05
      25.3000   6.66712e-05
      25.4000   5.95256e-05
      25.5000   5.33252e-05
      25.6000   4.75110e-05
      25.7000   4.25160e-05
      25.8000   3.77918e-05
      25.9000   3.37890e-05
      26.0000   2.99565e-05
      26.1000   2.67642e-05
      26.2000   2.36590e-05
      26.3000   2.11285e-05
      26.4000   1.86179e-05
      26.5000   1.66220e-05
      26.6000   1.46378e-05
      26.7000   1.30300e-05
      26.8000   1.14754e-05
      26.9000   1.01774e-05
      27.0000   8.96448e-06
      27.1000   7.91613e-06
      27.2000   6.97397e-06
      27.3000   6.14042e-06
      27.4000   5.44052e-06
      27.5000   4.78062e-06
      27.6000   4.22701e-06
      27.7000   3.68367e-06
      27.8000   3.25956e-06
      27.9000   2.83797e-06
      28.0000   2.50111e-06
      28.1000   2.18227e-06
      28.2000   1.91078e-06
      28.3000   1.67124e-06
      28.4000   1.45311e-06
      28.5000   1.27435e-06
      28.6000   1.09977e-06
      28.7000   9.67395e-07
      28.8000   8.35825e-07
      28.9000   7.30906e-07
      29.0000   6.33987e-07
      29.1000   5.49324e-07
      29.2000   4.78424e-07
      29.3000   4.10543e-07
      29.4000   3.59058e-07
      29.5000   3.07894e-07
      29.6000   2.67913e-07
      29.7000   2.31038e-07
      29.8000   1.98679e-07
      29.9000   1.72301e-07
      30.0000   1.46380e-07
      30.1000   1.27654e-07
      30.2000   1.09045e-07
      30.3000   9.51492e-08
      30.4000   8.39692e-08
      30.5000   7.31365e-08
      30.6000   6.33997e-08
      30.7000   5.37247e-08
      30.8000   4.63154e-08
      30.9000   3.96150e-08
      31.0000   3.36032e-08
      31.1000   2.90899e-08
      31.2000   2.46055e-08
      31.3000   2.12561e-08
      31.4000   1.81646e-08
      31.5000   1.53955e-08
      31.6000   1.32817e-08
      31.7000   1.11816e-08
      31.8000   9.61849e-09
      31.9000   8.19702e-09
      32.0000   6.90717e-09
      32.1000   5.97983e-09
      32.2000   5.05853e-09
      32.3000   4.34244e-09
      32.4000   3.71884e-09
      32.5000   3.12111e-09
      32.6000   2.70294e-09
      32.7000   2.28754e-09
      32.8000   1.94260e-09
      32.9000   1.66592e-09
      33.0000   1.39105e-09
      33.1000   1.19780e-09
      33.2000   1.01662e-09
      33.3000   8.50778e-10
      33.4000   7.32094e-10
      33.5000   6.14173e-10
      33.6000   5.19741e-10
      33.7000   4.43202e-10
      33.8000   3.67143e-10
      33.9000   3.14687e-10
      34.0000   2.65754e-10
      34.1000   2.20051e-10
      34.2000   1.88870e-10
      34.3000   1.57875e-10
      34.4000   1.31908e-10
      34.5000   1.12340e-10
      34.6000   9.28903e-11
      34.7000   7.83798e-11
      34.8000   6.61982e-11
      34.9000   5.40902e-11
      35.0000   4.61333e-11
      35.1000   3.86460e-11
      35.2000   3.15087e-11
      35.3000   2.69256e-11
      35.4000   2.23704e-11
      35.5000   1.83450e-11
      35.6000   1.55856e-11
      35.7000   1.28431e-11
      35.8000   1.05924e-11
      35.9000   8.94850e-12
      36.0000   7.31464e-12
      36.1000   6.06557e-12
      36.2000   5.09695e-12
      36.3000   4.13428e-12
      36.4000   3.44515e-12
      36.5000   2.88071e-12
      36.6000   2.31979e-12
      36.7000   1.94104e-12
      36.8000   1.61584e-12
      36.9000   1.29268e-12
      37.0000   1.08483e-12
      37.1000   8.99608e-13
      37.2000   7.15539e-13
      37.3000   6.01414e-13
      37.4000   4.97162e-13
      37.5000   3.93569e-13
      37.6000   3.30738e-13
      37.7000   2.72774e-13
      37.8000   2.15177e-13
      37.9000   1.80421e-13
      38.0000   1.48581e-13
      38.1000   1.16942e-13
      38.2000   9.76072e-14
      38.3000   8.03295e-14
      38.4000   6.31614e-14
      38.5000   5.23492e-14
      38.6000   4.30973e-14
      38.7000   3.39044e-14
      38.8000   2.78318e-14
      38.9000   2.29430e-14
      39.0000   1.80852e-14
      39.1000   1.46651e-14
      39.2000   1.21153e-14
      39.3000   9.58180e-15
      39.4000   7.64723e-15
      39.5000   6.32027e-15
      39.6000   5.00191e-15
      39.7000   3.90865e-15
      39.8000   3.24232e-15
      39.9000   2.58027e-15
      40.0000   1.97468e-15
      40.1000   1.64560e-15
      40.2000   1.31863e-15
      40.3000   9.93809e-16
      40.4000   8.26318e-16
      40.5000   6.67206e-16
      40.6000   5.09118e-16
      40.7000   4.10169e-16
      40.8000   3.33888e-16
      40.9000   2.58108e-16
      41.0000   2.01068e-16
      41.1000   1.65087e-16
      41.2000   1.29344e-16
      41.3000   9.72894e-17
      41.4000   8.05945e-17
      41.5000   6.40071e-17
      41.6000   4.75287e-17
      41.7000   3.88173e-17
      41.8000   3.12417e-17
      41.9000   2.37155e-17
      42.0000   1.84265e-17
      42.1000   1.50235e-17
      42.2000   1.16428e-17
      42.3000   8.61253e-18
      42.4000   7.11004e-18
      42.5000   5.61730e-18
      42.6000   4.13441e-18
      42.7000   3.30897e-18
      42.8000   2.66139e-18
      42.9000   2.01800e-18
      43.0000   1.51331e-18
      43.1000   1.23724e-18
      43.2000   9.62998e-19
      43.3000   6.90559e-19
      43.4000   6.91229e-19
      43.5000   7.60272e-19
      43.6000   8.74250e-19
      43.7000   9.39887e-19
      43.8000   8.59858e-19
      43.9000   6.84821e-19
      44.0000   4.85544e-19
      44.1000   3.85506e-19
      44.2000   3.06463e-19
      44.3000   2.28771e-19
      44.4000   1.71058e-19
      44.5000   1.39533e-19
      44.6000   1.08090e-19
      44.7000   7.67299e-20
      44.8000   6.18850e-20
      44.9000   4.94055e-20
      45.0000   3.69580e-20
      45.1000   2.67439e-20
      45.2000   2.18889e-20
      45.3000   1.70469e-20
      45.4000   1.22170e-20
      45.5000   9.41394e-21
      45.6000   7.56830e-21
      45.7000   5.72749e-21
      45.8000   3.93417e-21
      45.9000   3.24511e-21
      46.0000   2.55779e-21
      46.1000   1.87224e-21
      46.2000   1.34692e-21
      46.3000   1.09633e-21
      46.4000   8.46422e-22
      46.5000   5.97132e-22
      46.6000   4.54152e-22
      46.7000   3.64389e-22
      46.8000   2.74859e-22
      46.9000   1.85555e-22
      47.0000   1.50318e-22
      47.1000   1.18830e-22
      47.2000   8.74217e-23
      47.3000   5.96972e-23
      47.4000   4.88516e-23
      47.5000   3.80330e-23
      47.6000   2.72423e-23
      47.7000   1.92245e-23
      47.8000   1.55820e-23
      47.9000   1.19483e-23
      48.0000   8.32424e-24
      48.1000   6.07597e-24
      48.2000   4.88019e-24
      48.3000   3.68738e-24
      48.4000   2.49762e-24
      48.5000   1.88437e-24
      48.6000   1.50096e-24
      48.7000   1.11851e-24
      48.8000   7.36993e-25
      48.9000   5.73311e-25
      49.0000   4.53380e-25
      49.1000   3.33753e-25
      49.2000   2.14421e-25
      49.3000   1.74087e-25
      49.4000   1.40665e-25
      49.5000   1.07326e-25
      49.6000   7.40692e-26
      49.7000   6.67033e-26
      49.8000   5.99931e-26
      49.9000   5.32997e-26
      50.0000   4.66232e-26
      50.1000   4.08935e-26
      50.2000   3.30087e-26
      50.3000   2.66903e-26
      50.4000   2.30894e-26
      50.5000   2.08089e-26
      50.6000   1.85803e-26
      50.7000   1.43615e-26
      50.8000   1.19686e-26
      50.9000   6.55392e-27
      51.0000   4.39126e-27
      51.1000   3.55046e-27
      51.2000   3.55760e-27
      51.3000   3.18644e-27
      51.4000   1.96511e-27
      51.5000   1.18506e-27
      51.6000   8.35797e-28
      51.7000   5.63642e-28
      51.8000   4.26323e-28
      51.9000   3.54773e-28
      52.0000   2.81108e-28
      52.1000   1.94312e-28
      52.2000   1.48662e-28
      52.3000   9.79242e-29
      52.4000   6.39027e-29
      52.5000   5.04995e-29
      52.6000   4.48944e-29
      52.7000   3.83022e-29
      52.8000   2.60362e-29
      52.9000   1.48929e-29
      53.0000   9.95959e-30
      53.1000   6.56743e-30
      53.2000   4.40678e-30
      53.3000   2.92480e-30
      53.4000   1.91657e-30
      53.5000   1.09402e-30
      53.6000   5.52981e-31
      53.7000   3.23058e-31
      53.8000   2.41290e-31
      53.9000   1.65715e-31
      54.0000   1.11427e-31
      54.1000   7.25074e-32
      54.2000   5.13827e-32
      54.3000   3.09509e-32
      54.4000   1.31089e-32
      54.5000   7.15820e-33
      54.6000   5.12777e-33
      54.7000   3.89130e-33
      54.8000   2.73406e-33
      54.9000   1.85377e-33
      55.0000   1.34911e-33
      55.1000   9.75683e-34
      55.2000   7.00328e-34
      55.3000   6.47223e-34
      55.4000   5.77008e-34
      55.5000   4.14565e-34
      55.6000   2.65799e-34
      55.7000   1.91279e-34
      55.8000   1.30619e-34
      55.9000   9.15817e-35
      56.0000   6.70006e-35
      56.1000   4.63049e-35
      56.2000   4.29071e-35
      56.3000   3.49925e-35
      56.4000   2.53452e-35
      56.5000   1.74693e-35
      56.6000   1.20369e-35
      56.7000   8.77054e-36
      56.8000   6.43480e-36
      56.9000   4.55978e-36
      57.0000   3.04492e-36
      57.1000   2.03357e-36
      57.2000   1.40061e-36
      57.3000   9.91466e-37
      57.4000   7.08106e-37
      57.5000   5.02429e-37
      57.6000   3.26730e-37
      57.7000   2.27106e-37
      57.8000   2.05826e-37
      57.9000   1.54123e-37
      58.0000   1.09813e-37
      58.1000   7.24305e-38
      58.2000   4.16946e-38
      58.3000   2.74284e-38
      58.4000   2.07511e-38
      58.5000   1.65464e-38
      58.6000   1.12941e-38
      58.7000   7.62795e-39
      58.8000   5.12061e-39
      58.9000   3.44960e-39
      59.0000   2.50657e-39
      59.1000   1.86008e-39
      59.2000   1.37594e-39
      59.3000   1.01431e-39
      59.4000   7.44985e-40
      59.5000   5.24743e-40
      59.6000   3.47125e-40
      59.7000   2.65831e-40
      59.8000   1.84778e-40
      59.9000   1.09834e-40
      60.0000   8.08872e-41
      60.1000   5.96757e-41
      60.2000   4.38831e-41
      60.3000   3.21598e-41
      60.4000   2.35026e-41
      60.5000   1.73200e-41
      60.6000   1.28723e-41
      60.7000   1.01342e-41
      60.8000   8.36715e-42
      60.9000   6.89159e-42
      61.0000   5.69628e-42
      61.1000   4.71957e-42
      61.2000   3.92644e-42
      61.3000   3.25241e-42
      61.4000   2.69330e-42
      61.5000   2.23927e-42
      61.6000   1.78245e-42
      61.7000   1.40270e-42
      61.8000   1.10282e-42
      61.9000   8.71608e-43
      62.0000   6.68419e-43
      62.1000   4.82047e-43
      62.2000   3.39114e-43
      62.3000   2.46629e-43
      62.4000   2.04590e-43
      62.5000   1.75162e-43
      62.6000   1.49939e-43
      62.7000   1.30321e-43
      62.8000   1.14906e-43
      62.9000   8.26766e-44
      63.0000   5.74532e-44
      63.1000   4.20390e-44
      63.2000   3.50325e-44
      63.3000   2.52234e-44
      63.4000   2.24208e-44
      63.5000   1.54143e-44
      63.6000   1.26117e-44
      63.7000   9.80909e-45
      63.8000   9.80909e-45
      63.9000   7.00649e-45
      64.0000   2.80260e-45
      64.1000   2.80260e-45
      64.2000   2.80260e-45
      64.3000   2.80260e-45
      64.4000       0.00000
      64.5000       0.00000
      64.6000       0.00000
      64.7000       0.00000
      64.8000       0.00000
      64.9000       0.00000
      65.0000       0.00000
      65.1000       0.00000
      65.2000       0.00000
      65.3000       0.00000
      65.4000       0.00000
      65.5000       0.00000
      65.6000       0.00000
      65.7000       0.00000
      65.8000       0.00000
      65.9000       0.00000
      66.0000       0.00000
      66.1000       0.00000
      66.2000       0.00000
      66.3000       0.00000
      66.4000       0.00000
      66.5000       0.00000
      66.6000       0.00000
      66.7000       0.00000
      66.8000       0.00000
      66.9000       0.00000
      67.0000       0.00000
      67.1000       0.00000
      67.2000       0.00000
      67.3000       0.00000
      67.4000       0.00000
      67.5000       0.00000
      67.6000       0.00000
      67.7000       0.00000
      67.8000       0.00000
      67.9000       0.00000
      68.0000       0.00000
      68.1000       0.00000
      68.2000       0.00000
      68.3000       0.00000
      68.4000       0.00000
      68.5000       0.00000
      68.6000       0.00000
      68.7000       0.00000
      68.8000       0.00000
      68.9000       0.00000
      69.0000       0.00000
      69.1000       0.00000
      69.2000       0.00000
      69.3000       0.00000
      69.4000       0.00000
      69.5000       0.00000
      69.6000       0.00000
      69.7000       0.00000
      69.8000       0.00000
      69.9000       0.00000
      70.0000       0.00000
      70.1000       0.00000
      70.2000       0.00000
      70.3000       0.00000
      70.4000       0.00000
      70.5000       0.00000
      70.6000       0.00000
      70.7000       0.00000
      70.8000       0.00000
      70.9000       0.00000
      71.0000       0.00000
      71.1000       0.00000
      71.2000       0.00000
      71.3000       0.00000
      71.4000       0.00000
      71.5000       0.00000
      71.6000       0.00000
      71.7000       0.00000
      71.8000       0.00000
      71.9000       0.00000
      72.0000       0.00000
      72.1000       0.00000
      72.2000       0.00000
      72.3000       0.00000
      72.4000       0.00000
      72.5000       0.00000
      72.6000       0.00000
      72.7000       0.00000
      72.8000       0.00000
      72.9000       0.00000
      73.0000       0.00000
      73.1000       0.00000
      73.2000       0.00000
      73.3000       0.00000
      73.4000       0.00000
      73.5000       0.00000
      73.6000       0.00000
      73.7000       0.00000
      73.8000       0.00000
      73.9000       0.00000
      74.0000       0.00000
      74.1000       0.00000
      74.2000       0.00000
      74.3000       0.00000
      74.4000       0.00000
      74.5000       0.00000
      74.6000       0.00000
      74.7000       0.00000
      74.8000       0.00000
      74.9000       0.00000
      75.0000       0.00000
      75.1000       0.00000
      75.2000       0.00000
      75.3000       0.00000
      75.4000       0.00000
      75.5000       0.00000
      75.6000       0.00000
      75.7000       0.00000
      75.8000       0.00000
      75.9000       0.00000
      76.0000       0.00000
      76.1000       0.00000
      76.2000       0.00000
      76.3000       0.00000
      76.4000       0.00000
      76.5000       0.00000
      76.6000       0.00000
      76.7000       0.00000
      76.8000       0.00000
      76.9000       0.00000
      77.0000       0.00000
      77.1000       0.00000
      77.2000       0.00000
      77.3000       0.00000
      77.4000       0.00000
      77.5000       0.00000
      77.6000       0.00000
      77.7000       0.00000
      77.8000       0.00000
      77.9000       0.00000
      78.0000       0.00000
      78.1000       0.00000
      78.2000       0.00000
      78.3000       0.00000
      78.4000       0.00000
      78.5000       0.00000
      78.6000       0.00000
      78.7000       0.00000
      78.8000       0.00000
      78.9000       0.00000
      79.0000       0.00000
      79.1000       0.00000
      79.2000       0.00000
      79.3000       0.00000
      79.4000       0.00000
      79.5000       0.00000
      79.6000       0.00000
      79.7000       0.00000
      79.8000       0.00000
      79.9000       0.00000
      80.0000       0.00000
      80.1000       0.00000
      80.2000       0.00000
      80.3000       0.00000
      80.4000       0.00000
      80.5000       0.00000
      80.6000       0.00000
      80.7000       0.00000
      80.8000       0.00000
      80.9000       0.00000
      81.0000       0.00000
      81.1000       0.00000
      81.2000       0.00000
      81.3000       0.00000
      81.4000       0.00000
      81.5000       0.00000
      81.6000       0.00000
      81.7000       0.00000
      81.8000       0.00000
      81.9000       0.00000
      82.0000       0.00000
      82.1000       0.00000
      82.2000       0.00000
      82.3000       0.00000
      82.4000       0.00000
      82.5000       0.00000
      82.6000       0.00000
      82.7000       0.00000
      82.8000       0.00000
      82.9000       0.00000
      83.0000       0.00000
      83.1000       0.00000
      83.2000       0.00000
      83.3000       0.00000
      83.4000       0.00000
      83.5000       0.00000
      83.6000       0.00000
      83.7000       0.00000
      83.8000       0.00000
      83.9000       0.00000
      84.0000       0.00000
      84.1000       0.00000
      84.2000       0.00000
      84.3000       0.00000
      84.4000       0.00000
      84.5000       0.00000
      84.6000       0.00000
      84.7000       0.00000
      84.8000       0.00000
      84.9000       0.00000
      85.0000       0.00000
      85.1000       0.00000
      85.2000       0.00000
      85.3000       0.00000
      85.4000       0.00000
      85.5000       0.00000
      85.6000       0.00000
      85.7000       0.00000
      85.8000       0.00000
      85.9000       0.00000
      86.0000       0.00000
      86.1000       0.00000
      86.2000       0.00000
      86.3000       0.00000
      86.4000       0.00000
      86.5000       0.00000
      86.6000       0.00000
      86.7000       0.00000
      86.8000       0.00000
      86.9000       0.00000
      87.0000       0.00000
      87.1000       0.00000
      87.2000       0.00000
      87.3000       0.00000
      87.4000       0.00000
      87.5000       0.00000
      87.6000       0.00000
      87.7000       0.00000
      87.8000       0.00000
      87.9000       0.00000
      88.0000       0.00000
      88.1000       0.00000
      88.2000       0.00000
      88.3000       0.00000
      88.4000       0.00000
      88.5000       0.00000
      88.6000       0.00000
      88.7000       0.00000
      88.8000       0.00000
      88.9000       0.00000
      89.0000       0.00000
      89.1000       0.00000
      89.2000       0.00000
      89.3000       0.00000
      89.4000       0.00000
      89.5000       0.00000
      89.6000       0.00000
      89.7000       0.00000
      89.8000       0.00000
      89.9000       0.00000
      90.0000       0.00000
      90.1000       0.00000
      90.2000       0.00000
      90.3000       0.00000
      90.4000       0.00000
      90.5000       0.00000
      90.6000       0.00000
      90.7000       0.00000
      90.8000       0.00000
      90.9000       0.00000
      91.0000       0.00000
      91.1000       0.00000
      91.2000       0.00000
      91.3000       0.00000
      91.4000       0.00000
      91.5000       0.00000
      91.6000       0.00000
      91.7000       0.00000
      91.8000       0.00000
      91.9000       0.00000
      92.0000       0.00000
      92.1000       0.00000
      92.2000       0.00000
      92.3000       0.00000
      92.4000       0.00000
      92.5000       0.00000
      92.6000       0.00000
      92.7000       0.00000
      92.8000       0.00000
      92.9000       0.00000
      93.0000       0.00000
      93.1000       0.00000
      93.2000       0.00000
      93.3000       0.00000
      93.4000       0.00000
      93.5000       0.00000
      93.6000       0.00000
      93.7000       0.00000
      93.8000       0.00000
      93.9000       0.00000
      94.0000       0.00000
      94.1000       0.00000
      94.2000       0.00000
      94.3000       0.00000
      94.4000       0.00000
      94.5000       0.00000
      94.6000       0.00000
      94.7000       0.00000
      94.8000       0.00000
      94.9000       0.00000
      95.0000       0.00000
      95.1000       0.00000
      95.2000       0.00000
      95.3000       0.00000
      95.4000       0.00000
      95.5000       0.00000
      95.6000       0.00000
      95.7000       0.00000
      95.8000       0.00000
      95.9000       0.00000
      96.0000       0.00000
      96.1000       0.00000
      96.2000       0.00000
      96.3000       0.00000
      96.4000       0.00000
      96.5000       0.00000
      96.6000       0.00000
      96.7000       0.00000
      96.8000       0.00000
      96.9000       0.00000
      97.0000       0.00000
      97.1000       0.00000
      97.2000       0.00000
      97.3000       0.00000
      97.4000       0.00000
      97.5000       0.00000
      97.6000       0.00000
      97.7000       0.00000
      97.8000       0.00000
      97.9000       0.00000
      98.0000       0.00000
      98.1000       0.00000
      98.2000       0.00000
      98.3000       0.00000
      98.4000       0.00000
      98.5000       0.00000
      98.6000       0.00000
      98.7000       0.00000
      98.8000       0.00000
      98.9000       0.00000
      99.0000       0.00000
      99.1000       0.00000
      99.2000       0.00000
      99.3000       0.00000
      99.4000       0.00000
      99.5000       0.00000
      99.6000       0.00000
      99.7000       0.00000
      99.8000       0.00000
      99.9000       0.00000
      100.000       0.00000
      100.100       0.00000
      100.200       0.00000
      100.300       0.00000
      100.400       0.00000
      100.500       0.00000
      100.600       0.00000
      100.700       0.00000
      100.800       0.00000
      100.900       0.00000
      101.000       0.00000
      101.100       0.00000
      101.200       0.00000
      101.300       0.00000
      101.400       0.00000
      101.500       0.00000
      101.600       0.00000
      101.700       0.00000
      101.800       0.00000
      101.900       0.00000
      102.000       0.00000
      102.100       0.00000
      102.200       0.00000
      102.300       0.00000
      102.400       0.00000
      102.500       0.00000
      102.600       0.00000
      102.700       0.00000
      102.800       0.00000
      102.900       0.00000
      103.000       0.00000
      103.100       0.00000
      103.200       0.00000
      103.300       0.00000
      103.400       0.00000
      103.500       0.00000
      103.600       0.00000
      103.700       0.00000
      103.800       0.00000
      103.900       0.00000
      104.000       0.00000
      104.100       0.00000
      104.200       0.00000
      104.300       0.00000
      104.400       0.00000
      104.500       0.00000
      104.600       0.00000
      104.700       0.00000
      104.800       0.00000
      104.900       0.00000
      105.000       0.00000
      105.100       0.00000
      105.200       0.00000
      105.300       0.00000
      105.400       0.00000
      105.500       0.00000
      105.600       0.00000
      105.700       0.00000
      105.800       0.00000
      105.900       0.00000
      106.000       0.00000
      106.100       0.00000
      106.200       0.00000
      106.300       0.00000
      106.400       0.00000
      106.500       0.00000
      106.600       0.00000
      106.700       0.00000
      106.800       0.00000
      106.900       0.00000
      107.000       0.00000
      107.100       0.00000
      107.200       0.00000
      107.300       0.00000
      107.400       0.00000
      107.500       0.00000
      107.600       0.00000
      107.700       0.00000
      107.800       0.00000
      107.900       0.00000
      108.000       0.00000
      108.100       0.00000
      108.200       0.00000
      108.300       0.00000
      108.400       0.00000
      108.500       0.00000
      108.600       0.00000
      108.700       0.00000
      108.800       0.00000
      108.900       0.00000
      109.000       0.00000
      109.100       0.00000
      109.200       0.00000
      109.300       0.00000
      109.400       0.00000
      109.500       0.00000
      109.600       0.00000
      109.700       0.00000
      109.800       0.00000
      109.900       0.00000
      110.000       0.00000
      110.100       0.00000
      110.200       0.00000
      110.300       0.00000
      110.400       0.00000
      110.500       0.00000
      110.600   1.09455e-41
      110.700   2.82192e-29
      110.800   7.77169e-20
      110.900   2.77275e-15
      111.000   9.62333e-13
      111.100   3.46510e-11
      111.200   1.11817e-10
      111.300   2.12602e-10
      111.400   3.35212e-10
      111.500   3.73121e-10
      111.600   4.15932e-10
      111.700   5.15991e-10
      111.800   6.49399e-10
      111.900   7.18300e-10
      112.000   8.48223e-10
      112.100   1.05484e-09
      112.200   1.23644e-09
      112.300   1.35823e-09
      112.400   1.47545e-09
      112.500   1.63710e-09
      112.600   1.86051e-09
      112.700   2.08754e-09
      112.800   2.20053e-09
      112.900   2.41671e-09
      113.000   2.65089e-09
      113.100   2.83346e-09
      113.200   2.98373e-09
      113.300   3.00469e-09
      113.400   3.25858e-09
      113.500   3.52291e-09
      113.600   3.56185e-09
      113.700   3.81248e-09
      113.800   3.99520e-09
      113.900   4.15529e-09
      114.000   4.25364e-09
      114.100   4.31713e-09
      114.200   4.72111e-09
      114.300   4.98544e-09
      114.400   4.93078e-09
      114.500   4.77355e-09
      114.600   4.77142e-09
      114.700   4.80060e-09
      114.800   4.87679e-09
      114.900   5.06260e-09
      115.000   5.24172e-09
      115.100   5.35450e-09
      115.200   5.38444e-09
      115.300   5.41952e-09
      115.400   5.44990e-09
      115.500   5.48277e-09
      115.600   5.51368e-09
      115.700   5.54151e-09
      115.800   5.57364e-09
      115.900   5.60362e-09
      116.000   5.63093e-09
      116.100   5.64705e-09
      116.200   5.66066e-09
      116.300   5.67308e-09
      116.400   5.67575e-09
      116.500   5.63620e-09
      116.600   5.59559e-09
      116.700   5.55629e-09
      116.800   5.51599e-09
      116.900   5.47089e-09
      117.000   5.43179e-09
      117.100   5.40921e-09
      117.200   5.39814e-09
      117.300   5.37586e-09
      117.400   5.35289e-09
      117.500   5.32079e-09
      117.600   5.26322e-09
      117.700   5.19848e-09
      117.800   5.13117e-09
      117.900   5.06301e-09
      118.000   4.99260e-09
      118.100   4.92020e-09
      118.200   4.85110e-09
      118.300   4.78391e-09
      118.400   4.70642e-09
      118.500   4.63100e-09
      118.600   4.56172e-09
      118.700   4.49165e-09
      118.800   4.42022e-09
      118.900   4.35146e-09
      119.000   4.27802e-09
      119.100   4.19929e-09
      119.200   4.14012e-09
      119.300   4.10812e-09
      119.400   4.08461e-09
      119.500   4.05535e-09
      119.600   4.01256e-09
      119.700   3.96290e-09
      119.800   3.90543e-09
      119.900   3.83764e-09
      120.000   3.77415e-09
      120.100   3.71419e-09
      120.200   3.66820e-09
      120.300   3.63030e-09
      120.400   3.59264e-09
      120.500   3.54470e-09
      120.600   3.48923e-09
      120.700   3.43183e-09
      120.800   3.37677e-09
      120.900   3.33591e-09
      121.000   3.31648e-09
      121.100   3.29534e-09
      121.200   3.26975e-09
      121.300   3.23716e-09
      121.400   3.19919e-09
      121.500   3.15692e-09
      121.600   3.08571e-09
      121.700   3.01868e-09
      121.800   2.94705e-09
      121.900   2.87587e-09
      122.000   2.80211e-09
      122.100   2.73241e-09
      122.200   2.66438e-09
      122.300   2.61046e-09
      122.400   2.57132e-09
      122.500   2.53563e-09
      122.600   2.49864e-09
      122.700   2.46201e-09
      122.800   2.42281e-09
      122.900   2.38588e-09
      123.000   2.36490e-09
      123.100   2.37107e-09
      123.200   2.38332e-09
      123.300   2.42315e-09
      123.400   2.47426e-09
      123.500   2.54150e-09
      123.600   2.59825e-09
      123.700   2.61884e-09
      123.800   2.61814e-09
      123.900   2.62486e-09
      124.000   2.64351e-09
      124.100   2.70238e-09
      124.200   2.85149e-09
      124.300   3.08250e-09
      124.400   3.30273e-09
      124.500   3.35520e-09
      124.600   3.32767e-09
      124.700   3.28015e-09
      124.800   3.23415e-09
      124.900   3.18871e-09
      125.000   3.14374e-09
      125.100   3.09831e-09
      125.200   3.05338e-09
      125.300   3.00904e-09
      125.400   2.96533e-09
      125.500   2.92223e-09
      125.600   2.86741e-09
      125.700   2.81072e-09
      125.800   2.76231e-09
      125.900   2.74395e-09
      126.000   2.72774e-09
      126.100   2.71164e-09
      126.200   2.69562e-09
      126.300   2.67969e-09
      126.400   2.66385e-09
      126.500   2.64808e-09
      126.600   2.63242e-09
      126.700   2.61684e-09
      126.800   2.60135e-09
      126.900   2.58594e-09
      127.000   2.57053e-09
      127.100   2.54977e-09
      127.200   2.52296e-09
      127.300   2.49435e-09
      127.400   2.46604e-09
      127.500   2.43803e-09
      127.600   2.41033e-09
      127.700   2.38292e-09
      127.800   2.35579e-09
      127.900   2.32896e-09
      128.000   2.30241e-09
      128.100   2.27613e-09
      128.200   2.25013e-09
      128.300   2.22441e-09
      128.400   2.19897e-09
      128.500   2.17379e-09
      128.600   2.14888e-09
      128.700   2.12425e-09
      128.800   2.09988e-09
      128.900   2.07576e-09
      129.000   2.05193e-09
      129.100   2.02831e-09
      129.200   2.00482e-09
      129.300   1.98158e-09
      129.400   1.95861e-09
      129.500   1.93589e-09
      129.600   1.91343e-09
      129.700   1.89122e-09
      129.800   1.86925e-09
      129.900   1.84754e-09
      130.000   1.82608e-09
      130.100   1.80486e-09
      130.200   1.78388e-09
      130.300   1.76315e-09
      130.400   1.74265e-09
      130.500   1.72237e-09
      130.600   1.70226e-09
      130.700   1.68234e-09
      130.800   1.66266e-09
      130.900   1.64320e-09
      131.000   1.62396e-09
      131.100   1.60494e-09
      131.200   1.58613e-09
      131.300   1.56749e-09
      131.400   1.54906e-09
      131.500   1.53084e-09
      131.600   1.51282e-09
      131.700   1.49500e-09
      131.800   1.47737e-09
      131.900   1.45994e-09
      132.000   1.44271e-09
      132.100   1.42566e-09
      132.200   1.40880e-09
      132.300   1.39213e-09
      132.400   1.37564e-09
      132.500   1.35934e-09
      132.600   1.34323e-09
      132.700   1.32636e-09
      132.800   1.30938e-09
      132.900   1.29256e-09
      133.000   1.27595e-09
      133.100   1.25953e-09
      133.200   1.24332e-09
      133.300   1.22730e-09
      133.400   1.21147e-09
      133.500   1.19584e-09
      133.600   1.18039e-09
      133.700   1.16515e-09
      133.800   1.15009e-09
      133.900   1.13524e-09
      134.000   1.12058e-09
      134.100   1.10610e-09
      134.200   1.09180e-09
      134.300   1.07769e-09
      134.400   1.06375e-09
      134.500   1.05000e-09
      134.600   1.03641e-09
      134.700   1.02300e-09
      134.800   1.00976e-09
      134.900   9.96693e-10
      135.000   9.83790e-10
      135.100   9.71060e-10
      135.200   9.58494e-10
      135.300   9.46086e-10
      135.400   9.33830e-10
      135.500   9.21700e-10
      135.600   9.09700e-10
      135.700   8.97849e-10
      135.800   8.86144e-10
      135.900   8.74587e-10
      136.000   8.63170e-10
      136.100   8.51894e-10
      136.200   8.40772e-10
      136.300   8.29783e-10
      136.400   8.18935e-10
      136.500   8.08222e-10
      136.600   7.97638e-10
      136.700   7.87186e-10
      136.800   7.76865e-10
      136.900   7.66675e-10
      137.000   7.56618e-10
      137.100   7.46703e-10
      137.200   7.36916e-10
      137.300   7.27261e-10
      137.400   7.17729e-10
      137.500   7.08314e-10
      137.600   6.99014e-10
      137.700   6.89820e-10
      137.800   6.80735e-10
      137.900   6.71764e-10
      138.000   6.62910e-10
      138.100   6.54167e-10
      138.200   6.45550e-10
      138.300   6.37041e-10
      138.400   6.28645e-10
      138.500   6.20355e-10
      138.600   6.12171e-10
      138.700   6.04094e-10
      138.800   5.96121e-10
      138.900   5.88249e-10
      139.000   5.80480e-10
      139.100   5.72818e-10
      139.200   5.65294e-10
      139.300   5.57906e-10
      139.400   5.50623e-10
      139.500   5.43433e-10
      139.600   5.36330e-10
      139.700   5.29318e-10
      139.800   5.22395e-10
      139.900   5.15556e-10
      140.000   5.08809e-10
      140.100   5.02146e-10
      140.200   4.95567e-10
      140.300   4.89070e-10
      140.400   4.82654e-10
      140.500   4.76316e-10
      140.600   4.70055e-10
      140.700   4.63873e-10
      140.800   4.57778e-10
      140.900   4.51758e-10
      141.000   4.45811e-10
      141.100   4.39939e-10
      141.200   4.34140e-10
      141.300   4.28412e-10
      141.400   4.22773e-10
      141.500   4.17289e-10
      141.600   4.11933e-10
      141.700   4.06643e-10
      141.800   4.01419e-10
      141.900   3.96258e-10
      142.000   3.91160e-10
      142.100   3.86276e-10
      142.200   3.81891e-10
      142.300   3.77932e-10
      142.400   3.74015e-10
      142.500   3.70133e-10
      142.600   3.66286e-10
      142.700   3.62476e-10
      142.800   3.58702e-10
      142.900   3.54964e-10
      143.000   3.51261e-10
      143.100   3.47595e-10
      143.200   3.43968e-10
      143.300   3.40373e-10
      143.400   3.36814e-10
      143.500   3.33290e-10
      143.600   3.29798e-10
      143.700   3.26367e-10
      143.800   3.23332e-10
      143.900   3.20389e-10
      144.000   3.17476e-10
      144.100   3.14586e-10
      144.200   3.11720e-10
      144.300   3.08877e-10
      144.400   3.06091e-10
      144.500   3.03783e-10
      144.600   3.01634e-10
      144.700   2.99512e-10
      144.800   2.97398e-10
      144.900   2.95295e-10
      145.000   2.93201e-10
      145.100   2.91118e-10
      145.200   2.89043e-10
      145.300   2.86980e-10
      145.400   2.84926e-10
      145.500   2.82881e-10
      145.600   2.80845e-10
      145.700   2.78817e-10
      145.800   2.76800e-10
      145.900   2.74794e-10
      146.000   2.72794e-10
      146.100   2.70775e-10
      146.200   2.68746e-10
      146.300   2.66727e-10
      146.400   2.64716e-10
      146.500   2.62718e-10
      146.600   2.60731e-10
      146.700   2.58753e-10
      146.800   2.56770e-10
      146.900   2.54776e-10
      147.000   2.52792e-10
      147.100   2.50819e-10
      147.200   2.48860e-10
      147.300   2.46911e-10
      147.400   2.44975e-10
      147.500   2.43049e-10
      147.600   2.41135e-10
      147.700   2.39234e-10
      147.800   2.37345e-10
      147.900   2.35466e-10
      148.000   2.33599e-10
      148.100   2.31744e-10
      148.200   2.29901e-10
      148.300   2.28071e-10
      148.400   2.26594e-10
      148.500   2.25392e-10
      148.600   2.24285e-10
      148.700   2.23181e-10
      148.800   2.22079e-10
      148.900   2.20982e-10
      149.000   2.19887e-10
      149.100   2.18795e-10
      149.200   2.17705e-10
      149.300   2.16618e-10
      149.400   2.15533e-10
      149.500   2.14451e-10
      149.600   2.13372e-10
      149.700   2.12295e-10
      149.800   2.11220e-10
      149.900   2.10150e-10
      150.000   2.09082e-10
      150.100   2.08017e-10
      150.200   2.06953e-10
      150.300   2.05892e-10
      150.400   2.04834e-10
      150.500   2.03779e-10
      150.600   2.02727e-10
      150.700   2.01677e-10
      150.800   2.00628e-10
      150.900   1.99584e-10
      151.000   1.98540e-10
      151.100   1.97500e-10
      151.200   1.96462e-10
      151.300   1.95427e-10
      151.400   1.94395e-10
      151.500   1.93366e-10
      151.600   1.92341e-10
      151.700   1.91322e-10
      151.800   1.90306e-10
      151.900   1.89292e-10
      152.000   1.88352e-10
      152.100   1.88148e-10
      152.200   1.88036e-10
      152.300   1.87919e-10
      152.400   1.87800e-10
      152.500   1.87680e-10
      152.600   1.87557e-10
      152.700   1.86696e-10
      152.800   1.85571e-10
      152.900   1.84449e-10
      153.000   1.83331e-10
      153.100   1.82218e-10
      153.200   1.81109e-10
      153.300   1.80241e-10
      153.400   1.79602e-10
      153.500   1.78989e-10
      153.600   1.78377e-10
      153.700   1.77766e-10
      153.800   1.77155e-10
      153.900   1.76544e-10
      154.000   1.75956e-10
      154.100   1.75414e-10
      154.200   1.74886e-10
      154.300   1.74359e-10
      154.400   1.73833e-10
      154.500   1.73306e-10
      154.600   1.72778e-10
      154.700   1.72251e-10
      154.800   1.71725e-10
      154.900   1.71197e-10
      155.000   1.70669e-10
      155.100   1.70142e-10
      155.200   1.69613e-10
      155.300   1.69084e-10
      155.400   1.68555e-10
      155.500   1.68026e-10
      155.600   1.67496e-10
      155.700   1.66965e-10
      155.800   1.66435e-10
      155.900   1.65903e-10
      156.000   1.65372e-10
      156.100   1.64839e-10
      156.200   1.64306e-10
      156.300   1.63773e-10
      156.400   1.63238e-10
      156.500   1.62697e-10
      156.600   1.62118e-10
      156.700   1.61539e-10
      156.800   1.60959e-10
      156.900   1.60378e-10
      157.000   1.59799e-10
      157.100   1.59166e-10
      157.200   1.58169e-10
      157.300   1.56783e-10
      157.400   1.55408e-10
      157.500   1.54041e-10
      157.600   1.52685e-10
      157.700   1.51338e-10
      157.800   1.50002e-10
      157.900   1.49492e-10
      158.000   1.49056e-10
      158.100   1.48620e-10
      158.200   1.48183e-10
      158.300   1.47746e-10
      158.400   1.47309e-10
      158.500   1.46871e-10
      158.600   1.46433e-10
      158.700   1.45994e-10
      158.800   1.45556e-10
      158.900   1.45117e-10
      159.000   1.44678e-10
      159.100   1.44213e-10
      159.200   1.43458e-10
      159.300   1.42226e-10
      159.400   1.41004e-10
      159.500   1.39791e-10
      159.600   1.38586e-10
      159.700   1.37391e-10
      159.800   1.36204e-10
      159.900   1.35605e-10
      160.000   1.35406e-10
      160.100   1.35217e-10
      160.200   1.35028e-10
      160.300   1.34838e-10
      160.400   1.34647e-10
      160.500   1.34389e-10
      160.600   1.33748e-10
      160.700   1.32827e-10
      160.800   1.31910e-10
      160.900   1.30998e-10
      161.000   1.30091e-10
      161.100   1.29190e-10
      161.200   1.28293e-10
      161.300   1.27400e-10
      161.400   1.26512e-10
      161.500   1.25629e-10
      161.600   1.24750e-10
      161.700   1.23875e-10
      161.800   1.23004e-10
      161.900   1.22154e-10
      162.000   1.21451e-10
      162.100   1.20837e-10
      162.200   1.20225e-10
      162.300   1.19614e-10
      162.400   1.19005e-10
      162.500   1.18398e-10
      162.600   1.17792e-10
      162.700   1.17187e-10
      162.800   1.16584e-10
      162.900   1.15982e-10
      163.000   1.15383e-10
      163.100   1.14785e-10
      163.200   1.14188e-10
      163.300   1.13592e-10
      163.400   1.12999e-10
      163.500   1.12407e-10
      163.600   1.11817e-10
      163.700   1.11228e-10
      163.800   1.10642e-10
      163.900   1.10057e-10
      164.000   1.09474e-10
      164.100   1.08765e-10
      164.200   1.07710e-10
      164.300   1.06670e-10
      164.400   1.05639e-10
      164.500   1.04617e-10
      164.600   1.03604e-10
      164.700   1.02599e-10
      164.800   1.01723e-10
      164.900   1.01116e-10
      165.000   1.00618e-10
      165.100   1.00121e-10
      165.200   9.96254e-11
      165.300   9.91318e-11
      165.400   9.86404e-11
      165.500   9.81502e-11
      165.600   9.73270e-11
      165.700   9.63647e-11
      165.800   9.54000e-11
      165.900   9.44441e-11
      166.000   9.34978e-11
      166.100   9.25598e-11
      166.200   9.16307e-11
      166.300   9.07102e-11
      166.400   8.97979e-11
      166.500   8.88937e-11
      166.600   8.79979e-11
      166.700   8.71102e-11
      166.800   8.62298e-11
      166.900   8.53577e-11
      167.000   8.44950e-11
      167.100   8.36387e-11
      167.200   8.27901e-11
      167.300   8.19494e-11
      167.400   8.11164e-11
      167.500   8.02907e-11
      167.600   7.94727e-11
      167.700   7.86622e-11
      167.800   7.78591e-11
      167.900   7.70631e-11
      168.000   7.62743e-11
      168.100   7.54927e-11
      168.200   7.47181e-11
      168.300   7.39505e-11
      168.400   7.31900e-11
      168.500   7.24429e-11
      168.600   7.18599e-11
      168.700   7.13641e-11
      168.800   7.08712e-11
      168.900   7.03809e-11
      169.000   6.98935e-11
      169.100   6.94081e-11
      169.200   6.89258e-11
      169.300   6.84459e-11
      169.400   6.79686e-11
      169.500   6.74899e-11
      169.600   6.69979e-11
      169.700   6.64908e-11
      169.800   6.59815e-11
      169.900   6.54745e-11
      170.000   6.49701e-11
      170.100   6.42484e-11
      170.200   6.32119e-11
      170.300   8.23310e-11
      170.400   1.76752e-10
      170.500   3.34730e-10
      170.600   4.92342e-10
      170.700   6.17772e-10
      170.800   6.75186e-10
      170.900   6.77969e-10
      171.000   6.68628e-10
      171.100   6.59650e-10
      171.200   6.50752e-10
      171.300   6.41931e-10
      171.400   6.33191e-10
      171.500   6.24530e-10
      171.600   6.15951e-10
      171.700   6.07462e-10
      171.800   5.99063e-10
      171.900   5.90760e-10
      172.000   5.82562e-10
      172.100   5.74467e-10
      172.200   5.66485e-10
      172.300   5.58593e-10
      172.400   5.50701e-10
      172.500   5.42901e-10
      172.600   5.35216e-10
      172.700   5.27649e-10
      172.800   5.20192e-10
      172.900   5.12845e-10
      173.000   5.05614e-10
      173.100   4.98493e-10
      173.200   4.91478e-10
      173.300   4.84572e-10
      173.400   4.77767e-10
      173.500   4.71068e-10
      173.600   4.64472e-10
      173.700   4.57973e-10
      173.800   4.51575e-10
      173.900   4.45274e-10
      174.000   4.39063e-10
      174.100   4.32945e-10
      174.200   4.26918e-10
      174.300   4.20977e-10
      174.400   4.15122e-10
      174.500   4.09349e-10
      174.600   4.03656e-10
      174.700   3.98045e-10
      174.800   3.92513e-10
      174.900   3.87055e-10
      175.000   3.81669e-10
      175.100   3.76356e-10
      175.200   3.71129e-10
      175.300   3.65969e-10
      175.400   3.60877e-10
      175.500   3.55857e-10
      175.600   3.50903e-10
      175.700   3.46016e-10
      175.800   3.41194e-10
      175.900   3.36437e-10
      176.000   3.31743e-10
      176.100   3.27115e-10
      176.200   3.22550e-10
      176.300   3.18044e-10
      176.400   3.13602e-10
      176.500   3.09209e-10
      176.600   3.03134e-10
      176.700   2.96357e-10
      176.800   2.89727e-10
      176.900   2.83243e-10
      177.000   2.76898e-10
      177.100   2.70690e-10
      177.200   2.64620e-10
      177.300   2.58681e-10
      177.400   2.52869e-10
      177.500   2.47183e-10
      177.600   2.41621e-10
      177.700   2.36180e-10
      177.800   2.30858e-10
      177.900   2.25648e-10
      178.000   2.20567e-10
      178.100   2.15599e-10
      178.200   2.10736e-10
      178.300   2.05978e-10
      178.400   2.01326e-10
      178.500   1.96775e-10
      178.600   1.92408e-10
      178.700   1.88603e-10
      178.800   1.85605e-10
      178.900   1.82653e-10
      179.000   1.79745e-10
      179.100   1.76881e-10
      179.200   1.74061e-10
      179.300   1.71285e-10
      179.400   1.68551e-10
      179.500   1.65861e-10
      179.600   1.63213e-10
      179.700   1.60607e-10
      179.800   1.58042e-10
      179.900   1.55518e-10
      180.000   1.53033e-10
      180.100   1.50588e-10
      180.200   1.48183e-10
      180.300   1.45817e-10
      180.400   1.43489e-10
      180.500   1.41200e-10
      180.600   1.38947e-10
      180.700   1.36731e-10
      180.800   1.34552e-10
      180.900   1.32408e-10
      181.000   1.30298e-10
      181.100   1.28223e-10
      181.200   1.26183e-10
      181.300   1.24176e-10
      181.400   1.22202e-10
      181.500   1.20259e-10
      181.600   1.18349e-10
      181.700   1.16470e-10
      181.800   1.14621e-10
      181.900   1.12802e-10
      182.000   1.11013e-10
      182.100   1.09253e-10
      182.200   1.07534e-10
      182.300   1.05961e-10
      182.400   1.04420e-10
      182.500   1.02901e-10
      182.600   1.01405e-10
      182.700   9.99302e-11
      182.800   9.84770e-11
      182.900   9.70447e-11
      183.000   9.56335e-11
      183.100   9.42430e-11
      183.200   9.28723e-11
      183.300   9.15210e-11
      183.400   9.01893e-11
      183.500   8.88770e-11
      183.600   8.75834e-11
      183.700   8.63084e-11
      183.800   8.50529e-11
      183.900   8.38159e-11
      184.000   8.25966e-11
      184.100   8.13954e-11
      184.200   8.02115e-11
      184.300   7.90448e-11
      184.400   7.78953e-11
      184.500   7.67624e-11
      184.600   7.56454e-11
      184.700   7.45448e-11
      184.800   7.34602e-11
      184.900   7.23910e-11
      185.000   7.13372e-11
      185.100   7.03093e-11
      185.200   6.93498e-11
      185.300   6.84735e-11
      185.400   6.76078e-11
      185.500   6.67528e-11
      185.600   6.59083e-11
      185.700   6.50742e-11
      185.800   6.42511e-11
      185.900   6.34381e-11
      186.000   6.26350e-11
      186.100   6.18416e-11
      186.200   6.10578e-11
      186.300   6.02831e-11
      186.400   5.95182e-11
      186.500   5.87625e-11
      186.600   5.80155e-11
      186.700   5.72771e-11
      186.800   5.65474e-11
      186.900   5.58265e-11
      187.000   5.51141e-11
      187.100   5.44096e-11
      187.200   5.37140e-11
      187.300   5.30270e-11
      187.400   5.23478e-11
      187.500   5.16769e-11
      187.600   5.10138e-11
      187.700   5.03587e-11
      187.800   4.97114e-11
      187.900   4.90718e-11
      188.000   4.84400e-11
      188.100   4.77878e-11
      188.200   4.70456e-11
      188.300   4.61908e-11
      188.400   4.53511e-11
      188.500   4.45263e-11
      188.600   4.37164e-11
      188.700   4.29212e-11
      188.800   4.21404e-11
      188.900   4.13735e-11
      189.000   4.06201e-11
      189.100   3.98800e-11
      189.200   3.91531e-11
      189.300   3.84394e-11
      189.400   3.77386e-11
      189.500   3.70537e-11
      189.600   3.64292e-11
      189.700   3.60009e-11
      189.800   3.55810e-11
      189.900   3.51663e-11
      190.000   3.47568e-11
      190.100   3.43522e-11
      190.200   3.39525e-11
      190.300   3.35576e-11
      190.400   3.31672e-11
      190.500   3.27816e-11
      190.600   3.24007e-11
      190.700   3.20243e-11
      190.800   3.16524e-11
      190.900   3.12849e-11
      191.000   3.09221e-11
      191.100   3.05637e-11
      191.200   3.02093e-11
      191.300   2.98593e-11
      191.400   2.95135e-11
      191.500   2.91717e-11
      191.600   2.88339e-11
      191.700   2.85001e-11
      191.800   2.81701e-11
      191.900   2.78440e-11
      192.000   2.75219e-11
      192.100   2.72035e-11
      192.200   2.68892e-11
      192.300   2.65784e-11
      192.400   2.62713e-11
      192.500   2.59497e-11
      192.600   2.55736e-11
      192.700   2.51563e-11
      192.800   2.47456e-11
      192.900   2.43413e-11
      193.000   2.39437e-11
      193.100   2.35528e-11
      193.200   2.31684e-11
      193.300   2.27904e-11
      193.400   2.24186e-11
      193.500   2.20529e-11
      193.600   2.16930e-11
      193.700   2.13389e-11
      193.800   2.09907e-11
      193.900   2.06482e-11
      194.000   2.03173e-11
      194.100   2.01082e-11
      194.200   1.99409e-11
      194.300   1.97780e-11
      194.400   1.96164e-11
      194.500   1.94563e-11
      194.600   1.92976e-11
      194.700   1.91402e-11
      194.800   1.89842e-11
      194.900   1.88294e-11
      195.000   1.86760e-11
      195.100   1.85240e-11
      195.200   1.83732e-11
      195.300   1.82236e-11
      195.400   1.80752e-11
      195.500   1.79259e-11
      195.600   1.77222e-11
      195.700   1.74279e-11
      195.800   1.71384e-11
      195.900   1.68535e-11
      196.000   1.65702e-11
      196.100   1.62914e-11
      196.200   1.60172e-11
      196.300   1.57474e-11
      196.400   1.54818e-11
      196.500   1.52205e-11
      196.600   1.49634e-11
      196.700   1.47104e-11
      196.800   1.44616e-11
      196.900   1.42170e-11
      197.000   1.39764e-11
      197.100   1.37396e-11
      197.200   1.35066e-11
      197.300   1.32773e-11
      197.400   1.30515e-11
      197.500   1.28294e-11
      197.600   1.26108e-11
      197.700   1.23961e-11
      197.800   1.21850e-11
      197.900   1.19771e-11
      198.000   1.17726e-11
      198.100   1.15715e-11
      198.200   1.13735e-11
      198.300   1.11787e-11
      198.400   1.09871e-11
      198.500   1.07990e-11
      198.600   1.06139e-11
      198.700   1.04477e-11
      198.800   1.03061e-11
      198.900   1.01773e-11
      199.000   1.00499e-11
      199.100   9.92406e-12
      199.200   9.79972e-12
      199.300   9.67707e-12
      199.400   9.55591e-12
      199.500   9.43623e-12
      199.600   9.31796e-12
      199.700   9.20115e-12
      199.800   9.08578e-12
      199.900   8.97179e-12
      200.000   8.85918e-12
      200.100   8.74853e-12
      200.200   8.63883e-12
      200.300   8.53057e-12
      200.400   8.42360e-12
      200.500   8.31794e-12
      200.600   8.21365e-12
      200.700   8.11064e-12
      200.800   8.00886e-12
      200.900   7.90843e-12
      201.000   7.80924e-12
      201.100   7.71135e-12
      201.200   7.61467e-12
      201.300   7.51919e-12
      201.400   7.42495e-12
      201.500   7.33186e-12
      201.600   7.23991e-12
      201.700   7.14915e-12
      201.800   7.05951e-12
      201.900   6.96890e-12
      202.000   6.84570e-12
      202.100   6.70865e-12
      202.200   6.57436e-12
      202.300   6.44329e-12
      202.400   6.31597e-12
      202.500   6.19147e-12
      202.600   6.06933e-12
      202.700   5.94964e-12
      202.800   5.83232e-12
      202.900   5.71737e-12
      203.000   5.60469e-12
      203.100   5.49429e-12
      203.200   5.38598e-12
      203.300   5.27978e-12
      203.400   5.17566e-12
      203.500   5.07361e-12
      203.600   4.97690e-12
      203.700   4.89136e-12
      203.800   4.80854e-12
      203.900   4.72720e-12
      204.000   4.64724e-12
      204.100   4.56864e-12
      204.200   4.49142e-12
      204.300   4.41550e-12
      204.400   4.34090e-12
      204.500   4.26757e-12
      204.600   4.19549e-12
      204.700   4.12465e-12
      204.800   4.05509e-12
      204.900   3.98674e-12
      205.000   3.91956e-12
      205.100   3.85355e-12
      205.200   3.78864e-12
      205.300   3.72486e-12
      205.400   3.66217e-12
      205.500   3.60054e-12
      205.600   3.53996e-12
      205.700   3.47986e-12
      205.800   3.42065e-12
      205.900   3.36247e-12
      206.000   3.30534e-12
      206.100   3.24915e-12
      206.200   3.19391e-12
      206.300   3.13962e-12
      206.400   3.08626e-12
      206.500   3.03377e-12
      206.600   2.98218e-12
      206.700   2.93147e-12
      206.800   2.88158e-12
      206.900   2.83253e-12
      207.000   2.78431e-12
      207.100   2.73692e-12
      207.200   2.69035e-12
      207.300   2.64453e-12
      207.400   2.59946e-12
      207.500   2.55514e-12
      207.600   2.51156e-12
      207.700   2.46869e-12
      207.800   2.42652e-12
      207.900   2.38506e-12
      208.000   2.34427e-12
      208.100   2.30416e-12
      208.200   2.26471e-12
      208.300   2.22591e-12
      208.400   2.18777e-12
      208.500   2.15027e-12
      208.600   2.11337e-12
      208.700   2.07707e-12
      208.800   2.04138e-12
      208.900   2.00509e-12
      209.000   1.96437e-12
      209.100   1.92108e-12
      209.200   1.87871e-12
      209.300   1.83723e-12
      209.400   1.79666e-12
      209.500   1.75694e-12
      209.600   1.71806e-12
      209.700   1.68004e-12
      209.800   1.64288e-12
      209.900   1.60649e-12
      210.000   1.57089e-12
      210.100   1.53606e-12
      210.200   1.50197e-12
      210.300   1.46862e-12
      210.400   1.43600e-12
      210.500   1.40407e-12
      210.600   1.37283e-12
      210.700   1.34227e-12
      210.800   1.31238e-12
      210.900   1.28313e-12
      211.000   1.25451e-12
      211.100   1.22652e-12
      211.200   1.19914e-12
      211.300   1.17237e-12
      211.400   1.14621e-12
      211.500   1.12060e-12
      211.600   1.09556e-12
      211.700   1.07106e-12
      211.800   1.04709e-12
      211.900   1.02364e-12
      212.000   1.00072e-12
      212.100   9.78292e-13
      212.200   9.56350e-13
      212.300   9.34030e-13
      212.400   9.09701e-13
      212.500   8.85002e-13
      212.600   8.60960e-13
      212.700   8.37554e-13
      212.800   8.14768e-13
      212.900   7.92597e-13
      213.000   7.71011e-13
      213.100   7.50022e-13
      213.200   7.29590e-13
      213.300   7.09704e-13
      213.400   6.90345e-13
      213.500   6.71504e-13
      213.600   6.53164e-13
      213.700   6.35320e-13
      213.800   6.17947e-13
      213.900   6.01050e-13
      214.000   5.84600e-13
      214.100   5.68855e-13
      214.200   5.56675e-13
      214.300   5.46820e-13
      214.400   5.37137e-13
      214.500   5.27626e-13
      214.600   5.18283e-13
      214.700   5.09107e-13
      214.800   5.00094e-13
      214.900   4.91242e-13
      215.000   4.82544e-13
      215.100   4.74003e-13
      215.200   4.65617e-13
      215.300   4.57385e-13
      215.400   4.49298e-13
      215.500   4.41354e-13
      215.600   4.33559e-13
      215.700   4.25898e-13
      215.800   4.18372e-13
      215.900   4.10986e-13
      216.000   4.03105e-13
      216.100   3.93877e-13
      216.200   3.84299e-13
      216.300   3.74954e-13
      216.400   3.65837e-13
      216.500   3.56937e-13
      216.600   3.48257e-13
      216.700   3.39790e-13
      216.800   3.31526e-13
      216.900   3.23466e-13
      217.000   3.15601e-13
      217.100   3.07925e-13
      217.200   3.00437e-13
      217.300   2.93132e-13
      217.400   2.86003e-13
      217.500   2.79051e-13
      217.600   2.72263e-13
      217.700   2.65639e-13
      217.800   2.59179e-13
      217.900   2.52853e-13
      218.000   2.46072e-13
      218.100   2.39469e-13
      218.200   2.33043e-13
      218.300   2.26792e-13
      218.400   2.20712e-13
      218.500   2.14790e-13
      218.600   2.09028e-13
      218.700   2.03418e-13
      218.800   1.97956e-13
      218.900   1.92641e-13
      219.000   1.87464e-13
      219.100   1.82424e-13
      219.200   1.77519e-13
      219.300   1.72743e-13
      219.400   1.68093e-13
      219.500   1.63567e-13
      219.600   1.59160e-13
      219.700   1.54870e-13
      219.800   1.50694e-13
      219.900   1.46629e-13
      220.000   1.42669e-13
      220.100   1.38815e-13
      220.200   1.35064e-13
      220.300   1.31412e-13
      220.400   1.27856e-13
      220.500   1.24395e-13
      220.600   1.21027e-13
      220.700   1.17746e-13
      220.800   1.14552e-13
      220.900   1.11445e-13
      221.000   1.08419e-13
      221.100   1.05473e-13
      221.200   1.02607e-13
      221.300   9.98160e-14
      221.400   9.70991e-14
      221.500   9.44553e-14
      221.600   9.18816e-14
      221.700   8.93762e-14
      221.800   8.70984e-14
      221.900   8.53014e-14
      222.000   8.36591e-14
      222.100   8.20470e-14
      222.200   8.04658e-14
      222.300   7.89139e-14
      222.400   7.73916e-14
      222.500   7.58977e-14
      222.600   7.44325e-14
      222.700   7.29945e-14
      222.800   7.15833e-14
      222.900   7.01990e-14
      223.000   6.88408e-14
      223.100   6.75079e-14
      223.200   6.62005e-14
      223.300   6.49176e-14
      223.400   6.36593e-14
      223.500   6.24243e-14
      223.600   6.12133e-14
      223.700   6.00249e-14
      223.800   5.88375e-14
      223.900   5.75249e-14
      224.000   5.62192e-14
      224.100   5.49426e-14
      224.200   5.36943e-14
      224.300   5.24739e-14
      224.400   5.12800e-14
      224.500   5.01133e-14
      224.600   4.89720e-14
      224.700   4.78567e-14
      224.800   4.67657e-14
      224.900   4.56989e-14
      225.000   4.46560e-14
      225.100   4.36362e-14
      225.200   4.26390e-14
      225.300   4.16646e-14
      225.400   4.07113e-14
      225.500   3.97794e-14
      225.600   3.88683e-14
      225.700   3.79779e-14
      225.800   3.71070e-14
      225.900   3.64595e-14
      226.000   3.59060e-14
      226.100   3.53693e-14
      226.200   3.48405e-14
      226.300   3.43217e-14
      226.400   3.38120e-14
      226.500   3.33088e-14
      226.600   3.28121e-14
      226.700   3.23224e-14
      226.800   3.18394e-14
      226.900   3.13633e-14
      227.000   3.08939e-14
      227.100   3.04314e-14
      227.200   2.99759e-14
      227.300   2.95271e-14
      227.400   2.90848e-14
      227.500   2.86491e-14
      227.600   2.82198e-14
      227.700   2.77970e-14
      227.800   2.73805e-14
      227.900   2.69366e-14
      228.000   2.64133e-14
      228.100   2.58508e-14
      228.200   2.53000e-14
      228.300   2.47609e-14
      228.400   2.42335e-14
      228.500   2.37169e-14
      228.600   2.32116e-14
      228.700   2.27169e-14
      228.800   2.22326e-14
      228.900   2.17588e-14
      229.000   2.12950e-14
      229.100   2.08411e-14
      229.200   2.03969e-14
      229.300   1.99622e-14
      229.400   1.95367e-14
      229.500   1.91204e-14
      229.600   1.87129e-14
      229.700   1.83141e-14
      229.800   1.79239e-14
      229.900   1.75420e-14
      230.000   1.71642e-14
      230.100   1.67629e-14
      230.200   1.63520e-14
      230.300   1.59514e-14
      230.400   1.55605e-14
      230.500   1.51792e-14
      230.600   1.48074e-14
      230.700   1.44446e-14
      230.800   1.40908e-14
      230.900   1.37457e-14
      231.000   1.34089e-14
      231.100   1.30803e-14
      231.200   1.27599e-14
      231.300   1.24473e-14
      231.400   1.21425e-14
      231.500   1.18449e-14
      231.600   1.15546e-14
      231.700   1.12714e-14
      231.800   1.09952e-14
      231.900   1.07257e-14
      232.000   1.04628e-14
      232.100   1.02063e-14
      232.200   9.98920e-15
      232.300   9.82325e-15
      232.400   9.67245e-15
      232.500   9.52399e-15
      232.600   9.37787e-15
      232.700   9.23402e-15
      232.800   9.09241e-15
      232.900   8.95291e-15
      233.000   8.81545e-15
      233.100   8.68014e-15
      233.200   8.54695e-15
      233.300   8.41583e-15
      233.400   8.28676e-15
      233.500   8.15967e-15
      233.600   8.03459e-15
      233.700   7.91143e-15
      233.800   7.78698e-15
      233.900   7.66399e-15
      234.000   7.54296e-15
      234.100   7.42383e-15
      234.200   7.30665e-15
      234.300   7.19128e-15
      234.400   7.07773e-15
      234.500   6.96599e-15
      234.600   6.85598e-15
      234.700   6.74775e-15
      234.800   6.64124e-15
      234.900   6.53638e-15
      235.000   6.43316e-15
      235.100   6.33157e-15
      235.200   6.23160e-15
      235.300   6.13321e-15
      235.400   6.03632e-15
      235.500   5.94100e-15
      235.600   5.84720e-15
      235.700   5.75482e-15
      235.800   5.66397e-15
      235.900   5.57454e-15
      236.000   5.48654e-15
      236.100   5.39989e-15
      236.200   5.31459e-15
      236.300   5.23063e-15
      236.400   5.14802e-15
      236.500   5.06668e-15
      236.600   4.99012e-15
      236.700   4.92240e-15
      236.800   4.86044e-15
      236.900   4.79924e-15
      237.000   4.73879e-15
      237.100   4.67909e-15
      237.200   4.62013e-15
      237.300   4.56191e-15
      237.400   4.50439e-15
      237.500   4.44760e-15
      237.600   4.39141e-15
      237.700   4.33598e-15
      237.800   4.28124e-15
      237.900   4.22713e-15
      238.000   4.17371e-15
      238.100   4.12094e-15
      238.200   4.06881e-15
      238.300   4.01731e-15
      238.400   3.96643e-15
      238.500   3.91616e-15
      238.600   3.86652e-15
      238.700   3.81749e-15
      238.800   3.76904e-15
      238.900   3.72408e-15
      239.000   3.68977e-15
      239.100   3.65692e-15
      239.200   3.62435e-15
      239.300   3.59203e-15
      239.400   3.55997e-15
      239.500   3.52818e-15
      239.600   3.49662e-15
      239.700   3.46533e-15
      239.800   3.43430e-15
      239.900   3.40351e-15
      240.000   3.37296e-15
      240.100   3.34265e-15
      240.200   3.31259e-15
      240.300   3.28277e-15
      240.400   3.25319e-15
      240.500   3.22385e-15
      240.600   3.19475e-15
      240.700   3.16587e-15
      240.800   3.13721e-15
      240.900   3.10881e-15
      241.000   3.08062e-15
      241.100   3.05267e-15
      241.200   3.02496e-15
      241.300   2.99746e-15
      241.400   2.97018e-15
      241.500   2.94314e-15
      241.600   2.91632e-15
      241.700   2.88972e-15
      241.800   2.86333e-15
      241.900   2.83716e-15
      242.000   2.81122e-15
      242.100   2.78550e-15
      242.200   2.76001e-15
      242.300   2.73475e-15
      242.400   2.70969e-15
      242.500   2.68485e-15
      242.600   2.66021e-15
      242.700   2.63579e-15
      242.800   2.61160e-15
      242.900   2.58761e-15
      243.000   2.56382e-15
      243.100   2.54025e-15
      243.200   2.51689e-15
      243.300   2.49372e-15
      243.400   2.47078e-15
      243.500   2.44804e-15
      243.600   2.42552e-15
      243.700   2.40319e-15
      243.800   2.38106e-15
      243.900   2.35914e-15
      244.000   2.33742e-15
      244.100   2.31590e-15
      244.200   2.29458e-15
      244.300   2.27344e-15
      244.400   2.25250e-15
      244.500   2.23177e-15
      244.600   2.21122e-15
      244.700   2.19086e-15
      244.800   2.17071e-15
      244.900   2.15074e-15
      245.000   2.13095e-15
      245.100   2.11136e-15
      245.200   2.09195e-15
      245.300   2.07272e-15
      245.400   2.05366e-15
      245.500   2.03479e-15
      245.600   2.01610e-15
      245.700   1.99759e-15
      245.800   1.97925e-15
      245.900   1.96109e-15
      246.000   1.94311e-15
      246.100   1.92530e-15
      246.200   1.90765e-15
      246.300   1.89018e-15
      246.400   1.87288e-15
      246.500   1.85574e-15
      246.600   1.83876e-15
      246.700   1.82194e-15
      246.800   1.80528e-15
      246.900   1.78879e-15
      247.000   1.77246e-15
      247.100   1.75627e-15
      247.200   1.74026e-15
      247.300   1.72439e-15
      247.400   1.70868e-15
      247.500   1.69312e-15
      247.600   1.67770e-15
      247.700   1.66243e-15
      247.800   1.64731e-15
      247.900   1.63233e-15
      248.000   1.61750e-15
      248.100   1.60282e-15
      248.200   1.58829e-15
      248.300   1.57388e-15
      248.400   1.55961e-15
      248.500   1.54175e-15
      248.600   1.51791e-15
      248.700   1.49049e-15
      248.800   1.46356e-15
      248.900   1.43712e-15
      249.000   1.41115e-15
      249.100   1.38570e-15
      249.200   1.36071e-15
      249.300   1.33617e-15
      249.400   1.31207e-15
      249.500   1.28841e-15
      249.600   1.26517e-15
      249.700   1.24235e-15
      249.800   1.21994e-15
      249.900   1.19793e-15
      250.000   1.17632e-15
      250.100   1.15514e-15
      250.200   1.13432e-15
      250.300   1.11391e-15
      250.400   1.09386e-15
      250.500   1.07416e-15
      250.600   1.05483e-15
      250.700   1.03584e-15
      250.800   1.01720e-15
      250.900   9.98890e-16
      251.000   9.80911e-16
      251.100   9.63255e-16
      251.200   9.45928e-16
      251.300   9.28925e-16
      251.400   9.12232e-16
      251.500   8.95835e-16
      251.600   8.73583e-16
      251.700   8.40097e-16
      251.800   8.06176e-16
      251.900   7.73591e-16
      252.000   7.42288e-16
      252.100   7.12238e-16
      252.200   6.83365e-16
      252.300   6.55672e-16
      252.400   6.29109e-16
      252.500   6.03612e-16
      252.600   5.80412e-16
      252.700   5.65771e-16
      252.800   5.59348e-16
      252.900   5.53001e-16
      253.000   5.46725e-16
      253.100   5.40521e-16
      253.200   5.34389e-16
      253.300   5.28449e-16
      253.400   5.22632e-16
      253.500   5.16884e-16
      253.600   5.11201e-16
      253.700   5.05489e-16
      253.800   4.99406e-16
      253.900   4.93310e-16
      254.000   4.87288e-16
      254.100   4.81337e-16
      254.200   4.75458e-16
      254.300   4.69650e-16
      254.400   4.63913e-16
      254.500   4.58244e-16
      254.600   4.52641e-16
      254.700   4.47109e-16
      254.800   4.41645e-16
      254.900   4.36246e-16
      255.000   4.30911e-16
      255.100   4.25636e-16
      255.200   4.20426e-16
      255.300   4.15278e-16
      255.400   4.10190e-16
      255.500   4.05163e-16
      255.600   4.00196e-16
      255.700   3.95287e-16
      255.800   3.90435e-16
      255.900   3.85641e-16
      256.000   3.80901e-16
      256.100   3.76221e-16
      256.200   3.71595e-16
      256.300   3.67023e-16
      256.400   3.62511e-16
      256.500   3.58046e-16
      256.600   3.53635e-16
      256.700   3.49275e-16
      256.800   3.44967e-16
      256.900   3.39928e-16
      257.000   3.33708e-16
      257.100   3.27211e-16
      257.200   3.20839e-16
      257.300   3.14586e-16
      257.400   3.08497e-16
      257.500   3.02539e-16
      257.600   2.96700e-16
      257.700   2.90971e-16
      257.800   2.85348e-16
      257.900   2.79832e-16
      258.000   2.74420e-16
      258.100   2.69108e-16
      258.200   2.63897e-16
      258.300   2.58786e-16
      258.400   2.53768e-16
      258.500   2.48844e-16
      258.600   2.44015e-16
      258.700   2.39277e-16
      258.800   2.34627e-16
      258.900   2.30067e-16
      259.000   2.25592e-16
      259.100   2.21202e-16
      259.200   2.16895e-16
      259.300   2.12675e-16
      259.400   2.08532e-16
      259.500   2.04468e-16
      259.600   2.00482e-16
      259.700   1.96573e-16
      259.800   1.92736e-16
      259.900   1.88972e-16
      260.000   1.85280e-16
      260.100   1.81425e-16
      260.200   1.77357e-16
      260.300   1.73325e-16
      260.400   1.69384e-16
      260.500   1.65532e-16
      260.600   1.61763e-16
      260.700   1.58078e-16
      260.800   1.54479e-16
      260.900   1.50957e-16
      261.000   1.47516e-16
      261.100   1.44152e-16
      261.200   1.40848e-16
      261.300   1.37616e-16
      261.400   1.34457e-16
      261.500   1.31373e-16
      261.600   1.28369e-16
      261.700   1.25434e-16
      261.800   1.22566e-16
      261.900   1.19761e-16
      262.000   1.17020e-16
      262.100   1.14340e-16
      262.200   1.11722e-16
      262.300   1.09161e-16
      262.400   1.06660e-16
      262.500   1.04213e-16
      262.600   1.01822e-16
      262.700   9.94862e-17
      262.800   9.72029e-17
      262.900   9.49701e-17
      263.000   9.27900e-17
      263.100   9.06584e-17
      263.200   8.85765e-17
      263.300   8.65418e-17
      263.400   8.45529e-17
      263.500   8.26100e-17
      263.600   8.07111e-17
      263.700   7.88552e-17
      263.800   7.70411e-17
      263.900   7.52698e-17
      264.000   7.35379e-17
      264.100   7.18451e-17
      264.200   7.01905e-17
      264.300   6.85751e-17
      264.400   6.69962e-17
      264.500   6.54529e-17
      264.600   6.39446e-17
      264.700   6.24714e-17
      264.800   6.10311e-17
      264.900   5.96246e-17
      265.000   5.82502e-17
      265.100   5.69066e-17
      265.200   5.55941e-17
      265.300   5.43117e-17
      265.400   5.30432e-17
      265.500   5.17980e-17
      265.600   5.05823e-17
      265.700   4.93940e-17
      265.800   4.82352e-17
      265.900   4.71029e-17
      266.000   4.59979e-17
      266.100   4.49185e-17
      266.200   4.38646e-17
      266.300   4.28348e-17
      266.400   4.18296e-17
      266.500   4.08474e-17
      266.600   3.98885e-17
      266.700   3.89519e-17
      266.800   3.80377e-17
      266.900   3.71446e-17
      267.000   3.62723e-17
      267.100   3.54203e-17
      267.200   3.45890e-17
      267.300   3.37769e-17
      267.400   3.29834e-17
      267.500   3.22088e-17
      267.600   3.14524e-17
      267.700   3.07137e-17
      267.800   2.99922e-17
      267.900   2.92878e-17
      268.000   2.86000e-17
      268.100   2.79283e-17
      268.200   2.72725e-17
      268.300   2.66322e-17
      268.400   2.60066e-17
      268.500   2.53958e-17
      268.600   2.47993e-17
      268.700   2.42170e-17
      268.800   2.36483e-17
      268.900   2.30930e-17
      269.000   2.25508e-17
      269.100   2.20213e-17
      269.200   2.15044e-17
      269.300   2.09995e-17
      269.400   2.05062e-17
      269.500   2.00248e-17
      269.600   1.95547e-17
      269.700   1.90321e-17
      269.800   1.85079e-17
      269.900   1.79976e-17
      270.000   1.75015e-17
      270.100   1.70190e-17
      270.200   1.65502e-17
      270.300   1.60941e-17
      270.400   1.56506e-17
      270.500   1.52192e-17
      270.600   1.47996e-17
      270.700   1.43915e-17
      270.800   1.39948e-17
      270.900   1.36087e-17
      271.000   1.32334e-17
      271.100   1.28682e-17
      271.200   1.25131e-17
      271.300   1.21678e-17
      271.400   1.18319e-17
      271.500   1.15053e-17
      271.600   1.11874e-17
      271.700   1.08785e-17
      271.800   1.05780e-17
      271.900   1.02857e-17
      272.000   1.00015e-17
      272.100   9.72504e-18
      272.200   9.45620e-18
      272.300   9.19464e-18
      272.400   8.94026e-18
      272.500   8.69297e-18
      272.600   8.45234e-18
      272.700   8.21832e-18
      272.800   8.00023e-18
      272.900   7.81559e-18
      273.000   7.64783e-18
      273.100   7.48359e-18
      273.200   7.32284e-18
      273.300   7.16561e-18
      273.400   7.01167e-18
      273.500   6.86103e-18
      273.600   6.71360e-18
      273.700   6.56930e-18
      273.800   6.42807e-18
      273.900   6.26935e-18
      274.000   6.07418e-18
      274.100   5.88454e-18
      274.200   5.70074e-18
      274.300   5.52263e-18
      274.400   5.34935e-18
      274.500   5.17978e-18
      274.600   5.01519e-18
      274.700   4.85582e-18
      274.800   4.70138e-18
      274.900   4.55174e-18
      275.000   4.40683e-18
      275.100   4.26646e-18
      275.200   4.13050e-18
      275.300   3.99877e-18
      275.400   3.87122e-18
      275.500   3.74768e-18
      275.600   3.62794e-18
      275.700   3.51204e-18
      275.800   3.39980e-18
      275.900   3.29105e-18
      276.000   3.19268e-18
      276.100   3.11562e-18
      276.200   3.04403e-18
      276.300   2.97404e-18
      276.400   2.90565e-18
      276.500   2.83878e-18
      276.600   2.77345e-18
      276.700   2.70957e-18
      276.800   2.64718e-18
      276.900   2.58616e-18
      277.000   2.52654e-18
      277.100   2.46826e-18
      277.200   2.41131e-18
      277.300   2.35565e-18
      277.400   2.30124e-18
      277.500   2.24805e-18
      277.600   2.19610e-18
      277.700   2.14530e-18
      277.800   2.09565e-18
      277.900   2.04715e-18
      278.000   1.99975e-18
      278.100   1.95239e-18
      278.200   1.89429e-18
      278.300   1.83505e-18
      278.400   1.77763e-18
      278.500   1.72193e-18
      278.600   1.66796e-18
      278.700   1.61567e-18
      278.800   1.56499e-18
      278.900   1.51583e-18
      279.000   1.46815e-18
      279.100   1.42196e-18
      279.200   1.37920e-18
      279.300   1.34196e-18
      279.400   1.30612e-18
      279.500   1.27123e-18
      279.600   1.23725e-18
      279.700   1.20418e-18
      279.800   1.17196e-18
      279.900   1.14058e-18
      280.000   1.11003e-18
      280.100   1.08027e-18
      280.200   1.05132e-18
      280.300   1.02311e-18
      280.400   9.95643e-19
      280.500   9.68917e-19
      280.600   9.42887e-19
      280.700   9.17543e-19
      280.800   8.92869e-19
      280.900   8.68842e-19
      281.000   8.45451e-19
      281.100   8.22676e-19
      281.200   8.00502e-19
      281.300   7.80087e-19
      281.400   7.62378e-19
      281.500   7.46146e-19
      281.600   7.30250e-19
      281.700   7.14687e-19
      281.800   6.99459e-19
      281.900   6.84540e-19
      282.000   6.69933e-19
      282.100   6.55631e-19
      282.200   6.41642e-19
      282.300   6.27935e-19
      282.400   6.14516e-19
      282.500   6.01375e-19
      282.600   5.88515e-19
      282.700   5.75920e-19
      282.800   5.63589e-19
      282.900   5.51528e-19
      283.000   5.39713e-19
      283.100   5.28154e-19
      283.200   5.16838e-19
      283.300   5.05762e-19
      283.400   4.94920e-19
      283.500   4.83010e-19
      283.600   4.71083e-19
      283.700   4.59426e-19
      283.800   4.48056e-19
      283.900   4.36968e-19
      284.000   4.26146e-19
      284.100   4.15586e-19
      284.200   4.05284e-19
      284.300   3.95237e-19
      284.400   3.85433e-19
      284.500   3.75870e-19
      284.600   3.66541e-19
      284.700   3.57444e-19
      284.800   3.48567e-19
      284.900   3.39907e-19
      285.000   3.31457e-19
      285.100   3.23214e-19
      285.200   3.15177e-19
      285.300   3.07337e-19
      285.400   2.99686e-19
      285.500   2.92226e-19
      285.600   2.84952e-19
      285.700   2.77853e-19
      285.800   2.70934e-19
      285.900   2.64185e-19
      286.000   2.57606e-19
      286.100   2.51191e-19
      286.200   2.44929e-19
      286.300   2.38826e-19
      286.400   2.32874e-19
      286.500   2.27066e-19
      286.600   2.21161e-19
      286.700   2.14771e-19
      286.800   2.08277e-19
      286.900   2.01977e-19
      287.000   1.95865e-19
      287.100   1.89935e-19
      287.200   1.84185e-19
      287.300   1.78606e-19
      287.400   1.73193e-19
      287.500   1.67943e-19
      287.600   1.62850e-19
      287.700   1.57910e-19
      287.800   1.53119e-19
      287.900   1.48472e-19
      288.000   1.43966e-19
      288.100   1.39595e-19
      288.200   1.35360e-19
      288.300   1.31254e-19
      288.400   1.27269e-19
      288.500   1.23406e-19
      288.600   1.19657e-19
      288.700   1.16063e-19
      288.800   1.13217e-19
      288.900   1.10752e-19
      289.000   1.08339e-19
      289.100   1.05979e-19
      289.200   1.03670e-19
      289.300   1.01412e-19
      289.400   9.92028e-20
      289.500   9.70420e-20
      289.600   9.49279e-20
      289.700   9.28613e-20
      289.800   9.08385e-20
      289.900   8.88591e-20
      290.000   8.69239e-20
      290.100   8.50314e-20
      290.200   8.31815e-20
      290.300   8.13716e-20
      290.400   7.96015e-20
      290.500   7.78706e-20
      290.600   7.61763e-20
      290.700   7.45193e-20
      290.800   7.28994e-20
      290.900   7.13138e-20
      291.000   6.97621e-20
      291.100   6.82445e-20
      291.200   6.67608e-20
      291.300   6.53087e-20
      291.400   6.38888e-20
      291.500   6.24995e-20
      291.600   6.11400e-20
      291.700   5.98108e-20
      291.800   5.85108e-20
      291.900   5.72405e-20
      292.000   5.55953e-20
      292.100   5.39346e-20
      292.200   5.23195e-20
      292.300   5.07515e-20
      292.400   4.92304e-20
      292.500   4.77540e-20
      292.600   4.63216e-20
      292.700   4.49323e-20
      292.800   4.35842e-20
      292.900   4.22764e-20
      293.000   4.10075e-20
      293.100   3.97759e-20
      293.200   3.85809e-20
      293.300   3.74219e-20
      293.400   3.62981e-20
      293.500   3.52088e-20
      293.600   3.41520e-20
      293.700   3.31266e-20
      293.800   3.21317e-20
      293.900   3.11667e-20
      294.000   3.02404e-20
      294.100   2.94270e-20
      294.200   2.86995e-20
      294.300   2.79899e-20
      294.400   2.72973e-20
      294.500   2.66221e-20
      294.600   2.59634e-20
      294.700   2.53209e-20
      294.800   2.46941e-20
      294.900   2.40833e-20
      295.000   2.34879e-20
      295.100   2.29073e-20
      295.200   2.23408e-20
      295.300   2.17883e-20
      295.400   2.12494e-20
      295.500   2.07238e-20
      295.600   2.02110e-20
      295.700   1.97109e-20
      295.800   1.92230e-20
      295.900   1.87468e-20
      296.000   1.82825e-20
      296.100   1.78294e-20
      296.200   1.73877e-20
      296.300   1.69570e-20
      296.400   1.65376e-20
      296.500   1.61281e-20
      296.600   1.57287e-20
      296.700   1.53392e-20
      296.800   1.49592e-20
      296.900   1.45885e-20
      297.000   1.42269e-20
      297.100   1.38741e-20
      297.200   1.35300e-20
      297.300   1.31943e-20
      297.400   1.28668e-20
      297.500   1.25473e-20
      297.600   1.22359e-20
      297.700   1.19323e-20
      297.800   1.16363e-20
      297.900   1.13475e-20
      298.000   1.10659e-20
      298.100   1.07911e-20
      298.200   1.05230e-20
      298.300   1.02397e-20
      298.400   9.93049e-21
      298.500   9.61890e-21
      298.600   9.31688e-21
      298.700   9.02425e-21
      298.800   8.74050e-21
      298.900   8.46637e-21
      299.000   8.20075e-21
      299.100   7.94328e-21
      299.200   7.69361e-21
      299.300   7.45173e-21
      299.400   7.21726e-21
      299.500   6.99005e-21
      299.600   6.76987e-21
      299.700   6.55650e-21
      299.800   6.34957e-21
      299.900   6.14925e-21
      300.000   5.95508e-21
      300.100   5.76703e-21
      300.192   5.59935e-21
      300.285   5.43463e-21
      300.377   5.27645e-21
      300.470   5.12121e-21
      300.562   4.97207e-21
      300.654   4.82717e-21
      300.747   4.68490e-21
      300.839   4.54830e-21
      300.932   4.41410e-21
      301.025   4.28383e-21
      301.117   4.15877e-21
      301.210   4.03595e-21
      301.303   3.91668e-21
      301.395   3.80226e-21
      301.488   3.69756e-21
      301.581   3.62129e-21
      301.674   3.54728e-21
      301.766   3.47556e-21
      301.859   3.40446e-21
      301.952   3.33485e-21
      302.045   3.26662e-21
      302.138   3.19979e-21
      302.231   3.13440e-21
      302.324   3.07031e-21
      302.417   3.00751e-21
      302.510   2.94592e-21
      302.603   2.88569e-21
      302.696   2.82657e-21
      302.789   2.76867e-21
      302.882   2.71191e-21
      302.976   2.65577e-21
      303.069   2.60129e-21
      303.162   2.54794e-21
      303.255   2.49564e-21
      303.349   2.44385e-21
      303.442   2.39362e-21
      303.535   2.34447e-21
      303.629   2.29577e-21
      303.722   2.24858e-21
      303.816   2.20183e-21
      303.909   2.15653e-21
      304.003   2.11166e-21
      304.096   2.06816e-21
      304.190   2.02509e-21
      304.283   1.98334e-21
      304.377   1.94204e-21
      304.471   1.90153e-21
      304.564   1.86229e-21
      304.658   1.82165e-21
      304.752   1.77044e-21
      304.846   1.71946e-21
      304.939   1.67046e-21
      305.033   1.62231e-21
      305.127   1.57552e-21
      305.221   1.53007e-21
      305.315   1.48592e-21
      305.409   1.44300e-21
      305.503   1.40132e-21
      305.597   1.36082e-21
      305.691   1.32146e-21
      305.785   1.29442e-21
      305.879   1.27096e-21
      305.973   1.24814e-21
      306.067   1.22570e-21
      306.161   1.20367e-21
      306.255   1.18203e-21
      306.350   1.16053e-21
      306.444   1.13964e-21
      306.538   1.11911e-21
      306.633   1.09876e-21
      306.727   1.07895e-21
      306.821   1.05950e-21
      306.916   1.04019e-21
      307.010   1.02143e-21
      307.105   1.00281e-21
      307.199   9.84717e-22
      307.294   9.66745e-22
      307.388   9.49290e-22
      307.483   9.31961e-22
      307.577   9.15121e-22
      307.672   8.98403e-22
      307.767   8.81988e-22
      307.861   8.63588e-22
      307.956   8.41334e-22
      308.051   8.18928e-22
      308.146   7.97118e-22
      308.240   7.76102e-22
      308.335   7.55412e-22
      308.430   7.35255e-22
      308.525   7.15634e-22
      308.620   6.96538e-22
      308.715   6.77941e-22
      308.810   6.59834e-22
      308.905   6.42200e-22
      309.000   6.25034e-22
      309.095   6.08317e-22
      309.190   5.92051e-22
      309.285   5.76206e-22
      309.380   5.60781e-22
      309.476   5.45613e-22
      309.571   5.30993e-22
      309.666   5.16760e-22
      309.761   5.02907e-22
      309.857   4.89283e-22
      309.952   4.76221e-22
      310.047   4.64144e-22
      310.143   4.52407e-22
      310.238   4.41081e-22
      310.334   4.29923e-22
      310.429   4.19151e-22
      310.525   4.08540e-22
      310.620   3.98303e-22
      310.716   3.88211e-22
      310.811   3.78289e-22
      310.907   3.68458e-22
      311.003   3.58877e-22
      311.098   3.49636e-22
      311.194   3.40537e-22
      311.290   3.31676e-22
      311.386   3.23043e-22
      311.481   3.14717e-22
      311.577   3.06523e-22
      311.673   2.98537e-22
      311.769   2.90757e-22
      311.865   2.83180e-22
      311.961   2.75806e-22
      312.057   2.68659e-22
      312.153   2.61712e-22
      312.249   2.54941e-22
      312.345   2.48347e-22
      312.441   2.41918e-22
      312.537   2.35657e-22
      312.633   2.29557e-22
      312.730   2.23548e-22
      312.826   2.17760e-22
      312.922   2.12120e-22
      313.018   2.06624e-22
      313.115   2.01215e-22
      313.211   1.95999e-22
      313.307   1.90918e-22
      313.404   1.85919e-22
      313.500   1.81097e-22
      313.597   1.76354e-22
      313.693   1.71782e-22
      313.790   1.67280e-22
      313.886   1.63289e-22
      313.983   1.60348e-22
      314.079   1.57841e-22
      314.176   1.55350e-22
      314.273   1.52895e-22
      314.369   1.50508e-22
      314.466   1.48132e-22
      314.563   1.45794e-22
      314.660   1.43493e-22
      314.756   1.41252e-22
      314.853   1.39022e-22
      314.950   1.36829e-22
      315.047   1.34671e-22
      315.144   1.32547e-22
      315.241   1.30457e-22
      315.338   1.28400e-22
      315.435   1.26376e-22
      315.532   1.24385e-22
      315.629   1.22425e-22
      315.726   1.20496e-22
      315.823   1.18597e-22
      315.921   1.16711e-22
      316.018   1.14873e-22
      316.115   1.13065e-22
      316.212   1.11285e-22
      316.310   1.09216e-22
      316.407   1.06822e-22
      316.504   1.04360e-22
      316.602   1.01930e-22
      316.699   9.95819e-23
      316.796   9.72882e-23
      316.894   9.50246e-23
      316.991   9.28378e-23
      317.089   9.06929e-23
      317.187   8.86045e-23
      317.284   8.65848e-23
      317.382   8.45910e-23
      317.479   8.26623e-23
      317.577   8.07594e-23
      317.675   7.89006e-23
      317.773   7.70843e-23
      317.870   7.53283e-23
      317.968   7.35934e-23
      318.066   7.18992e-23
      318.164   7.02443e-23
      318.262   6.86278e-23
      318.360   6.70481e-23
      318.458   6.55056e-23
      318.556   6.39991e-23
      318.654   6.25270e-23
      318.752   6.07819e-23
      318.850   5.87227e-23
      318.948   5.66239e-23
      319.046   5.45995e-23
      319.144   5.26464e-23
      319.242   5.07637e-23
      319.341   4.89293e-23
      319.439   4.71783e-23
      319.537   4.54900e-23
      319.635   4.38612e-23
      319.734   4.22748e-23
      319.832   4.07605e-23
      319.930   3.92997e-23
      320.029   3.78772e-23
      320.127   3.65194e-23
      320.226   3.51967e-23
      320.324   3.39338e-23
      320.423   3.27035e-23
      320.522   3.15185e-23
      320.620   3.03873e-23
      320.719   2.92850e-23
      320.818   2.82226e-23
      320.916   2.72086e-23
      321.015   2.62207e-23
      321.114   2.52685e-23
      321.213   2.43506e-23
      321.311   2.34749e-23
      321.410   2.26222e-23
      321.509   2.17996e-23
      321.608   2.10073e-23
      321.707   2.02432e-23
      321.806   1.95066e-23
      321.905   1.87969e-23
      322.004   1.81124e-23
      322.103   1.74531e-23
      322.202   1.68174e-23
      322.301   1.62047e-23
      322.401   1.56084e-23
      322.500   1.50394e-23
      322.599   1.44911e-23
      322.698   1.39627e-23
      322.798   1.34482e-23
      322.897   1.29573e-23
      322.996   1.24844e-23
      323.096   1.20237e-23
      323.195   1.15845e-23
      323.294   1.11612e-23
      323.394   1.07492e-23
      323.493   1.03561e-23
      323.593   9.97360e-24
      323.692   9.60868e-24
      323.792   9.25355e-24
      323.892   8.91142e-24
      323.991   8.58492e-24
      324.091   8.26735e-24
      324.191   7.96128e-24
      324.291   7.66650e-24
      324.390   7.38546e-24
      324.490   7.11168e-24
      324.590   6.84819e-24
      324.690   6.59436e-24
      324.790   6.34976e-24
      324.890   6.11424e-24
      324.990   5.88725e-24
      325.090   5.66858e-24
      325.190   5.45808e-24
      325.290   5.25536e-24
      325.390   5.05990e-24
      325.490   4.87182e-24
      325.590   4.69067e-24
      325.690   4.51604e-24
      325.790   4.34794e-24
      325.891   4.18443e-24
      325.991   4.02854e-24
      326.091   3.87836e-24
      326.192   3.73233e-24
      326.292   3.59310e-24
      326.392   3.45905e-24
      326.493   3.32865e-24
      326.593   3.20431e-24
      326.694   3.08348e-24
      326.794   2.96822e-24
      326.895   2.85614e-24
      326.995   2.74926e-24
      327.096   2.64541e-24
      327.197   2.54539e-24
      327.297   2.45003e-24
      327.398   2.35732e-24
      327.499   2.26809e-24
      327.599   2.18300e-24
      327.700   2.10026e-24
      327.801   2.02065e-24
      327.902   1.94404e-24
      328.003   1.87026e-24
      328.104   1.79926e-24
      328.205   1.73092e-24
      328.306   1.66515e-24
      328.407   1.60186e-24
      328.508   1.54092e-24
      328.609   1.48228e-24
      328.710   1.42586e-24
      328.811   1.37155e-24
      328.912   1.31929e-24
      329.013   1.26899e-24
      329.115   1.22013e-24
      329.216   1.17356e-24
      329.317   1.12875e-24
      329.419   1.08524e-24
      329.520   1.04375e-24
      329.621   1.00383e-24
      329.723   9.65041e-25
      329.824   9.28128e-25
      329.926   8.92247e-25
      330.027   8.58055e-25
      330.129   8.24840e-25
      330.230   7.93220e-25
      330.332   7.62482e-25
      330.434   7.32929e-25
      330.535   7.04768e-25
      330.637   6.77416e-25
      330.739   6.51127e-25
      330.840   6.26076e-25
      330.942   6.01740e-25
      331.044   5.78341e-25
      331.146   5.55838e-25
      331.248   5.34202e-25
      331.350   5.13401e-25
      331.452   4.93397e-25
      331.554   4.74282e-25
      331.656   4.56058e-25
      331.758   4.38532e-25
      331.860   4.21662e-25
      331.962   4.05436e-25
      332.064   3.89824e-25
      332.166   3.74812e-25
      332.268   3.60362e-25
      332.371   3.46338e-25
      332.473   3.32971e-25
      332.575   3.20109e-25
      332.677   3.07746e-25
      332.780   2.95742e-25
      332.882   2.84306e-25
      332.985   2.73204e-25
      333.087   2.62623e-25
      333.190   2.52354e-25
      333.292   2.42541e-25
      333.395   2.32929e-25
      333.497   2.23755e-25
      333.600   2.14852e-25
      333.702   2.06379e-25
      333.805   1.98163e-25
      333.908   1.90260e-25
      334.011   1.82674e-25
      334.113   1.75454e-25
      334.216   1.68448e-25
      334.319   1.61719e-25
      334.422   1.55254e-25
      334.525   1.49044e-25
      334.628   1.43079e-25
      334.731   1.37353e-25
      334.834   1.31851e-25
      334.937   1.26565e-25
      335.040   1.21486e-25
      335.143   1.16613e-25
      335.246   1.11930e-25
      335.349   1.07433e-25
      335.452   1.03115e-25
      335.555   9.89686e-26
      335.659   9.49473e-26
      335.762   9.11236e-26
      335.865   8.74538e-26
      335.969   8.38948e-26
      336.072   8.05089e-26
      336.175   7.72614e-26
      336.279   7.41128e-26
      336.382   7.11191e-26
      336.486   6.82163e-26
      336.589   6.54568e-26
      336.693   6.27840e-26
      336.796   6.02428e-26
      336.900   5.77789e-26
      337.004   5.54135e-26
      337.107   5.31675e-26
      337.211   5.09893e-26
      337.315   4.89006e-26
      337.419   4.68953e-26
      337.523   4.49711e-26
      337.626   4.31424e-26
      337.730   4.13711e-26
      337.834   3.96710e-26
      337.938   3.80404e-26
      338.042   3.64765e-26
      338.146   3.49804e-26
      338.250   3.35462e-26
      338.354   3.21697e-26
      338.458   3.08486e-26
      338.562   2.95812e-26
      338.667   2.83544e-26
      338.771   2.71882e-26
      338.875   2.60697e-26
      338.979   2.49962e-26
      339.084   2.39577e-26
      339.188   2.29706e-26
      339.292   2.20239e-26
      339.397   2.11069e-26
      339.501   2.02362e-26
      339.606   1.93925e-26
      339.710   1.85916e-26
      339.815   1.78159e-26
      339.919   1.70796e-26
      340.024   1.63662e-26
      340.128   1.56893e-26
      340.233   1.50334e-26
      340.338   1.44051e-26
      340.442   1.38080e-26
      340.547   1.32302e-26
      340.652   1.26762e-26
      340.757   1.21452e-26
      340.862   1.16361e-26
      340.966   1.11529e-26
      341.071   1.06851e-26
      341.176   1.02367e-26
      341.281   9.80693e-27
      341.386   9.39516e-27
      341.491   9.00021e-27
      341.596   8.62198e-27
      341.702   8.25603e-27
      341.807   7.90864e-27
      341.912   7.57575e-27
      342.017   7.25669e-27
      342.122   6.95087e-27
      342.228   6.65538e-27
      342.333   6.37471e-27
      342.438   6.10578e-27
      342.544   5.84583e-27
      342.649   5.59897e-27
      342.754   5.36263e-27
      342.860   5.13395e-27
      342.965   4.91680e-27
      343.071   4.70716e-27
      343.176   4.50803e-27
      343.282   4.31544e-27
      343.388   4.13110e-27
      343.493   3.95640e-27
      343.599   3.78968e-27
      343.705   3.63011e-27
      343.810   3.47856e-27
      343.916   3.33201e-27
      344.022   3.19156e-27
      344.128   3.05700e-27
      344.234   2.92800e-27
      344.340   2.80447e-27
      344.446   2.68604e-27
      344.552   2.57258e-27
      344.658   2.46390e-27
      344.764   2.35982e-27
      344.870   2.26002e-27
      344.976   2.16448e-27
      345.082   2.07289e-27
      345.188   1.98519e-27
      345.294   1.90112e-27
      345.401   1.81987e-27
      345.507   1.74276e-27
      345.613   1.66894e-27
      345.719   1.59818e-27
      345.826   1.52978e-27
      345.932   1.46488e-27
      346.039   1.40215e-27
      346.145   1.34262e-27
      346.252   1.28510e-27
      346.358   1.23051e-27
      346.465   1.17778e-27
      346.571   1.12771e-27
      346.678   1.07932e-27
      346.785   1.03298e-27
      346.891   9.89051e-28
      346.998   9.46598e-28
      347.105   9.05940e-28
      347.212   8.67007e-28
      347.319   8.29734e-28
      347.425   7.94367e-28
      347.532   7.60197e-28
      347.639   7.27503e-28
      347.746   6.96192e-28
      347.853   6.66202e-28
      347.960   6.37514e-28
      348.067   6.10061e-28
      348.174   5.83785e-28
      348.281   5.58622e-28
      348.389   5.34323e-28
      348.496   5.11271e-28
      348.603   4.89228e-28
      348.710   4.68119e-28
      348.818   4.47732e-28
      348.925   4.28397e-28
      349.032   4.09899e-28
      349.140   3.92023e-28
      349.247   3.75077e-28
      349.355   3.58724e-28
      349.462   3.43210e-28
      349.570   3.28218e-28
      349.677   3.14019e-28
      349.785   3.00298e-28
      349.892   2.87297e-28
      350.000   2.74743e-28
      350.100   2.63604e-28
      350.193   2.53651e-28
      350.287   2.43961e-28
      350.380   2.34749e-28
      350.473   2.25877e-28
      350.567   2.17241e-28
      350.660   2.09028e-28
      350.754   2.01038e-28
      350.847   1.93435e-28
      350.941   1.86039e-28
      351.034   1.78999e-28
      351.128   1.72151e-28
      351.221   1.65636e-28
      351.315   1.59294e-28
      351.409   1.53192e-28
      351.502   1.47390e-28
      351.596   1.41746e-28
      351.690   1.36312e-28
      351.783   1.31147e-28
      351.877   1.26121e-28
      351.971   1.21285e-28
      352.065   1.16634e-28
      352.159   1.12159e-28
      352.252   1.07901e-28
      352.346   1.03759e-28
      352.440   9.97773e-29
      352.534   9.59496e-29
      352.628   9.22633e-29
      352.722   8.87180e-29
      352.816   8.53102e-29
      352.910   8.20333e-29
      353.004   7.88808e-29
      353.098   7.58473e-29
      353.192   7.29300e-29
      353.287   7.00950e-29
      353.381   6.73966e-29
      353.475   6.48043e-29
      353.569   6.23083e-29
      353.663   5.99104e-29
      353.758   5.75793e-29
      353.852   5.53616e-29
      353.946   5.32284e-29
      354.041   5.11552e-29
      354.135   4.91830e-29
      354.229   4.72862e-29
      354.324   4.54430e-29
      354.418   4.36902e-29
      354.513   4.19861e-29
      354.607   4.03664e-29
      354.702   3.87898e-29
      354.796   3.72867e-29
      354.891   3.58260e-29
      354.985   3.44375e-29
      355.080   3.30884e-29
      355.175   3.17909e-29
      355.269   3.05575e-29
      355.364   2.93586e-29
      355.459   2.82072e-29
      355.553   2.71114e-29
      355.648   2.60476e-29
      355.743   2.50255e-29
      355.838   2.40418e-29
      355.933   2.30978e-29
      356.027   2.21997e-29
      356.122   2.13267e-29
      356.217   2.04882e-29
      356.312   1.96829e-29
      356.407   1.89085e-29
      356.502   1.81646e-29
      356.597   1.74493e-29
      356.692   1.67625e-29
      356.787   1.61024e-29
      356.882   1.54676e-29
      356.977   1.48584e-29
      357.073   1.42666e-29
      357.168   1.37038e-29
      357.263   1.31634e-29
      357.358   1.26439e-29
      357.453   1.21451e-29
      357.549   1.16606e-29
      357.644   1.12001e-29
      357.739   1.07580e-29
      357.835   1.03282e-29
      357.930   9.91999e-30
      358.025   9.52778e-30
      358.121   9.14709e-30
      358.216   8.78520e-30
      358.312   8.43378e-30
      358.407   8.10001e-30
      358.503   7.77590e-30
      358.598   7.46805e-30
      358.694   7.16908e-30
      358.790   6.88181e-30
      358.885   6.60889e-30
      358.981   6.34397e-30
      359.076   6.09239e-30
      359.172   5.84817e-30
      359.268   5.61339e-30
      359.364   5.38805e-30
      359.459   5.17415e-30
      359.555   4.96633e-30
      359.651   4.76681e-30
      359.747   4.57527e-30
      359.843   4.39133e-30
      359.939   4.21473e-30
      360.035   4.04520e-30
      360.131   3.88249e-30
      360.227   3.72606e-30
      360.323   3.57605e-30
      360.419   3.43008e-30
      360.515   3.27215e-30
      360.611   3.11659e-30
      360.707   2.96823e-30
      360.803   2.82715e-30
      360.899   2.69251e-30
      360.995   2.56433e-30
      361.092   2.44089e-30
      361.188   2.32451e-30
      361.284   2.21364e-30
      361.380   2.10802e-30
      361.477   2.00632e-30
      361.573   1.91045e-30
      361.669   1.81917e-30
      361.766   1.73126e-30
      361.862   1.64847e-30
      361.959   1.56878e-30
      362.055   1.49358e-30
      362.152   1.42132e-30
      362.248   1.35319e-30
      362.345   1.28758e-30
      362.441   1.22582e-30
      362.538   1.16638e-30
      362.635   1.10979e-30
      362.731   1.05643e-30
      362.828   1.00511e-30
      362.925   9.56269e-31
      363.021   9.10222e-31
      363.118   8.65957e-31
      363.215   8.23791e-31
      363.312   7.83657e-31
      363.409   7.45482e-31
      363.505   7.09505e-31
      363.602   6.74876e-31
      363.699   6.41940e-31
      363.796   6.10593e-31
      363.893   5.80758e-31
      363.990   5.52368e-31
      364.087   5.25352e-31
      364.184   4.99643e-31
      364.281   4.75172e-31
      364.378   4.51895e-31
      364.475   4.29743e-31
      364.573   4.08447e-31
      364.670   3.88405e-31
      364.767   3.69337e-31
      364.864   3.51190e-31
      364.961   3.33928e-31
      365.059   3.17338e-31
      365.156   3.01729e-31
      365.253   2.86873e-31
      365.351   2.72597e-31
      365.448   2.59158e-31
      365.545   2.46379e-31
      365.643   2.34097e-31
      365.740   2.22536e-31
      365.838   2.11432e-31
      365.935   2.00986e-31
      366.033   1.90945e-31
      366.130   1.81496e-31
      366.228   1.72410e-31
      366.326   1.62768e-31
      366.423   1.53253e-31
      366.521   1.44196e-31
      366.618   1.35749e-31
      366.716   1.27715e-31
      366.814   1.20154e-31
      366.912   1.13038e-31
      367.010   1.06331e-31
      367.107   1.00084e-31
      367.205   9.41381e-32
      367.303   8.85435e-32
      367.401   8.32786e-32
      367.499   7.83211e-32
      367.597   7.36568e-32
      367.695   6.92682e-32
      367.793   6.51390e-32
      367.891   6.12526e-32
      367.989   5.75924e-32
      368.087   5.41511e-32
      368.185   5.09136e-32
      368.283   4.78659e-32
      368.381   4.49979e-32
      368.480   4.22752e-32
      368.578   3.97392e-32
      368.676   3.73548e-32
      368.774   3.51118e-32
      368.873   3.29807e-32
      368.971   3.09974e-32
      369.069   2.91318e-32
      369.168   2.73589e-32
      369.266   2.57102e-32
      369.364   2.41595e-32
      369.463   2.26865e-32
      369.561   2.13165e-32
      369.660   2.00153e-32
      369.758   1.88048e-32
      369.857   1.76555e-32
      369.955   1.65862e-32
      370.054   1.55708e-32
      370.153   1.46170e-32
      370.251   1.37298e-32
      370.350   1.28877e-32
      370.449   1.20968e-32
      370.547   1.13612e-32
      370.646   1.06624e-32
      370.745   1.00067e-32
      370.844   9.39070e-33
      370.943   8.81225e-33
      371.041   8.27449e-33
      371.140   7.76394e-33
      371.239   7.28447e-33
      371.338   6.83453e-33
      371.437   6.41213e-33
      371.536   6.01559e-33
      371.635   5.64303e-33
      371.734   5.29350e-33
      371.833   4.96542e-33
      371.932   4.65740e-33
      372.032   4.36540e-33
      372.131   4.09417e-33
      372.230   3.83974e-33
      372.329   3.60086e-33
      372.428   3.37667e-33
      372.528   3.16432e-33
      372.627   2.96713e-33
      372.726   2.78208e-33
      372.826   2.60674e-33
      372.925   2.44387e-33
      373.024   2.29108e-33
      373.124   2.14632e-33
      373.223   2.01205e-33
      373.323   1.88481e-33
      373.422   1.76665e-33
      373.522   1.65474e-33
      373.621   1.55093e-33
      373.721   1.45255e-33
      373.820   1.36128e-33
      373.920   1.27484e-33
      374.020   1.19376e-33
      374.119   1.11862e-33
      374.219   1.04740e-33
      374.319   9.80712e-34
      374.419   9.18252e-34
      374.518   8.60252e-34
      374.618   8.05361e-34
      374.718   7.53896e-34
      374.818   7.05750e-34
      374.918   6.60651e-34
      375.018   6.18366e-34
      375.118   5.78786e-34
      375.218   5.41691e-34
      375.318   5.06964e-34
      375.418   4.74424e-34
      375.518   4.43977e-34
      375.618   4.15462e-34
      375.718   3.88750e-34
      375.818   3.63746e-34
      375.918   3.40332e-34
      376.019   3.18205e-34
      376.119   2.97689e-34
      376.219   2.78493e-34
      376.319   2.60512e-34
      376.420   2.43529e-34
      376.520   2.27793e-34
      376.620   2.13066e-34
      376.721   1.99142e-34
      376.821   1.86250e-34
      376.922   1.74066e-34
      377.022   1.62778e-34
      377.122   1.52220e-34
      377.223   1.42244e-34
      377.323   1.33005e-34
      377.424   1.24272e-34
      377.525   1.16112e-34
      377.625   1.08556e-34
      377.726   1.01419e-34
      377.827   9.47465e-35
      377.927   8.85667e-35
      378.028   8.27338e-35
      378.129   7.72788e-35
      378.230   7.21804e-35
      378.330   6.74627e-35
      378.431   6.30086e-35
      378.532   5.88484e-35
      378.633   5.49570e-35
      378.734   5.13207e-35
      378.835   4.79244e-35
      378.936   4.47507e-35
      379.037   4.17853e-35
      379.138   3.90143e-35
      379.239   3.64247e-35
      379.340   3.40074e-35
      379.441   3.17480e-35
      379.542   2.96370e-35
      379.643   2.76659e-35
      379.745   2.58070e-35
      379.846   2.40878e-35
      379.947   2.24822e-35
      380.048   2.09834e-35
      380.150   1.95696e-35
      380.251   1.82628e-35
      380.352   1.70429e-35
      380.454   1.58931e-35
      380.555   1.48299e-35
      380.656   1.38371e-35
      380.758   1.29014e-35
      380.859   1.20369e-35
      380.961   1.12225e-35
      381.062   1.04697e-35
      381.164   9.75998e-36
      381.266   9.09815e-36
      381.367   8.48652e-36
      381.469   7.91039e-36
      381.570   7.37819e-36
      381.672   6.87679e-36
      381.774   6.40892e-36
      381.876   5.97280e-36
      381.977   5.56989e-36
      382.079   5.19040e-36
      382.181   4.83651e-36
      382.283   4.50675e-36
      382.385   4.19913e-36
      382.487   3.91217e-36
      382.589   3.64490e-36
      382.691   3.39571e-36
      382.793   3.16343e-36
      382.895   2.94687e-36
      382.997   2.74498e-36
      383.099   2.55683e-36
      383.201   2.38152e-36
      383.303   2.21805e-36
      383.405   2.06576e-36
      383.507   1.92386e-36
      383.610   1.79040e-36
      383.712   1.66722e-36
      383.814   1.55255e-36
      383.916   1.44566e-36
      384.019   1.34512e-36
      384.121   1.25238e-36
      384.223   1.16601e-36
      384.326   1.08481e-36
      384.428   1.00990e-36
      384.531   9.39473e-37
      384.633   8.74531e-37
      384.736   8.13463e-37
      384.838   7.57148e-37
      384.941   7.04224e-37
      385.043   6.55420e-37
      385.146   6.09561e-37
      385.249   5.66884e-37
      385.351   5.27531e-37
      385.454   4.90543e-37
      385.557   4.56149e-37
      385.660   4.24130e-37
      385.762   3.94633e-37
      385.865   3.66910e-37
      385.968   3.41112e-37
      386.071   3.17111e-37
      386.174   2.94792e-37
      386.277   2.74040e-37
      386.380   2.54734e-37
      386.483   2.36776e-37
      386.586   2.20082e-37
      386.689   2.04549e-37
      386.792   1.90103e-37
      386.895   1.76673e-37
      386.998   1.64185e-37
      387.101   1.52576e-37
      387.204   1.41774e-37
      387.308   1.31641e-37
      387.411   1.22313e-37
      387.514   1.13643e-37
      387.617   1.05583e-37
      387.721   9.80232e-38
      387.824   9.10636e-38
      387.927   8.45897e-38
      388.031   7.85216e-38
      388.134   7.29366e-38
      388.238   6.77016e-38
      388.341   6.28787e-38
      388.445   5.83572e-38
      388.548   5.41961e-38
      388.652   5.02958e-38
      388.755   4.67070e-38
      388.859   4.33420e-38
      388.962   4.02456e-38
      389.066   3.73414e-38
      389.170   3.46477e-38
      389.274   3.21451e-38
      389.377   2.98431e-38
      389.481   2.76848e-38
      389.585   2.56828e-38
      389.689   2.38240e-38
      389.793   2.20979e-38
      389.897   2.04975e-38
      390.000   1.90242e-38
      390.104   1.76448e-38
      390.208   1.63638e-38
      390.312   1.51754e-38
      390.416   1.40730e-38
      390.520   1.30496e-38
      390.625   1.20908e-38
      390.729   1.12111e-38
      390.833   1.03942e-38
      390.937   9.63649e-39
      391.041   8.93392e-39
      391.145   8.28225e-39
      391.250   7.67189e-39
      391.354   7.11172e-39
      391.458   6.59199e-39
      391.563   6.10551e-39
      391.667   5.65882e-39
      391.771   5.24464e-39
      391.876   4.85690e-39
      391.980   4.50088e-39
      392.085   4.16785e-39
      392.189   3.86204e-39
      392.294   3.57587e-39
      392.398   3.31322e-39
      392.503   3.06750e-39
      392.607   2.84196e-39
      392.712   2.63098e-39
      392.817   2.43545e-39
      392.921   2.25610e-39
      393.026   2.08828e-39
      393.131   1.93291e-39
      393.236   1.78894e-39
      393.340   1.65685e-39
      393.445   1.53337e-39
      393.550   1.41902e-39
      393.655   1.31308e-39
      393.760   1.21506e-39
      393.865   1.12426e-39
      393.970   1.04027e-39
      394.075   9.62431e-40
      394.180   8.90423e-40
      394.285   8.23738e-40
      394.390   7.62040e-40
      394.495   7.04891e-40
      394.600   6.52021e-40
      394.706   6.02649e-40
      394.811   5.57403e-40
      394.916   5.15500e-40
      395.021   4.76743e-40
      395.126   4.40892e-40
      395.232   4.07405e-40
      395.337   3.76718e-40
      395.443   3.48076e-40
      395.548   3.21832e-40
      395.653   2.97560e-40
      395.759   2.74884e-40
      395.864   2.54130e-40
      395.970   2.34750e-40
      396.075   2.16998e-40
      396.181   2.00433e-40
      396.286   1.85253e-40
      396.392   1.71103e-40
      396.498   1.58013e-40
      396.603   1.46025e-40
      396.709   1.34850e-40
      396.815   1.24521e-40
      396.921   1.14971e-40
      397.026   1.06232e-40
      397.132   9.80755e-41
      397.238   9.05477e-41
      397.344   8.35832e-41
      397.450   7.71653e-41
      397.556   7.12252e-41
      397.662   6.57433e-41
      397.768   6.06818e-41
      397.874   5.60015e-41
      397.980   5.16855e-41
      398.086   4.76946e-41
      398.192   4.40134e-41
      398.298   4.06138e-41
      398.404   3.74735e-41
      398.510   3.45756e-41
      398.617   3.18767e-41
      398.723   2.94091e-41
      398.829   2.71277e-41
      398.935   2.50230e-41
      399.042   2.30682e-41
      399.148   2.12759e-41
      399.255   1.96070e-41
      399.361   1.80838e-41
      399.467   1.66783e-41
      399.574   1.53680e-41
      399.680   1.41727e-41
      399.787   1.30573e-41
      399.893       0.00000
      400.000       0.00000
