Filter Be-thin
observation_date 22-Sept-2010 22:40:45
wavelength effective area
      1.00000   2.78439e-10
      1.10000   7.94902e-10
      1.20000   2.06656e-09
      1.30000   4.94182e-09
      1.40000   1.12140e-08
      1.50000   2.39251e-08
      1.60000   4.84366e-08
      1.70000   9.40385e-08
      1.80000   1.75084e-07
      1.90000   3.14696e-07
      2.00000   5.47124e-07
      2.10000   9.24163e-07
      2.20000   1.52391e-06
      2.30000   2.44977e-06
      2.40000   3.84610e-06
      2.50000   5.87794e-06
      2.60000   8.97030e-06
      2.70000   1.33737e-05
      2.80000   1.95571e-05
      2.90000   2.83050e-05
      3.00000   4.03259e-05
      3.10000   5.67131e-05
      3.20000   7.88878e-05
      3.30000   0.000108614
      3.40000   0.000147981
      3.50000   0.000199659
      3.60000   0.000268138
      3.70000   0.000356268
      3.80000   0.000471389
      3.90000   0.000620226
      4.00000   0.000810949
      4.10000    0.00105537
      4.20000    0.00136857
      4.30000    0.00176961
      4.40000    0.00228197
      4.50000    0.00293447
      4.60000    0.00376072
      4.70000    0.00481921
      4.80000    0.00616896
      4.90000    0.00779487
      5.00000     0.0101079
      5.10000     0.0129220
      5.20000     0.0165672
      5.30000     0.0210600
      5.40000     0.0267259
      5.50000     0.0339731
      5.60000     0.0418579
      5.70000     0.0543292
      5.80000     0.0635896
      5.90000     0.0969264
      6.00000      0.130060
      6.10000      0.165913
      6.20000      0.203346
      6.30000      0.238881
      6.40000      0.269159
      6.50000      0.291183
      6.60000      0.300727
      6.70000      0.309358
      6.80000      0.309012
      6.90000      0.404359
      7.00000      0.438548
      7.10000      0.462492
      7.20000      0.481066
      7.30000      0.495776
      7.40000      0.506486
      7.50000      0.514546
      7.60000      0.520080
      7.70000      0.521732
      7.80000      0.518542
      7.90000      0.515902
      8.00000      0.742802
      8.10000      0.809499
      8.20000      0.818834
      8.30000      0.824364
      8.40000      0.826445
      8.50000      0.827034
      8.60000      0.825896
      8.70000      0.823610
      8.80000      0.819921
      8.90000      0.815266
      9.00000      0.809599
      9.10000      0.802985
      9.20000      0.795604
      9.30000      0.787396
      9.40000      0.778495
      9.50000      0.768967
      9.60000      0.758785
      9.70000      0.748054
      9.80000      0.736877
      9.90000      0.725291
      10.0000      0.713352
      10.1000      0.701088
      10.2000      0.688532
      10.3000      0.675674
      10.4000      0.662553
      10.5000      0.649202
      10.6000      0.635654
      10.7000      0.621939
      10.8000      0.608082
      10.9000      0.594123
      11.0000      0.580073
      11.1000      0.565971
      11.2000      0.551832
      11.3000      0.537684
      11.4000      0.523532
      11.5000      0.509387
      11.6000      0.495271
      11.7000      0.481165
      11.8000      0.467120
      11.9000      0.453057
      12.0000      0.438543
      12.1000      0.425713
      12.2000      0.420415
      12.3000      0.410705
      12.4000      0.398071
      12.5000      0.385348
      12.6000      0.372709
      12.7000      0.360224
      12.8000      0.347919
      12.9000      0.335801
      13.0000      0.323898
      13.1000      0.312221
      13.2000      0.300800
      13.3000      0.289695
      13.4000      0.278890
      13.5000      0.268371
      13.6000      0.258151
      13.7000      0.248188
      13.8000      0.238478
      13.9000      0.229027
      14.0000      0.219833
      14.1000      0.210874
      14.2000      0.202142
      14.3000      0.193641
      14.4000      0.185374
      14.5000      0.177356
      14.6000      0.169595
      14.7000      0.162064
      14.8000      0.154763
      14.9000      0.147687
      15.0000      0.140835
      15.1000      0.134209
      15.2000      0.127847
      15.3000      0.121711
      15.4000      0.115789
      15.5000      0.110076
      15.6000      0.104573
      15.7000     0.0992958
      15.8000     0.0942514
      15.9000     0.0893998
      16.0000     0.0847349
      16.1000     0.0802526
      16.2000     0.0759937
      16.3000     0.0719194
      16.4000     0.0680072
      16.5000     0.0642516
      16.6000     0.0606752
      16.7000     0.0572788
      16.8000     0.0540220
      16.9000     0.0509003
      17.0000     0.0479394
      17.1000     0.0451495
      17.2000     0.0424904
      17.3000     0.0399567
      17.4000     0.0375818
      17.5000     0.0353276
      17.6000     0.0331886
      17.7000     0.0311930
      17.8000     0.0293843
      17.9000     0.0276581
      18.0000     0.0260021
      18.1000     0.0244573
      18.2000     0.0229631
      18.3000     0.0215125
      18.4000     0.0201178
      18.5000     0.0187816
      18.6000     0.0174881
      18.7000     0.0162496
      18.8000     0.0150906
      18.9000     0.0139867
      19.0000     0.0129629
      19.1000     0.0120079
      19.2000     0.0110995
      19.3000     0.0102647
      19.4000    0.00949214
      19.5000    0.00876414
      19.6000    0.00812183
      19.7000    0.00751478
      19.8000    0.00693920
      19.9000    0.00641970
      20.0000    0.00592394
      20.1000    0.00546275
      20.2000    0.00503919
      20.3000    0.00463500
      20.4000    0.00426885
      20.5000    0.00392471
      20.6000    0.00360032
      20.7000    0.00330887
      20.8000    0.00303025
      20.9000    0.00277706
      21.0000    0.00254169
      21.1000    0.00231998
      21.2000    0.00212203
      21.3000    0.00193251
      21.4000    0.00176276
      21.5000    0.00160388
      21.6000    0.00145595
      21.7000    0.00132311
      21.8000    0.00119574
      21.9000    0.00108366
      22.0000   0.000976462
      22.1000   0.000880048
      22.2000   0.000790075
      22.3000   0.000705744
      22.4000   0.000621258
      22.5000   0.000537037
      22.6000   0.000431060
      22.7000   0.000349786
      22.8000   0.000390823
      22.9000   0.000452485
      23.0000   0.000533637
      23.1000   0.000567235
      23.2000   0.000555943
      23.3000   0.000522230
      23.4000   0.000477343
      23.5000   0.000436899
      23.6000   0.000397671
      23.7000   0.000362721
      23.8000   0.000328430
      23.9000   0.000299036
      24.0000   0.000270320
      24.1000   0.000245397
      24.2000   0.000221380
      24.3000   0.000200517
      24.4000   0.000180627
      24.5000   0.000163222
      24.6000   0.000146792
      24.7000   0.000132390
      24.8000   0.000118884
      24.9000   0.000107016
      25.0000   9.59381e-05
      25.1000   8.62197e-05
      25.2000   7.71593e-05
      25.3000   6.92360e-05
      25.4000   6.18389e-05
      25.5000   5.54186e-05
      25.6000   4.93948e-05
      25.7000   4.42185e-05
      25.8000   3.93200e-05
      25.9000   3.51688e-05
      26.0000   3.11919e-05
      26.1000   2.78787e-05
      26.2000   2.46538e-05
      26.3000   2.20254e-05
      26.4000   1.94160e-05
      26.5000   1.73413e-05
      26.6000   1.52774e-05
      26.7000   1.36048e-05
      26.8000   1.19864e-05
      26.9000   1.06349e-05
      27.0000   9.37124e-06
      27.1000   8.27870e-06
      27.2000   7.29639e-06
      27.3000   6.42696e-06
      27.4000   5.69677e-06
      27.5000   5.00788e-06
      27.6000   4.42981e-06
      27.7000   3.86202e-06
      27.8000   3.41883e-06
      27.9000   2.97791e-06
      28.0000   2.62557e-06
      28.1000   2.29185e-06
      28.2000   2.00760e-06
      28.3000   1.75668e-06
      28.4000   1.52807e-06
      28.5000   1.34068e-06
      28.6000   1.15753e-06
      28.7000   1.01865e-06
      28.8000   8.80506e-07
      28.9000   7.70325e-07
      29.0000   6.68481e-07
      29.1000   5.79475e-07
      29.2000   5.04913e-07
      29.3000   4.33472e-07
      29.4000   3.79287e-07
      29.5000   3.25391e-07
      29.6000   2.83270e-07
      29.7000   2.44396e-07
      29.8000   2.10265e-07
      29.9000   1.82434e-07
      30.0000   1.55062e-07
      30.1000   1.35290e-07
      30.2000   1.15624e-07
      30.3000   1.00938e-07
      30.4000   8.91214e-08
      30.5000   7.76619e-08
      30.6000   6.73555e-08
      30.7000   5.71049e-08
      30.8000   4.92537e-08
      30.9000   4.21492e-08
      31.0000   3.57706e-08
      31.1000   3.09817e-08
      31.2000   2.62190e-08
      31.3000   2.26614e-08
      31.4000   1.93754e-08
      31.5000   1.64301e-08
      31.6000   1.41815e-08
      31.7000   1.19452e-08
      31.8000   1.02807e-08
      31.9000   8.76595e-09
      32.0000   7.39044e-09
      32.1000   6.40158e-09
      32.2000   5.41816e-09
      32.3000   4.65362e-09
      32.4000   3.98746e-09
      32.5000   3.34834e-09
      32.6000   2.90123e-09
      32.7000   2.45661e-09
      32.8000   2.08726e-09
      32.9000   1.79091e-09
      33.0000   1.49621e-09
      33.1000   1.28900e-09
      33.2000   1.09456e-09
      33.3000   9.16452e-10
      33.4000   7.89000e-10
      33.5000   6.62244e-10
      33.6000   5.60702e-10
      33.7000   4.78372e-10
      33.8000   3.96478e-10
      33.9000   3.40002e-10
      34.0000   2.87279e-10
      34.1000   2.37997e-10
      34.2000   2.04377e-10
      34.3000   1.70926e-10
      34.4000   1.42886e-10
      34.5000   1.21752e-10
      34.6000   1.00726e-10
      34.7000   8.50355e-11
      34.8000   7.18571e-11
      34.9000   5.87448e-11
      35.0000   5.01297e-11
      35.1000   4.20160e-11
      35.2000   3.42746e-11
      35.3000   2.93048e-11
      35.4000   2.43601e-11
      35.5000   1.99874e-11
      35.6000   1.69902e-11
      35.7000   1.40080e-11
      35.8000   1.15595e-11
      35.9000   9.77078e-12
      36.0000   7.99114e-12
      36.1000   6.63017e-12
      36.2000   5.57445e-12
      36.3000   4.52410e-12
      36.4000   3.77208e-12
      36.5000   3.15583e-12
      36.6000   2.54276e-12
      36.7000   2.12880e-12
      36.8000   1.77314e-12
      36.9000   1.41932e-12
      37.0000   1.19178e-12
      37.1000   9.88856e-13
      37.2000   7.86973e-13
      37.3000   6.61832e-13
      37.4000   5.47421e-13
      37.5000   4.33604e-13
      37.6000   3.64592e-13
      37.7000   3.00868e-13
      37.8000   2.37477e-13
      37.9000   1.99236e-13
      38.0000   1.64171e-13
      38.1000   1.29288e-13
      38.2000   1.07975e-13
      38.3000   8.89148e-14
      38.4000   6.99531e-14
      38.5000   5.80127e-14
      38.6000   4.77883e-14
      38.7000   3.76172e-14
      38.8000   3.08980e-14
      38.9000   2.54859e-14
      39.0000   2.01018e-14
      39.1000   1.63103e-14
      39.2000   1.34826e-14
      39.3000   1.06697e-14
      39.4000   8.52066e-15
      39.5000   7.04646e-15
      39.6000   5.58004e-15
      39.7000   4.36310e-15
      39.8000   3.62154e-15
      39.9000   2.88384e-15
      40.0000   2.20837e-15
      40.1000   1.84149e-15
      40.2000   1.47652e-15
      40.3000   1.11351e-15
      40.4000   9.26427e-16
      40.5000   7.48511e-16
      40.6000   5.71520e-16
      40.7000   4.60736e-16
      40.8000   3.75290e-16
      40.9000   2.90299e-16
      41.0000   2.26290e-16
      41.1000   1.85915e-16
      41.2000   1.45757e-16
      41.3000   1.09706e-16
      41.4000   9.09389e-17
      41.5000   7.22695e-17
      41.6000   5.36991e-17
      41.7000   4.38854e-17
      41.8000   3.53439e-17
      41.9000   2.68471e-17
      42.0000   2.08735e-17
      42.1000   1.70299e-17
      42.2000   1.32065e-17
      42.3000   9.77574e-18
      42.4000   8.07571e-18
      42.5000   6.38452e-18
      42.6000   4.70225e-18
      42.7000   3.76597e-18
      42.8000   3.03100e-18
      42.9000   2.29981e-18
      43.0000   1.72581e-18
      43.1000   1.41194e-18
      43.2000   1.09973e-18
      43.3000   7.89147e-19
      43.4000   7.90455e-19
      43.5000   8.52135e-19
      43.6000   9.46841e-19
      43.7000   9.75518e-19
      43.8000   8.61983e-19
      43.9000   6.81232e-19
      44.0000   4.83769e-19
      44.1000   3.88344e-19
      44.2000   3.09017e-19
      44.3000   2.30690e-19
      44.4000   1.72503e-19
      44.5000   1.40720e-19
      44.6000   1.09016e-19
      44.7000   7.73915e-20
      44.8000   6.24223e-20
      44.9000   4.98373e-20
      45.0000   3.72832e-20
      45.1000   2.69807e-20
      45.2000   2.20841e-20
      45.3000   1.71999e-20
      45.4000   1.23273e-20
      45.5000   9.49955e-21
      45.6000   7.63758e-21
      45.7000   5.78027e-21
      45.8000   3.97066e-21
      45.9000   3.27540e-21
      46.0000   2.58183e-21
      46.1000   1.88995e-21
      46.2000   1.35974e-21
      46.3000   1.10684e-21
      46.4000   8.54587e-22
      46.5000   6.02929e-22
      46.6000   4.58590e-22
      46.7000   3.67974e-22
      46.8000   2.77581e-22
      46.9000   1.87404e-22
      47.0000   1.51826e-22
      47.1000   1.20029e-22
      47.2000   8.83097e-23
      47.3000   6.03074e-23
      47.4000   4.93541e-23
      47.5000   3.84267e-23
      47.6000   2.75260e-23
      47.7000   1.94260e-23
      47.8000   1.57464e-23
      47.9000   1.20752e-23
      48.0000   8.41318e-24
      48.1000   6.14130e-24
      48.2000   4.93300e-24
      48.3000   3.72753e-24
      48.4000   2.52499e-24
      48.5000   1.90515e-24
      48.6000   1.51762e-24
      48.7000   1.13100e-24
      48.8000   7.45275e-25
      48.9000   5.79794e-25
      49.0000   4.58538e-25
      49.1000   3.37574e-25
      49.2000   2.16891e-25
      49.3000   1.76105e-25
      49.4000   1.42305e-25
      49.5000   1.08585e-25
      49.6000   7.49435e-26
      49.7000   6.74954e-26
      49.8000   6.07099e-26
      49.9000   5.39403e-26
      50.0000   4.71869e-26
      50.1000   4.13910e-26
      50.2000   3.34124e-26
      50.3000   2.70185e-26
      50.4000   2.33748e-26
      50.5000   2.10675e-26
      50.6000   1.88125e-26
      50.7000   1.45418e-26
      50.8000   1.21197e-26
      50.9000   6.63711e-27
      51.0000   4.44728e-27
      51.1000   3.59598e-27
      51.2000   3.60345e-27
      51.3000   3.22771e-27
      51.4000   1.99069e-27
      51.5000   1.20056e-27
      51.6000   8.46785e-28
      51.7000   5.71089e-28
      51.8000   4.31984e-28
      51.9000   3.59507e-28
      52.0000   2.84879e-28
      52.1000   1.96932e-28
      52.2000   1.50677e-28
      52.3000   9.92580e-29
      52.4000   6.47775e-29
      52.5000   5.11943e-29
      52.6000   4.55153e-29
      52.7000   3.88347e-29
      52.8000   2.64001e-29
      52.9000   1.51021e-29
      53.0000   1.01002e-29
      53.1000   6.66064e-30
      53.2000   4.46964e-30
      53.3000   2.96674e-30
      53.4000   1.94419e-30
      53.5000   1.10987e-30
      53.6000   5.61034e-31
      53.7000   3.27787e-31
      53.8000   2.44840e-31
      53.9000   1.68166e-31
      54.0000   1.13083e-31
      54.1000   7.35904e-32
      54.2000   5.21540e-32
      54.3000   3.14178e-32
      54.4000   1.33076e-32
      54.5000   7.26726e-33
      54.6000   5.20628e-33
      54.7000   3.95117e-33
      54.8000   2.77634e-33
      54.9000   1.88258e-33
      55.0000   1.37018e-33
      55.1000   9.90994e-34
      55.2000   7.11373e-34
      55.3000   6.57481e-34
      55.4000   5.86198e-34
      55.5000   4.21200e-34
      55.6000   2.70075e-34
      55.7000   1.94371e-34
      55.8000   1.32741e-34
      55.9000   9.30769e-35
      56.0000   6.80999e-35
      56.1000   4.70685e-35
      56.2000   4.36183e-35
      56.3000   3.55754e-35
      56.4000   2.57695e-35
      56.5000   1.77632e-35
      56.6000   1.22405e-35
      56.7000   8.91959e-36
      56.8000   6.54470e-36
      56.9000   4.63804e-36
      57.0000   3.09744e-36
      57.1000   2.06881e-36
      57.2000   1.42501e-36
      57.3000   1.00882e-36
      57.4000   7.20561e-37
      57.5000   5.11309e-37
      57.6000   3.32533e-37
      57.7000   2.31159e-37
      57.8000   2.09517e-37
      57.9000   1.56900e-37
      58.0000   1.11801e-37
      58.1000   7.37484e-38
      58.2000   4.24569e-38
      58.3000   2.79323e-38
      58.4000   2.11342e-38
      58.5000   1.68534e-38
      58.6000   1.15046e-38
      58.7000   7.77082e-39
      58.8000   5.21699e-39
      58.9000   3.51484e-39
      59.0000   2.55421e-39
      59.1000   1.89560e-39
      59.2000   1.40234e-39
      59.3000   1.03387e-39
      59.4000   7.59420e-40
      59.5000   5.34958e-40
      59.6000   3.53915e-40
      59.7000   2.71055e-40
      59.8000   1.88430e-40
      59.9000   1.12013e-40
      60.0000   8.25000e-41
      60.1000   6.08710e-41
      60.2000   4.47673e-41
      60.3000   3.28128e-41
      60.4000   2.39776e-41
      60.5000   1.76746e-41
      60.6000   1.31372e-41
      60.7000   1.03458e-41
      60.8000   8.53951e-42
      60.9000   7.03592e-42
      61.0000   5.81539e-42
      61.1000   4.81766e-42
      61.2000   4.00911e-42
      61.3000   3.32248e-42
      61.4000   2.75075e-42
      61.5000   2.28692e-42
      61.6000   1.82169e-42
      61.7000   1.43073e-42
      61.8000   1.12524e-42
      61.9000   8.91226e-43
      62.0000   6.83834e-43
      62.1000   4.91856e-43
      62.2000   3.48923e-43
      62.3000   2.52234e-43
      62.4000   2.07392e-43
      62.5000   1.79366e-43
      62.6000   1.52742e-43
      62.7000   1.34525e-43
      62.8000   1.17709e-43
      62.9000   8.68805e-44
      63.0000   6.02558e-44
      63.1000   4.20390e-44
      63.2000   3.50325e-44
      63.3000   2.52234e-44
      63.4000   2.24208e-44
      63.5000   1.54143e-44
      63.6000   1.26117e-44
      63.7000   9.80909e-45
      63.8000   9.80909e-45
      63.9000   7.00649e-45
      64.0000   2.80260e-45
      64.1000   2.80260e-45
      64.2000   2.80260e-45
      64.3000   2.80260e-45
      64.4000       0.00000
      64.5000       0.00000
      64.6000       0.00000
      64.7000       0.00000
      64.8000       0.00000
      64.9000       0.00000
      65.0000       0.00000
      65.1000       0.00000
      65.2000       0.00000
      65.3000       0.00000
      65.4000       0.00000
      65.5000       0.00000
      65.6000       0.00000
      65.7000       0.00000
      65.8000       0.00000
      65.9000       0.00000
      66.0000       0.00000
      66.1000       0.00000
      66.2000       0.00000
      66.3000       0.00000
      66.4000       0.00000
      66.5000       0.00000
      66.6000       0.00000
      66.7000       0.00000
      66.8000       0.00000
      66.9000       0.00000
      67.0000       0.00000
      67.1000       0.00000
      67.2000       0.00000
      67.3000       0.00000
      67.4000       0.00000
      67.5000       0.00000
      67.6000       0.00000
      67.7000       0.00000
      67.8000       0.00000
      67.9000       0.00000
      68.0000       0.00000
      68.1000       0.00000
      68.2000       0.00000
      68.3000       0.00000
      68.4000       0.00000
      68.5000       0.00000
      68.6000       0.00000
      68.7000       0.00000
      68.8000       0.00000
      68.9000       0.00000
      69.0000       0.00000
      69.1000       0.00000
      69.2000       0.00000
      69.3000       0.00000
      69.4000       0.00000
      69.5000       0.00000
      69.6000       0.00000
      69.7000       0.00000
      69.8000       0.00000
      69.9000       0.00000
      70.0000       0.00000
      70.1000       0.00000
      70.2000       0.00000
      70.3000       0.00000
      70.4000       0.00000
      70.5000       0.00000
      70.6000       0.00000
      70.7000       0.00000
      70.8000       0.00000
      70.9000       0.00000
      71.0000       0.00000
      71.1000       0.00000
      71.2000       0.00000
      71.3000       0.00000
      71.4000       0.00000
      71.5000       0.00000
      71.6000       0.00000
      71.7000       0.00000
      71.8000       0.00000
      71.9000       0.00000
      72.0000       0.00000
      72.1000       0.00000
      72.2000       0.00000
      72.3000       0.00000
      72.4000       0.00000
      72.5000       0.00000
      72.6000       0.00000
      72.7000       0.00000
      72.8000       0.00000
      72.9000       0.00000
      73.0000       0.00000
      73.1000       0.00000
      73.2000       0.00000
      73.3000       0.00000
      73.4000       0.00000
      73.5000       0.00000
      73.6000       0.00000
      73.7000       0.00000
      73.8000       0.00000
      73.9000       0.00000
      74.0000       0.00000
      74.1000       0.00000
      74.2000       0.00000
      74.3000       0.00000
      74.4000       0.00000
      74.5000       0.00000
      74.6000       0.00000
      74.7000       0.00000
      74.8000       0.00000
      74.9000       0.00000
      75.0000       0.00000
      75.1000       0.00000
      75.2000       0.00000
      75.3000       0.00000
      75.4000       0.00000
      75.5000       0.00000
      75.6000       0.00000
      75.7000       0.00000
      75.8000       0.00000
      75.9000       0.00000
      76.0000       0.00000
      76.1000       0.00000
      76.2000       0.00000
      76.3000       0.00000
      76.4000       0.00000
      76.5000       0.00000
      76.6000       0.00000
      76.7000       0.00000
      76.8000       0.00000
      76.9000       0.00000
      77.0000       0.00000
      77.1000       0.00000
      77.2000       0.00000
      77.3000       0.00000
      77.4000       0.00000
      77.5000       0.00000
      77.6000       0.00000
      77.7000       0.00000
      77.8000       0.00000
      77.9000       0.00000
      78.0000       0.00000
      78.1000       0.00000
      78.2000       0.00000
      78.3000       0.00000
      78.4000       0.00000
      78.5000       0.00000
      78.6000       0.00000
      78.7000       0.00000
      78.8000       0.00000
      78.9000       0.00000
      79.0000       0.00000
      79.1000       0.00000
      79.2000       0.00000
      79.3000       0.00000
      79.4000       0.00000
      79.5000       0.00000
      79.6000       0.00000
      79.7000       0.00000
      79.8000       0.00000
      79.9000       0.00000
      80.0000       0.00000
      80.1000       0.00000
      80.2000       0.00000
      80.3000       0.00000
      80.4000       0.00000
      80.5000       0.00000
      80.6000       0.00000
      80.7000       0.00000
      80.8000       0.00000
      80.9000       0.00000
      81.0000       0.00000
      81.1000       0.00000
      81.2000       0.00000
      81.3000       0.00000
      81.4000       0.00000
      81.5000       0.00000
      81.6000       0.00000
      81.7000       0.00000
      81.8000       0.00000
      81.9000       0.00000
      82.0000       0.00000
      82.1000       0.00000
      82.2000       0.00000
      82.3000       0.00000
      82.4000       0.00000
      82.5000       0.00000
      82.6000       0.00000
      82.7000       0.00000
      82.8000       0.00000
      82.9000       0.00000
      83.0000       0.00000
      83.1000       0.00000
      83.2000       0.00000
      83.3000       0.00000
      83.4000       0.00000
      83.5000       0.00000
      83.6000       0.00000
      83.7000       0.00000
      83.8000       0.00000
      83.9000       0.00000
      84.0000       0.00000
      84.1000       0.00000
      84.2000       0.00000
      84.3000       0.00000
      84.4000       0.00000
      84.5000       0.00000
      84.6000       0.00000
      84.7000       0.00000
      84.8000       0.00000
      84.9000       0.00000
      85.0000       0.00000
      85.1000       0.00000
      85.2000       0.00000
      85.3000       0.00000
      85.4000       0.00000
      85.5000       0.00000
      85.6000       0.00000
      85.7000       0.00000
      85.8000       0.00000
      85.9000       0.00000
      86.0000       0.00000
      86.1000       0.00000
      86.2000       0.00000
      86.3000       0.00000
      86.4000       0.00000
      86.5000       0.00000
      86.6000       0.00000
      86.7000       0.00000
      86.8000       0.00000
      86.9000       0.00000
      87.0000       0.00000
      87.1000       0.00000
      87.2000       0.00000
      87.3000       0.00000
      87.4000       0.00000
      87.5000       0.00000
      87.6000       0.00000
      87.7000       0.00000
      87.8000       0.00000
      87.9000       0.00000
      88.0000       0.00000
      88.1000       0.00000
      88.2000       0.00000
      88.3000       0.00000
      88.4000       0.00000
      88.5000       0.00000
      88.6000       0.00000
      88.7000       0.00000
      88.8000       0.00000
      88.9000       0.00000
      89.0000       0.00000
      89.1000       0.00000
      89.2000       0.00000
      89.3000       0.00000
      89.4000       0.00000
      89.5000       0.00000
      89.6000       0.00000
      89.7000       0.00000
      89.8000       0.00000
      89.9000       0.00000
      90.0000       0.00000
      90.1000       0.00000
      90.2000       0.00000
      90.3000       0.00000
      90.4000       0.00000
      90.5000       0.00000
      90.6000       0.00000
      90.7000       0.00000
      90.8000       0.00000
      90.9000       0.00000
      91.0000       0.00000
      91.1000       0.00000
      91.2000       0.00000
      91.3000       0.00000
      91.4000       0.00000
      91.5000       0.00000
      91.6000       0.00000
      91.7000       0.00000
      91.8000       0.00000
      91.9000       0.00000
      92.0000       0.00000
      92.1000       0.00000
      92.2000       0.00000
      92.3000       0.00000
      92.4000       0.00000
      92.5000       0.00000
      92.6000       0.00000
      92.7000       0.00000
      92.8000       0.00000
      92.9000       0.00000
      93.0000       0.00000
      93.1000       0.00000
      93.2000       0.00000
      93.3000       0.00000
      93.4000       0.00000
      93.5000       0.00000
      93.6000       0.00000
      93.7000       0.00000
      93.8000       0.00000
      93.9000       0.00000
      94.0000       0.00000
      94.1000       0.00000
      94.2000       0.00000
      94.3000       0.00000
      94.4000       0.00000
      94.5000       0.00000
      94.6000       0.00000
      94.7000       0.00000
      94.8000       0.00000
      94.9000       0.00000
      95.0000       0.00000
      95.1000       0.00000
      95.2000       0.00000
      95.3000       0.00000
      95.4000       0.00000
      95.5000       0.00000
      95.6000       0.00000
      95.7000       0.00000
      95.8000       0.00000
      95.9000       0.00000
      96.0000       0.00000
      96.1000       0.00000
      96.2000       0.00000
      96.3000       0.00000
      96.4000       0.00000
      96.5000       0.00000
      96.6000       0.00000
      96.7000       0.00000
      96.8000       0.00000
      96.9000       0.00000
      97.0000       0.00000
      97.1000       0.00000
      97.2000       0.00000
      97.3000       0.00000
      97.4000       0.00000
      97.5000       0.00000
      97.6000       0.00000
      97.7000       0.00000
      97.8000       0.00000
      97.9000       0.00000
      98.0000       0.00000
      98.1000       0.00000
      98.2000       0.00000
      98.3000       0.00000
      98.4000       0.00000
      98.5000       0.00000
      98.6000       0.00000
      98.7000       0.00000
      98.8000       0.00000
      98.9000       0.00000
      99.0000       0.00000
      99.1000       0.00000
      99.2000       0.00000
      99.3000       0.00000
      99.4000       0.00000
      99.5000       0.00000
      99.6000       0.00000
      99.7000       0.00000
      99.8000       0.00000
      99.9000       0.00000
      100.000       0.00000
      100.100       0.00000
      100.200       0.00000
      100.300       0.00000
      100.400       0.00000
      100.500       0.00000
      100.600       0.00000
      100.700       0.00000
      100.800       0.00000
      100.900       0.00000
      101.000       0.00000
      101.100       0.00000
      101.200       0.00000
      101.300       0.00000
      101.400       0.00000
      101.500       0.00000
      101.600       0.00000
      101.700       0.00000
      101.800       0.00000
      101.900       0.00000
      102.000       0.00000
      102.100       0.00000
      102.200       0.00000
      102.300       0.00000
      102.400       0.00000
      102.500       0.00000
      102.600       0.00000
      102.700       0.00000
      102.800       0.00000
      102.900       0.00000
      103.000       0.00000
      103.100       0.00000
      103.200       0.00000
      103.300       0.00000
      103.400       0.00000
      103.500       0.00000
      103.600       0.00000
      103.700       0.00000
      103.800       0.00000
      103.900       0.00000
      104.000       0.00000
      104.100       0.00000
      104.200       0.00000
      104.300       0.00000
      104.400       0.00000
      104.500       0.00000
      104.600       0.00000
      104.700       0.00000
      104.800       0.00000
      104.900       0.00000
      105.000       0.00000
      105.100       0.00000
      105.200       0.00000
      105.300       0.00000
      105.400       0.00000
      105.500       0.00000
      105.600       0.00000
      105.700       0.00000
      105.800       0.00000
      105.900       0.00000
      106.000       0.00000
      106.100       0.00000
      106.200       0.00000
      106.300       0.00000
      106.400       0.00000
      106.500       0.00000
      106.600       0.00000
      106.700       0.00000
      106.800       0.00000
      106.900       0.00000
      107.000       0.00000
      107.100       0.00000
      107.200       0.00000
      107.300       0.00000
      107.400       0.00000
      107.500       0.00000
      107.600       0.00000
      107.700       0.00000
      107.800       0.00000
      107.900       0.00000
      108.000       0.00000
      108.100       0.00000
      108.200       0.00000
      108.300       0.00000
      108.400       0.00000
      108.500       0.00000
      108.600       0.00000
      108.700       0.00000
      108.800       0.00000
      108.900       0.00000
      109.000       0.00000
      109.100       0.00000
      109.200       0.00000
      109.300       0.00000
      109.400       0.00000
      109.500       0.00000
      109.600       0.00000
      109.700       0.00000
      109.800       0.00000
      109.900       0.00000
      110.000       0.00000
      110.100       0.00000
      110.200       0.00000
      110.300       0.00000
      110.400       0.00000
      110.500       0.00000
      110.600   1.18816e-41
      110.700   3.06362e-29
      110.800   8.43867e-20
      110.900   3.01119e-15
      111.000   1.04525e-12
      111.100   3.76428e-11
      111.200   1.21491e-10
      111.300   2.31031e-10
      111.400   3.64328e-10
      111.500   4.05594e-10
      111.600   4.52203e-10
      111.700   5.61077e-10
      111.800   7.06254e-10
      111.900   7.81311e-10
      112.000   9.22779e-10
      112.100   1.14774e-09
      112.200   1.34555e-09
      112.300   1.47832e-09
      112.400   1.60617e-09
      112.500   1.78242e-09
      112.600   2.02598e-09
      112.700   2.27358e-09
      112.800   2.39701e-09
      112.900   2.63292e-09
      113.000   2.88852e-09
      113.100   3.08795e-09
      113.200   3.25225e-09
      113.300   3.27563e-09
      113.400   3.55299e-09
      113.500   3.84183e-09
      113.600   3.88492e-09
      113.700   4.15896e-09
      113.800   4.35901e-09
      113.900   4.53441e-09
      114.000   4.64251e-09
      114.100   4.71258e-09
      114.200   5.15441e-09
      114.300   5.44390e-09
      114.400   5.38510e-09
      114.500   5.21426e-09
      114.600   5.21280e-09
      114.700   5.24556e-09
      114.800   5.32970e-09
      114.900   5.53369e-09
      115.000   5.73045e-09
      115.100   5.85473e-09
      115.200   5.88847e-09
      115.300   5.92783e-09
      115.400   5.96207e-09
      115.500   5.99906e-09
      115.600   6.03390e-09
      115.700   6.06540e-09
      115.800   6.10161e-09
      115.900   6.13549e-09
      116.000   6.16645e-09
      116.100   6.18517e-09
      116.200   6.20115e-09
      116.300   6.21583e-09
      116.400   6.21984e-09
      116.500   6.17758e-09
      116.600   6.13414e-09
      116.700   6.09212e-09
      116.800   6.04899e-09
      116.900   6.00058e-09
      117.000   5.95875e-09
      117.100   5.93502e-09
      117.200   5.92392e-09
      117.300   5.90051e-09
      117.400   5.87634e-09
      117.500   5.84214e-09
      117.600   5.77996e-09
      117.700   5.70987e-09
      117.800   5.63694e-09
      117.900   5.56305e-09
      118.000   5.48667e-09
      118.100   5.40807e-09
      118.200   5.33308e-09
      118.300   5.26015e-09
      118.400   5.17587e-09
      118.500   5.09385e-09
      118.600   5.01853e-09
      118.700   4.94234e-09
      118.800   4.86461e-09
      118.900   4.78980e-09
      119.000   4.70981e-09
      119.100   4.62396e-09
      119.200   4.55963e-09
      119.300   4.52520e-09
      119.400   4.50010e-09
      119.500   4.46868e-09
      119.600   4.42232e-09
      119.700   4.36837e-09
      119.800   4.30579e-09
      119.900   4.23182e-09
      120.000   4.16256e-09
      120.100   4.09716e-09
      120.200   4.04716e-09
      120.300   4.00606e-09
      120.400   3.96521e-09
      120.500   3.91300e-09
      120.600   3.85246e-09
      120.700   3.78977e-09
      120.800   3.72963e-09
      120.900   3.68516e-09
      121.000   3.66435e-09
      121.100   3.64164e-09
      121.200   3.61401e-09
      121.300   3.57863e-09
      121.400   3.53729e-09
      121.500   3.49118e-09
      121.600   3.41303e-09
      121.700   3.33948e-09
      121.800   3.26082e-09
      121.900   3.18264e-09
      122.000   3.10156e-09
      122.100   3.02495e-09
      122.200   2.95016e-09
      122.300   2.89097e-09
      122.400   2.84812e-09
      122.500   2.80909e-09
      122.600   2.76861e-09
      122.700   2.72850e-09
      122.800   2.68554e-09
      122.900   2.64507e-09
      123.000   2.62227e-09
      123.100   2.62958e-09
      123.200   2.64363e-09
      123.300   2.68829e-09
      123.400   2.74548e-09
      123.500   2.82058e-09
      123.600   2.88408e-09
      123.700   2.90744e-09
      123.800   2.90719e-09
      123.900   2.91517e-09
      124.000   2.93639e-09
      124.100   3.00232e-09
      124.200   3.16854e-09
      124.300   3.42584e-09
      124.400   3.67125e-09
      124.500   3.73024e-09
      124.600   3.70029e-09
      124.700   3.64810e-09
      124.800   3.59758e-09
      124.900   3.54766e-09
      125.000   3.49825e-09
      125.100   3.44827e-09
      125.200   3.39884e-09
      125.300   3.35005e-09
      125.400   3.30194e-09
      125.500   3.25450e-09
      125.600   3.19399e-09
      125.700   3.13137e-09
      125.800   3.07796e-09
      125.900   3.05801e-09
      126.000   3.04047e-09
      126.100   3.02303e-09
      126.200   3.00569e-09
      126.300   2.98844e-09
      126.400   2.97128e-09
      126.500   2.95420e-09
      126.600   2.93722e-09
      126.700   2.92034e-09
      126.800   2.90356e-09
      126.900   2.88685e-09
      127.000   2.87015e-09
      127.100   2.84746e-09
      127.200   2.81799e-09
      127.300   2.78651e-09
      127.400   2.75535e-09
      127.500   2.72453e-09
      127.600   2.69403e-09
      127.700   2.66385e-09
      127.800   2.63398e-09
      127.900   2.60442e-09
      128.000   2.57518e-09
      128.100   2.54623e-09
      128.200   2.51758e-09
      128.300   2.48923e-09
      128.400   2.46119e-09
      128.500   2.43344e-09
      128.600   2.40598e-09
      128.700   2.37882e-09
      128.800   2.35193e-09
      128.900   2.32534e-09
      129.000   2.29904e-09
      129.100   2.27298e-09
      129.200   2.24706e-09
      129.300   2.22141e-09
      129.400   2.19604e-09
      129.500   2.17096e-09
      129.600   2.14616e-09
      129.700   2.12163e-09
      129.800   2.09736e-09
      129.900   2.07338e-09
      130.000   2.04966e-09
      130.100   2.02622e-09
      130.200   2.00303e-09
      130.300   1.98011e-09
      130.400   1.95745e-09
      130.500   1.93502e-09
      130.600   1.91277e-09
      130.700   1.89074e-09
      130.800   1.86896e-09
      130.900   1.84743e-09
      131.000   1.82614e-09
      131.100   1.80509e-09
      131.200   1.78426e-09
      131.300   1.76362e-09
      131.400   1.74321e-09
      131.500   1.72302e-09
      131.600   1.70306e-09
      131.700   1.68332e-09
      131.800   1.66378e-09
      131.900   1.64446e-09
      132.000   1.62535e-09
      132.100   1.60644e-09
      132.200   1.58775e-09
      132.300   1.56925e-09
      132.400   1.55096e-09
      132.500   1.53287e-09
      132.600   1.51499e-09
      132.700   1.49625e-09
      132.800   1.47738e-09
      132.900   1.45868e-09
      133.000   1.44020e-09
      133.100   1.42194e-09
      133.200   1.40391e-09
      133.300   1.38608e-09
      133.400   1.36847e-09
      133.500   1.35106e-09
      133.600   1.33387e-09
      133.700   1.31689e-09
      133.800   1.30012e-09
      133.900   1.28358e-09
      134.000   1.26724e-09
      134.100   1.25111e-09
      134.200   1.23518e-09
      134.300   1.21944e-09
      134.400   1.20390e-09
      134.500   1.18856e-09
      134.600   1.17341e-09
      134.700   1.15844e-09
      134.800   1.14367e-09
      134.900   1.12909e-09
      135.000   1.11469e-09
      135.100   1.10047e-09
      135.200   1.08644e-09
      135.300   1.07258e-09
      135.400   1.05889e-09
      135.500   1.04534e-09
      135.600   1.03192e-09
      135.700   1.01867e-09
      135.800   1.00559e-09
      135.900   9.92661e-10
      136.000   9.79890e-10
      136.100   9.67274e-10
      136.200   9.54828e-10
      136.300   9.42529e-10
      136.400   9.30385e-10
      136.500   9.18389e-10
      136.600   9.06535e-10
      136.700   8.94827e-10
      136.800   8.83262e-10
      136.900   8.71843e-10
      137.000   8.60570e-10
      137.100   8.49455e-10
      137.200   8.38480e-10
      137.300   8.27652e-10
      137.400   8.16960e-10
      137.500   8.06396e-10
      137.600   7.95960e-10
      137.700   7.85640e-10
      137.800   7.75441e-10
      137.900   7.65367e-10
      138.000   7.55422e-10
      138.100   7.45601e-10
      138.200   7.35918e-10
      138.300   7.26356e-10
      138.400   7.16918e-10
      138.500   7.07599e-10
      138.600   6.98397e-10
      138.700   6.89312e-10
      138.800   6.80343e-10
      138.900   6.71487e-10
      139.000   6.62743e-10
      139.100   6.54119e-10
      139.200   6.45650e-10
      139.300   6.37332e-10
      139.400   6.29131e-10
      139.500   6.21033e-10
      139.600   6.13032e-10
      139.700   6.05132e-10
      139.800   5.97330e-10
      139.900   5.89623e-10
      140.000   5.82016e-10
      140.100   5.74503e-10
      140.200   5.67084e-10
      140.300   5.59756e-10
      140.400   5.52517e-10
      140.500   5.45365e-10
      140.600   5.38299e-10
      140.700   5.31320e-10
      140.800   5.24438e-10
      140.900   5.17641e-10
      141.000   5.10924e-10
      141.100   5.04290e-10
      141.200   4.97738e-10
      141.300   4.91265e-10
      141.400   4.84890e-10
      141.500   4.78693e-10
      141.600   4.72638e-10
      141.700   4.66659e-10
      141.800   4.60752e-10
      141.900   4.54915e-10
      142.000   4.49148e-10
      142.100   4.43626e-10
      142.200   4.38675e-10
      142.300   4.34210e-10
      142.400   4.29793e-10
      142.500   4.25414e-10
      142.600   4.21075e-10
      142.700   4.16775e-10
      142.800   4.12516e-10
      142.900   4.08297e-10
      143.000   4.04116e-10
      143.100   3.99977e-10
      143.200   3.95880e-10
      143.300   3.91819e-10
      143.400   3.87799e-10
      143.500   3.83816e-10
      143.600   3.79869e-10
      143.700   3.75991e-10
      143.800   3.72568e-10
      143.900   3.69250e-10
      144.000   3.65965e-10
      144.100   3.62706e-10
      144.200   3.59474e-10
      144.300   3.56266e-10
      144.400   3.53122e-10
      144.500   3.50530e-10
      144.600   3.48120e-10
      144.700   3.45740e-10
      144.800   3.43370e-10
      144.900   3.41010e-10
      145.000   3.38660e-10
      145.100   3.36322e-10
      145.200   3.33993e-10
      145.300   3.31677e-10
      145.400   3.29370e-10
      145.500   3.27072e-10
      145.600   3.24784e-10
      145.700   3.22505e-10
      145.800   3.20238e-10
      145.900   3.17982e-10
      146.000   3.15734e-10
      146.100   3.13461e-10
      146.200   3.11176e-10
      146.300   3.08902e-10
      146.400   3.06638e-10
      146.500   3.04387e-10
      146.600   3.02147e-10
      146.700   2.99918e-10
      146.800   2.97682e-10
      146.900   2.95432e-10
      147.000   2.93193e-10
      147.100   2.90967e-10
      147.200   2.88754e-10
      147.300   2.86554e-10
      147.400   2.84367e-10
      147.500   2.82192e-10
      147.600   2.80029e-10
      147.700   2.77880e-10
      147.800   2.75745e-10
      147.900   2.73621e-10
      148.000   2.71509e-10
      148.100   2.69411e-10
      148.200   2.67326e-10
      148.300   2.65255e-10
      148.400   2.63595e-10
      148.500   2.62253e-10
      148.600   2.61022e-10
      148.700   2.59793e-10
      148.800   2.58566e-10
      148.900   2.57344e-10
      149.000   2.56126e-10
      149.100   2.54909e-10
      149.200   2.53695e-10
      149.300   2.52483e-10
      149.400   2.51273e-10
      149.500   2.50067e-10
      149.600   2.48863e-10
      149.700   2.47661e-10
      149.800   2.46462e-10
      149.900   2.45267e-10
      150.000   2.44075e-10
      150.100   2.42886e-10
      150.200   2.41696e-10
      150.300   2.40511e-10
      150.400   2.39328e-10
      150.500   2.38148e-10
      150.600   2.36971e-10
      150.700   2.35796e-10
      150.800   2.34622e-10
      150.900   2.33453e-10
      151.000   2.32283e-10
      151.100   2.31119e-10
      151.200   2.29956e-10
      151.300   2.28795e-10
      151.400   2.27637e-10
      151.500   2.26483e-10
      151.600   2.25333e-10
      151.700   2.24189e-10
      151.800   2.23049e-10
      151.900   2.21910e-10
      152.000   2.20858e-10
      152.100   2.20668e-10
      152.200   2.20586e-10
      152.300   2.20499e-10
      152.400   2.20408e-10
      152.500   2.20317e-10
      152.600   2.20222e-10
      152.700   2.19260e-10
      152.800   2.17989e-10
      152.900   2.16719e-10
      153.000   2.15453e-10
      153.100   2.14194e-10
      153.200   2.12938e-10
      153.300   2.11965e-10
      153.400   2.11262e-10
      153.500   2.10587e-10
      153.600   2.09915e-10
      153.700   2.09243e-10
      153.800   2.08571e-10
      153.900   2.07899e-10
      154.000   2.07252e-10
      154.100   2.06660e-10
      154.200   2.06085e-10
      154.300   2.05510e-10
      154.400   2.04936e-10
      154.500   2.04360e-10
      154.600   2.03784e-10
      154.700   2.03208e-10
      154.800   2.02633e-10
      154.900   2.02055e-10
      155.000   2.01477e-10
      155.100   2.00900e-10
      155.200   2.00320e-10
      155.300   1.99741e-10
      155.400   1.99161e-10
      155.500   1.98580e-10
      155.600   1.97998e-10
      155.700   1.97414e-10
      155.800   1.96831e-10
      155.900   1.96246e-10
      156.000   1.95661e-10
      156.100   1.95075e-10
      156.200   1.94487e-10
      156.300   1.93899e-10
      156.400   1.93310e-10
      156.500   1.92711e-10
      156.600   1.92069e-10
      156.700   1.91425e-10
      156.800   1.90780e-10
      156.900   1.90134e-10
      157.000   1.89490e-10
      157.100   1.88781e-10
      157.200   1.87640e-10
      157.300   1.86037e-10
      157.400   1.84447e-10
      157.500   1.82865e-10
      157.600   1.81295e-10
      157.700   1.79736e-10
      157.800   1.78188e-10
      157.900   1.77622e-10
      158.000   1.77143e-10
      158.100   1.76664e-10
      158.200   1.76183e-10
      158.300   1.75702e-10
      158.400   1.75222e-10
      158.500   1.74740e-10
      158.600   1.74257e-10
      158.700   1.73772e-10
      158.800   1.73289e-10
      158.900   1.72805e-10
      159.000   1.72320e-10
      159.100   1.71804e-10
      159.200   1.70942e-10
      159.300   1.69511e-10
      159.400   1.68092e-10
      159.500   1.66682e-10
      159.600   1.65282e-10
      159.700   1.63893e-10
      159.800   1.62512e-10
      159.900   1.61834e-10
      160.000   1.61631e-10
      160.100   1.61442e-10
      160.200   1.61251e-10
      160.300   1.61060e-10
      160.400   1.60867e-10
      160.500   1.60593e-10
      160.600   1.59863e-10
      160.700   1.58797e-10
      160.800   1.57736e-10
      160.900   1.56680e-10
      161.000   1.55629e-10
      161.100   1.54584e-10
      161.200   1.53545e-10
      161.300   1.52510e-10
      161.400   1.51480e-10
      161.500   1.50456e-10
      161.600   1.49437e-10
      161.700   1.48420e-10
      161.800   1.47409e-10
      161.900   1.46423e-10
      162.000   1.45613e-10
      162.100   1.44909e-10
      162.200   1.44206e-10
      162.300   1.43506e-10
      162.400   1.42806e-10
      162.500   1.42108e-10
      162.600   1.41412e-10
      162.700   1.40717e-10
      162.800   1.40024e-10
      162.900   1.39332e-10
      163.000   1.38643e-10
      163.100   1.37955e-10
      163.200   1.37268e-10
      163.300   1.36582e-10
      163.400   1.35899e-10
      163.500   1.35217e-10
      163.600   1.34537e-10
      163.700   1.33859e-10
      163.800   1.33183e-10
      163.900   1.32509e-10
      164.000   1.31836e-10
      164.100   1.31011e-10
      164.200   1.29769e-10
      164.300   1.28545e-10
      164.400   1.27331e-10
      164.500   1.26127e-10
      164.600   1.24934e-10
      164.700   1.23750e-10
      164.800   1.22721e-10
      164.900   1.22016e-10
      165.000   1.21442e-10
      165.100   1.20870e-10
      165.200   1.20299e-10
      165.300   1.19730e-10
      165.400   1.19164e-10
      165.500   1.18598e-10
      165.600   1.17630e-10
      165.700   1.16494e-10
      165.800   1.15354e-10
      165.900   1.14224e-10
      166.000   1.13105e-10
      166.100   1.11996e-10
      166.200   1.10897e-10
      166.300   1.09809e-10
      166.400   1.08729e-10
      166.500   1.07659e-10
      166.600   1.06599e-10
      166.700   1.05548e-10
      166.800   1.04505e-10
      166.900   1.03472e-10
      167.000   1.02450e-10
      167.100   1.01435e-10
      167.200   1.00429e-10
      167.300   9.94326e-11
      167.400   9.84449e-11
      167.500   9.74655e-11
      167.600   9.64950e-11
      167.700   9.55333e-11
      167.800   9.45801e-11
      167.900   9.36351e-11
      168.000   9.26985e-11
      168.100   9.17702e-11
      168.200   9.08500e-11
      168.300   8.99379e-11
      168.400   8.90340e-11
      168.500   8.81461e-11
      168.600   8.74574e-11
      168.700   8.68747e-11
      168.800   8.62951e-11
      168.900   8.57186e-11
      169.000   8.51453e-11
      169.100   8.45741e-11
      169.200   8.40066e-11
      169.300   8.34417e-11
      169.400   8.28796e-11
      169.500   8.23157e-11
      169.600   8.17353e-11
      169.700   8.11363e-11
      169.800   8.05342e-11
      169.900   7.99347e-11
      170.000   7.93382e-11
      170.100   7.84759e-11
      170.200   7.72286e-11
      170.300   1.00612e-10
      170.400   2.16051e-10
      170.500   4.09253e-10
      170.600   6.02101e-10
      170.700   7.55678e-10
      170.800   8.26112e-10
      170.900   8.29720e-10
      171.000   8.18489e-10
      171.100   8.07698e-10
      171.200   7.96999e-10
      171.300   7.86389e-10
      171.400   7.75873e-10
      171.500   7.65450e-10
      171.600   7.55122e-10
      171.700   7.44899e-10
      171.800   7.34783e-10
      171.900   7.24779e-10
      172.000   7.14899e-10
      172.100   7.05141e-10
      172.200   6.95516e-10
      172.300   6.85998e-10
      172.400   6.76474e-10
      172.500   6.67060e-10
      172.600   6.57783e-10
      172.700   6.48645e-10
      172.800   6.39638e-10
      172.900   6.30763e-10
      173.000   6.22026e-10
      173.100   6.13420e-10
      173.200   6.04940e-10
      173.300   5.96590e-10
      173.400   5.88360e-10
      173.500   5.80257e-10
      173.600   5.72277e-10
      173.700   5.64413e-10
      173.800   5.56669e-10
      173.900   5.49040e-10
      174.000   5.41519e-10
      174.100   5.34110e-10
      174.200   5.26808e-10
      174.300   5.19609e-10
      174.400   5.12513e-10
      174.500   5.05514e-10
      174.600   4.98611e-10
      174.700   4.91806e-10
      174.800   4.85094e-10
      174.900   4.78471e-10
      175.000   4.71934e-10
      175.100   4.65482e-10
      175.200   4.59136e-10
      175.300   4.52868e-10
      175.400   4.46682e-10
      175.500   4.40581e-10
      175.600   4.34558e-10
      175.700   4.28617e-10
      175.800   4.22752e-10
      175.900   4.16965e-10
      176.000   4.11254e-10
      176.100   4.05621e-10
      176.200   4.00062e-10
      176.300   3.94576e-10
      176.400   3.89164e-10
      176.500   3.83812e-10
      176.600   3.76368e-10
      176.700   3.68049e-10
      176.800   3.59908e-10
      176.900   3.51943e-10
      177.000   3.44148e-10
      177.100   3.36520e-10
      177.200   3.29058e-10
      177.300   3.21756e-10
      177.400   3.14608e-10
      177.500   3.07613e-10
      177.600   3.00768e-10
      177.700   2.94072e-10
      177.800   2.87520e-10
      177.900   2.81104e-10
      178.000   2.74845e-10
      178.100   2.68723e-10
      178.200   2.62730e-10
      178.300   2.56865e-10
      178.400   2.51129e-10
      178.500   2.45515e-10
      178.600   2.40129e-10
      178.700   2.35441e-10
      178.800   2.31759e-10
      178.900   2.28131e-10
      179.000   2.24557e-10
      179.100   2.21036e-10
      179.200   2.17569e-10
      179.300   2.14154e-10
      179.400   2.10790e-10
      179.500   2.07480e-10
      179.600   2.04220e-10
      179.700   2.01012e-10
      179.800   1.97852e-10
      179.900   1.94742e-10
      180.000   1.91680e-10
      180.100   1.88666e-10
      180.200   1.85702e-10
      180.300   1.82784e-10
      180.400   1.79912e-10
      180.500   1.77087e-10
      180.600   1.74307e-10
      180.700   1.71571e-10
      180.800   1.68880e-10
      180.900   1.66232e-10
      181.000   1.63625e-10
      181.100   1.61061e-10
      181.200   1.58539e-10
      181.300   1.56057e-10
      181.400   1.53615e-10
      181.500   1.51213e-10
      181.600   1.48849e-10
      181.700   1.46523e-10
      181.800   1.44234e-10
      181.900   1.41981e-10
      182.000   1.39766e-10
      182.100   1.37584e-10
      182.200   1.35455e-10
      182.300   1.33508e-10
      182.400   1.31600e-10
      182.500   1.29719e-10
      182.600   1.27865e-10
      182.700   1.26038e-10
      182.800   1.24237e-10
      182.900   1.22461e-10
      183.000   1.20711e-10
      183.100   1.18986e-10
      183.200   1.17286e-10
      183.300   1.15609e-10
      183.400   1.13956e-10
      183.500   1.12326e-10
      183.600   1.10719e-10
      183.700   1.09135e-10
      183.800   1.07575e-10
      183.900   1.06038e-10
      184.000   1.04522e-10
      184.100   1.03028e-10
      184.200   1.01555e-10
      184.300   1.00103e-10
      184.400   9.86728e-11
      184.500   9.72624e-11
      184.600   9.58715e-11
      184.700   9.45005e-11
      184.800   9.31492e-11
      184.900   9.18168e-11
      185.000   9.05032e-11
      185.100   8.92217e-11
      185.200   8.80263e-11
      185.300   8.69361e-11
      185.400   8.58588e-11
      185.500   8.47944e-11
      185.600   8.37429e-11
      185.700   8.27040e-11
      185.800   8.16786e-11
      185.900   8.06654e-11
      186.000   7.96645e-11
      186.100   7.86753e-11
      186.200   7.76977e-11
      186.300   7.67314e-11
      186.400   7.57769e-11
      186.500   7.48336e-11
      186.600   7.39010e-11
      186.700   7.29789e-11
      186.800   7.20673e-11
      186.900   7.11666e-11
      187.000   7.02762e-11
      187.100   6.93955e-11
      187.200   6.85256e-11
      187.300   6.76662e-11
      187.400   6.68165e-11
      187.500   6.59767e-11
      187.600   6.51467e-11
      187.700   6.43263e-11
      187.800   6.35155e-11
      187.900   6.27142e-11
      188.000   6.19225e-11
      188.100   6.11041e-11
      188.200   6.01703e-11
      188.300   5.90921e-11
      188.400   5.80325e-11
      188.500   5.69915e-11
      188.600   5.59690e-11
      188.700   5.49648e-11
      188.800   5.39786e-11
      188.900   5.30097e-11
      189.000   5.20576e-11
      189.100   5.11221e-11
      189.200   5.02030e-11
      189.300   4.93004e-11
      189.400   4.84138e-11
      189.500   4.75472e-11
      189.600   4.67578e-11
      189.700   4.62199e-11
      189.800   4.56923e-11
      189.900   4.51713e-11
      190.000   4.46566e-11
      190.100   4.41481e-11
      190.200   4.36455e-11
      190.300   4.31488e-11
      190.400   4.26578e-11
      190.500   4.21726e-11
      190.600   4.16932e-11
      190.700   4.12193e-11
      190.800   4.07510e-11
      190.900   4.02883e-11
      191.000   3.98312e-11
      191.100   3.93796e-11
      191.200   3.89331e-11
      191.300   3.84918e-11
      191.400   3.80558e-11
      191.500   3.76247e-11
      191.600   3.71987e-11
      191.700   3.67775e-11
      191.800   3.63610e-11
      191.900   3.59493e-11
      192.000   3.55426e-11
      192.100   3.51404e-11
      192.200   3.47435e-11
      192.300   3.43508e-11
      192.400   3.39626e-11
      192.500   3.35556e-11
      192.600   3.30779e-11
      192.700   3.25465e-11
      192.800   3.20235e-11
      192.900   3.15085e-11
      193.000   3.10018e-11
      193.100   3.05036e-11
      193.200   3.00136e-11
      193.300   2.95317e-11
      193.400   2.90575e-11
      193.500   2.85909e-11
      193.600   2.81317e-11
      193.700   2.76798e-11
      193.800   2.72352e-11
      193.900   2.67980e-11
      194.000   2.63753e-11
      194.100   2.61108e-11
      194.200   2.59005e-11
      194.300   2.56956e-11
      194.400   2.54924e-11
      194.500   2.52911e-11
      194.600   2.50914e-11
      194.700   2.48933e-11
      194.800   2.46970e-11
      194.900   2.45022e-11
      195.000   2.43090e-11
      195.100   2.41176e-11
      195.200   2.39276e-11
      195.300   2.37392e-11
      195.400   2.35521e-11
      195.500   2.33638e-11
      195.600   2.31045e-11
      195.700   2.27270e-11
      195.800   2.23554e-11
      195.900   2.19897e-11
      196.000   2.16259e-11
      196.100   2.12678e-11
      196.200   2.09155e-11
      196.300   2.05687e-11
      196.400   2.02274e-11
      196.500   1.98913e-11
      196.600   1.95606e-11
      196.700   1.92351e-11
      196.800   1.89150e-11
      196.900   1.86001e-11
      197.000   1.82904e-11
      197.100   1.79854e-11
      197.200   1.76852e-11
      197.300   1.73897e-11
      197.400   1.70986e-11
      197.500   1.68123e-11
      197.600   1.65304e-11
      197.700   1.62535e-11
      197.800   1.59810e-11
      197.900   1.57128e-11
      198.000   1.54488e-11
      198.100   1.51890e-11
      198.200   1.49333e-11
      198.300   1.46816e-11
      198.400   1.44341e-11
      198.500   1.41908e-11
      198.600   1.39516e-11
      198.700   1.37369e-11
      198.800   1.35546e-11
      198.900   1.33889e-11
      199.000   1.32250e-11
      199.100   1.30631e-11
      199.200   1.29031e-11
      199.300   1.27452e-11
      199.400   1.25891e-11
      199.500   1.24350e-11
      199.600   1.22826e-11
      199.700   1.21321e-11
      199.800   1.19834e-11
      199.900   1.18364e-11
      200.000   1.16912e-11
      200.100   1.15484e-11
      200.200   1.14069e-11
      200.300   1.12672e-11
      200.400   1.11291e-11
      200.500   1.09926e-11
      200.600   1.08579e-11
      200.700   1.07248e-11
      200.800   1.05933e-11
      200.900   1.04635e-11
      201.000   1.03352e-11
      201.100   1.02086e-11
      201.200   1.00836e-11
      201.300   9.96002e-12
      201.400   9.83804e-12
      201.500   9.71752e-12
      201.600   9.59845e-12
      201.700   9.48089e-12
      201.800   9.36474e-12
      201.900   9.24725e-12
      202.000   9.08644e-12
      202.100   8.90713e-12
      202.200   8.73140e-12
      202.300   8.55979e-12
      202.400   8.39290e-12
      202.500   8.22964e-12
      202.600   8.06943e-12
      202.700   7.91240e-12
      202.800   7.75844e-12
      202.900   7.60756e-12
      203.000   7.45962e-12
      203.100   7.31464e-12
      203.200   7.17236e-12
      203.300   7.03281e-12
      203.400   6.89598e-12
      203.500   6.76183e-12
      203.600   6.63471e-12
      203.700   6.52244e-12
      203.800   6.41373e-12
      203.900   6.30693e-12
      204.000   6.20192e-12
      204.100   6.09868e-12
      204.200   5.99722e-12
      204.300   5.89745e-12
      204.400   5.79938e-12
      204.500   5.70296e-12
      204.600   5.60816e-12
      204.700   5.51496e-12
      204.800   5.42343e-12
      204.900   5.33347e-12
      205.000   5.24503e-12
      205.100   5.15810e-12
      205.200   5.07260e-12
      205.300   4.98858e-12
      205.400   4.90597e-12
      205.500   4.82472e-12
      205.600   4.74482e-12
      205.700   4.66550e-12
      205.800   4.58731e-12
      205.900   4.51048e-12
      206.000   4.43500e-12
      206.100   4.36077e-12
      206.200   4.28774e-12
      206.300   4.21597e-12
      206.400   4.14542e-12
      206.500   4.07600e-12
      206.600   4.00774e-12
      206.700   3.94063e-12
      206.800   3.87460e-12
      206.900   3.80965e-12
      207.000   3.74579e-12
      207.100   3.68301e-12
      207.200   3.62130e-12
      207.300   3.56057e-12
      207.400   3.50082e-12
      207.500   3.44205e-12
      207.600   3.38425e-12
      207.700   3.32736e-12
      207.800   3.27140e-12
      207.900   3.21635e-12
      208.000   3.16220e-12
      208.100   3.10892e-12
      208.200   3.05651e-12
      208.300   3.00495e-12
      208.400   2.95425e-12
      208.500   2.90439e-12
      208.600   2.85531e-12
      208.700   2.80702e-12
      208.800   2.75952e-12
      208.900   2.71120e-12
      209.000   2.65685e-12
      209.100   2.59899e-12
      209.200   2.54236e-12
      209.300   2.48689e-12
      209.400   2.43262e-12
      209.500   2.37948e-12
      209.600   2.32746e-12
      209.700   2.27656e-12
      209.800   2.22681e-12
      209.900   2.17806e-12
      210.000   2.13038e-12
      210.100   2.08370e-12
      210.200   2.03801e-12
      210.300   1.99330e-12
      210.400   1.94954e-12
      210.500   1.90670e-12
      210.600   1.86479e-12
      210.700   1.82377e-12
      210.800   1.78363e-12
      210.900   1.74435e-12
      211.000   1.70590e-12
      211.100   1.66829e-12
      211.200   1.63149e-12
      211.300   1.59551e-12
      211.400   1.56032e-12
      211.500   1.52587e-12
      211.600   1.49217e-12
      211.700   1.45921e-12
      211.800   1.42693e-12
      211.900   1.39535e-12
      212.000   1.36448e-12
      212.100   1.33426e-12
      212.200   1.30469e-12
      212.300   1.27458e-12
      212.400   1.24172e-12
      212.500   1.20833e-12
      212.600   1.17582e-12
      212.700   1.14416e-12
      212.800   1.11334e-12
      212.900   1.08334e-12
      213.000   1.05412e-12
      213.100   1.02570e-12
      213.200   9.98025e-13
      213.300   9.71086e-13
      213.400   9.44852e-13
      213.500   9.19313e-13
      213.600   8.94447e-13
      213.700   8.70245e-13
      213.800   8.46677e-13
      213.900   8.23748e-13
      214.000   8.01421e-13
      214.100   7.80046e-13
      214.200   7.63550e-13
      214.300   7.50235e-13
      214.400   7.37151e-13
      214.500   7.24292e-13
      214.600   7.11660e-13
      214.700   6.99249e-13
      214.800   6.87054e-13
      214.900   6.75076e-13
      215.000   6.63302e-13
      215.100   6.51736e-13
      215.200   6.40380e-13
      215.300   6.29227e-13
      215.400   6.18268e-13
      215.500   6.07501e-13
      215.600   5.96932e-13
      215.700   5.86542e-13
      215.800   5.76333e-13
      215.900   5.66311e-13
      216.000   5.55601e-13
      216.100   5.43029e-13
      216.200   5.29966e-13
      216.300   5.17218e-13
      216.400   5.04778e-13
      216.500   4.92631e-13
      216.600   4.80780e-13
      216.700   4.69217e-13
      216.800   4.57929e-13
      216.900   4.46915e-13
      217.000   4.36166e-13
      217.100   4.25672e-13
      217.200   4.15432e-13
      217.300   4.05440e-13
      217.400   3.95686e-13
      217.500   3.86171e-13
      217.600   3.76879e-13
      217.700   3.67808e-13
      217.800   3.58959e-13
      217.900   3.50292e-13
      218.000   3.40989e-13
      218.100   3.31929e-13
      218.200   3.23109e-13
      218.300   3.14525e-13
      218.400   3.06175e-13
      218.500   2.98041e-13
      218.600   2.90123e-13
      218.700   2.82412e-13
      218.800   2.74902e-13
      218.900   2.67593e-13
      219.000   2.60471e-13
      219.100   2.53536e-13
      219.200   2.46784e-13
      219.300   2.40210e-13
      219.400   2.33806e-13
      219.500   2.27571e-13
      219.600   2.21499e-13
      219.700   2.15586e-13
      219.800   2.09830e-13
      219.900   2.04223e-13
      220.000   1.98761e-13
      220.100   1.93444e-13
      220.200   1.88266e-13
      220.300   1.83224e-13
      220.400   1.78314e-13
      220.500   1.73534e-13
      220.600   1.68880e-13
      220.700   1.64346e-13
      220.800   1.59930e-13
      220.900   1.55634e-13
      221.000   1.51448e-13
      221.100   1.47372e-13
      221.200   1.43405e-13
      221.300   1.39542e-13
      221.400   1.35780e-13
      221.500   1.32118e-13
      221.600   1.28552e-13
      221.700   1.25080e-13
      221.800   1.21925e-13
      221.900   1.19441e-13
      222.000   1.17173e-13
      222.100   1.14945e-13
      222.200   1.12760e-13
      222.300   1.10614e-13
      222.400   1.08509e-13
      222.500   1.06443e-13
      222.600   1.04416e-13
      222.700   1.02426e-13
      222.800   1.00472e-13
      222.900   9.85555e-14
      223.000   9.66742e-14
      223.100   9.48275e-14
      223.200   9.30158e-14
      223.300   9.12374e-14
      223.400   8.94926e-14
      223.500   8.77796e-14
      223.600   8.60995e-14
      223.700   8.44504e-14
      223.800   8.28018e-14
      223.900   8.09760e-14
      224.000   7.91590e-14
      224.100   7.73820e-14
      224.200   7.56439e-14
      224.300   7.39441e-14
      224.400   7.22809e-14
      224.500   7.06551e-14
      224.600   6.90643e-14
      224.700   6.75093e-14
      224.800   6.59878e-14
      224.900   6.44995e-14
      225.000   6.30443e-14
      225.100   6.16209e-14
      225.200   6.02286e-14
      225.300   5.88679e-14
      225.400   5.75362e-14
      225.500   5.62341e-14
      225.600   5.49606e-14
      225.700   5.37158e-14
      225.800   5.24979e-14
      225.900   5.15955e-14
      226.000   5.08258e-14
      226.100   5.00793e-14
      226.200   4.93437e-14
      226.300   4.86218e-14
      226.400   4.79124e-14
      226.500   4.72119e-14
      226.600   4.65203e-14
      226.700   4.58381e-14
      226.800   4.51650e-14
      226.900   4.45015e-14
      227.000   4.38472e-14
      227.100   4.32022e-14
      227.200   4.25669e-14
      227.300   4.19406e-14
      227.400   4.13234e-14
      227.500   4.07152e-14
      227.600   4.01158e-14
      227.700   3.95252e-14
      227.800   3.89433e-14
      227.900   3.83223e-14
      228.000   3.75877e-14
      228.100   3.67970e-14
      228.200   3.60226e-14
      228.300   3.52645e-14
      228.400   3.45224e-14
      228.500   3.37956e-14
      228.600   3.30843e-14
      228.700   3.23879e-14
      228.800   3.17058e-14
      228.900   3.10385e-14
      229.000   3.03851e-14
      229.100   2.97453e-14
      229.200   2.91191e-14
      229.300   2.85061e-14
      229.400   2.79060e-14
      229.500   2.73186e-14
      229.600   2.67436e-14
      229.700   2.61807e-14
      229.800   2.56297e-14
      229.900   2.50904e-14
      230.000   2.45566e-14
      230.100   2.39893e-14
      230.200   2.34079e-14
      230.300   2.28410e-14
      230.400   2.22875e-14
      230.500   2.17476e-14
      230.600   2.12210e-14
      230.700   2.07070e-14
      230.800   2.02055e-14
      230.900   1.97162e-14
      231.000   1.92386e-14
      231.100   1.87726e-14
      231.200   1.83179e-14
      231.300   1.78743e-14
      231.400   1.74415e-14
      231.500   1.70190e-14
      231.600   1.66066e-14
      231.700   1.62043e-14
      231.800   1.58118e-14
      231.900   1.54286e-14
      232.000   1.50548e-14
      232.100   1.46899e-14
      232.200   1.43815e-14
      232.300   1.41467e-14
      232.400   1.39335e-14
      232.500   1.37236e-14
      232.600   1.35170e-14
      232.700   1.33135e-14
      232.800   1.31131e-14
      232.900   1.29156e-14
      233.000   1.27210e-14
      233.100   1.25294e-14
      233.200   1.23407e-14
      233.300   1.21549e-14
      233.400   1.19720e-14
      233.500   1.17918e-14
      233.600   1.16144e-14
      233.700   1.14397e-14
      233.800   1.12632e-14
      233.900   1.10888e-14
      234.000   1.09171e-14
      234.100   1.07480e-14
      234.200   1.05817e-14
      234.300   1.04178e-14
      234.400   1.02565e-14
      234.500   1.00978e-14
      234.600   9.94142e-15
      234.700   9.78754e-15
      234.800   9.63608e-15
      234.900   9.48691e-15
      235.000   9.34003e-15
      235.100   9.19543e-15
      235.200   9.05308e-15
      235.300   8.91295e-15
      235.400   8.77492e-15
      235.500   8.63908e-15
      235.600   8.50537e-15
      235.700   8.37364e-15
      235.800   8.24405e-15
      235.900   8.11646e-15
      236.000   7.99087e-15
      236.100   7.86716e-15
      236.200   7.74536e-15
      236.300   7.62543e-15
      236.400   7.50738e-15
      236.500   7.39112e-15
      236.600   7.28176e-15
      236.700   7.18523e-15
      236.800   7.09706e-15
      236.900   7.00994e-15
      237.000   6.92386e-15
      237.100   6.83884e-15
      237.200   6.75483e-15
      237.300   6.67185e-15
      237.400   6.58985e-15
      237.500   6.50886e-15
      237.600   6.42871e-15
      237.700   6.34961e-15
      237.800   6.27148e-15
      237.900   6.19422e-15
      238.000   6.11793e-15
      238.100   6.04252e-15
      238.200   5.96802e-15
      238.300   5.89441e-15
      238.400   5.82164e-15
      238.500   5.74974e-15
      238.600   5.67871e-15
      238.700   5.60853e-15
      238.800   5.53916e-15
      238.900   5.47487e-15
      239.000   5.42621e-15
      239.100   5.37966e-15
      239.200   5.33350e-15
      239.300   5.28767e-15
      239.400   5.24221e-15
      239.500   5.19711e-15
      239.600   5.15232e-15
      239.700   5.10790e-15
      239.800   5.06383e-15
      239.900   5.02010e-15
      240.000   4.97668e-15
      240.100   4.93360e-15
      240.200   4.89085e-15
      240.300   4.84843e-15
      240.400   4.80634e-15
      240.500   4.76457e-15
      240.600   4.72315e-15
      240.700   4.68201e-15
      240.800   4.64118e-15
      240.900   4.60069e-15
      241.000   4.56051e-15
      241.100   4.52065e-15
      241.200   4.48111e-15
      241.300   4.44186e-15
      241.400   4.40293e-15
      241.500   4.36430e-15
      241.600   4.32599e-15
      241.700   4.28798e-15
      241.800   4.25025e-15
      241.900   4.21284e-15
      242.000   4.17573e-15
      242.100   4.13893e-15
      242.200   4.10244e-15
      242.300   4.06627e-15
      242.400   4.03038e-15
      242.500   3.99479e-15
      242.600   3.95948e-15
      242.700   3.92447e-15
      242.800   3.88978e-15
      242.900   3.85537e-15
      243.000   3.82124e-15
      243.100   3.78740e-15
      243.200   3.75385e-15
      243.300   3.72058e-15
      243.400   3.68761e-15
      243.500   3.65493e-15
      243.600   3.62255e-15
      243.700   3.59044e-15
      243.800   3.55861e-15
      243.900   3.52707e-15
      244.000   3.49579e-15
      244.100   3.46481e-15
      244.200   3.43410e-15
      244.300   3.40365e-15
      244.400   3.37347e-15
      244.500   3.34358e-15
      244.600   3.31394e-15
      244.700   3.28458e-15
      244.800   3.25551e-15
      244.900   3.22668e-15
      245.000   3.19811e-15
      245.100   3.16980e-15
      245.200   3.14176e-15
      245.300   3.11397e-15
      245.400   3.08643e-15
      245.500   3.05914e-15
      245.600   3.03211e-15
      245.700   3.00531e-15
      245.800   2.97877e-15
      245.900   2.95248e-15
      246.000   2.92644e-15
      246.100   2.90064e-15
      246.200   2.87507e-15
      246.300   2.84974e-15
      246.400   2.82466e-15
      246.500   2.79980e-15
      246.600   2.77516e-15
      246.700   2.75076e-15
      246.800   2.72658e-15
      246.900   2.70263e-15
      247.000   2.67890e-15
      247.100   2.65538e-15
      247.200   2.63211e-15
      247.300   2.60905e-15
      247.400   2.58620e-15
      247.500   2.56356e-15
      247.600   2.54112e-15
      247.700   2.51889e-15
      247.800   2.49688e-15
      247.900   2.47505e-15
      248.000   2.45345e-15
      248.100   2.43206e-15
      248.200   2.41087e-15
      248.300   2.38987e-15
      248.400   2.36905e-15
      248.500   2.34277e-15
      248.600   2.30738e-15
      248.700   2.26651e-15
      248.800   2.22635e-15
      248.900   2.18693e-15
      249.000   2.14819e-15
      249.100   2.11020e-15
      249.200   2.07290e-15
      249.300   2.03626e-15
      249.400   2.00026e-15
      249.500   1.96490e-15
      249.600   1.93016e-15
      249.700   1.89603e-15
      249.800   1.86251e-15
      249.900   1.82957e-15
      250.000   1.79723e-15
      250.100   1.76550e-15
      250.200   1.73432e-15
      250.300   1.70373e-15
      250.400   1.67367e-15
      250.500   1.64414e-15
      250.600   1.61514e-15
      250.700   1.58665e-15
      250.800   1.55866e-15
      250.900   1.53117e-15
      251.000   1.50416e-15
      251.100   1.47763e-15
      251.200   1.45158e-15
      251.300   1.42601e-15
      251.400   1.40090e-15
      251.500   1.37623e-15
      251.600   1.34254e-15
      251.700   1.29155e-15
      251.800   1.23986e-15
      251.900   1.19019e-15
      252.000   1.14245e-15
      252.100   1.09660e-15
      252.200   1.05254e-15
      252.300   1.01026e-15
      252.400   9.69689e-16
      252.500   9.30733e-16
      252.600   8.95291e-16
      252.700   8.73031e-16
      252.800   8.63440e-16
      252.900   8.53960e-16
      253.000   8.44582e-16
      253.100   8.35308e-16
      253.200   8.26139e-16
      253.300   8.17252e-16
      253.400   8.08543e-16
      253.500   7.99937e-16
      253.600   7.91423e-16
      253.700   7.82859e-16
      253.800   7.73714e-16
      253.900   7.64544e-16
      254.000   7.55481e-16
      254.100   7.46522e-16
      254.200   7.37667e-16
      254.300   7.28917e-16
      254.400   7.20270e-16
      254.500   7.11725e-16
      254.600   7.03274e-16
      254.700   6.94928e-16
      254.800   6.86682e-16
      254.900   6.78530e-16
      255.000   6.70473e-16
      255.100   6.62503e-16
      255.200   6.54629e-16
      255.300   6.46845e-16
      255.400   6.39151e-16
      255.500   6.31544e-16
      255.600   6.24026e-16
      255.700   6.16594e-16
      255.800   6.09245e-16
      255.900   6.01980e-16
      256.000   5.94796e-16
      256.100   5.87700e-16
      256.200   5.80684e-16
      256.300   5.73746e-16
      256.400   5.66896e-16
      256.500   5.60116e-16
      256.600   5.53415e-16
      256.700   5.46789e-16
      256.800   5.40240e-16
      256.900   5.32541e-16
      257.000   5.22987e-16
      257.100   5.12989e-16
      257.200   5.03181e-16
      257.300   4.93553e-16
      257.400   4.84173e-16
      257.500   4.74992e-16
      257.600   4.65989e-16
      257.700   4.57154e-16
      257.800   4.48478e-16
      257.900   4.39965e-16
      258.000   4.31609e-16
      258.100   4.23405e-16
      258.200   4.15354e-16
      258.300   4.07454e-16
      258.400   3.99695e-16
      258.500   3.92080e-16
      258.600   3.84608e-16
      258.700   3.77273e-16
      258.800   3.70073e-16
      258.900   3.63011e-16
      259.000   3.56075e-16
      259.100   3.49271e-16
      259.200   3.42593e-16
      259.300   3.36046e-16
      259.400   3.29617e-16
      259.500   3.23309e-16
      259.600   3.17119e-16
      259.700   3.11046e-16
      259.800   3.05084e-16
      259.900   2.99232e-16
      260.000   2.93491e-16
      260.100   2.87486e-16
      260.200   2.81140e-16
      260.300   2.74848e-16
      260.400   2.68694e-16
      260.500   2.62676e-16
      260.600   2.56787e-16
      260.700   2.51027e-16
      260.800   2.45399e-16
      260.900   2.39890e-16
      261.000   2.34505e-16
      261.100   2.29240e-16
      261.200   2.24064e-16
      261.300   2.19001e-16
      261.400   2.14051e-16
      261.500   2.09216e-16
      261.600   2.04505e-16
      261.700   1.99901e-16
      261.800   1.95399e-16
      261.900   1.90996e-16
      262.000   1.86690e-16
      262.100   1.82480e-16
      262.200   1.78365e-16
      262.300   1.74340e-16
      262.400   1.70405e-16
      262.500   1.66556e-16
      262.600   1.62793e-16
      262.700   1.59114e-16
      262.800   1.55518e-16
      262.900   1.52000e-16
      263.000   1.48563e-16
      263.100   1.45202e-16
      263.200   1.41919e-16
      263.300   1.38708e-16
      263.400   1.35569e-16
      263.500   1.32501e-16
      263.600   1.29501e-16
      263.700   1.26568e-16
      263.800   1.23701e-16
      263.900   1.20900e-16
      264.000   1.18160e-16
      264.100   1.15481e-16
      264.200   1.12862e-16
      264.300   1.10304e-16
      264.400   1.07802e-16
      264.500   1.05357e-16
      264.600   1.02965e-16
      264.700   1.00629e-16
      264.800   9.83440e-17
      264.900   9.61119e-17
      265.000   9.39298e-17
      265.100   9.17959e-17
      265.200   8.97107e-17
      265.300   8.76725e-17
      265.400   8.56553e-17
      265.500   8.36743e-17
      265.600   8.17395e-17
      265.700   7.98476e-17
      265.800   7.80021e-17
      265.900   7.61982e-17
      266.000   7.44371e-17
      266.100   7.27162e-17
      266.200   7.10353e-17
      266.300   6.93923e-17
      266.400   6.77880e-17
      266.500   6.62199e-17
      266.600   6.46882e-17
      266.700   6.31918e-17
      266.800   6.17307e-17
      266.900   6.03027e-17
      267.000   5.89074e-17
      267.100   5.75442e-17
      267.200   5.62135e-17
      267.300   5.49132e-17
      267.400   5.36423e-17
      267.500   5.24010e-17
      267.600   5.11886e-17
      267.700   5.00042e-17
      267.800   4.88467e-17
      267.900   4.77165e-17
      268.000   4.66125e-17
      268.100   4.55338e-17
      268.200   4.44803e-17
      268.300   4.34516e-17
      268.400   4.24458e-17
      268.500   4.14637e-17
      268.600   4.05040e-17
      268.700   3.95670e-17
      268.800   3.86515e-17
      268.900   3.77573e-17
      269.000   3.68839e-17
      269.100   3.60306e-17
      269.200   3.51972e-17
      269.300   3.43830e-17
      269.400   3.35872e-17
      269.500   3.28103e-17
      269.600   3.20514e-17
      269.700   3.12058e-17
      269.800   3.03571e-17
      269.900   2.95305e-17
      270.000   2.87265e-17
      270.100   2.79445e-17
      270.200   2.71844e-17
      270.300   2.64446e-17
      270.400   2.57248e-17
      270.500   2.50246e-17
      270.600   2.43432e-17
      270.700   2.36803e-17
      270.800   2.30357e-17
      270.900   2.24081e-17
      271.000   2.17978e-17
      271.100   2.12038e-17
      271.200   2.06258e-17
      271.300   2.00638e-17
      271.400   1.95167e-17
      271.500   1.89847e-17
      271.600   1.84667e-17
      271.700   1.79631e-17
      271.800   1.74730e-17
      271.900   1.69962e-17
      272.000   1.65325e-17
      272.100   1.60811e-17
      272.200   1.56420e-17
      272.300   1.52147e-17
      272.400   1.47990e-17
      272.500   1.43947e-17
      272.600   1.40012e-17
      272.700   1.36183e-17
      272.800   1.32616e-17
      272.900   1.29601e-17
      273.000   1.26863e-17
      273.100   1.24182e-17
      273.200   1.21558e-17
      273.300   1.18989e-17
      273.400   1.16474e-17
      273.500   1.14012e-17
      273.600   1.11601e-17
      273.700   1.09240e-17
      273.800   1.06930e-17
      273.900   1.04326e-17
      274.000   1.01113e-17
      274.100   9.79909e-18
      274.200   9.49635e-18
      274.300   9.20287e-18
      274.400   8.91732e-18
      274.500   8.63804e-18
      274.600   8.36687e-18
      274.700   8.10420e-18
      274.800   7.84954e-18
      274.900   7.60272e-18
      275.000   7.36358e-18
      275.100   7.13185e-18
      275.200   6.90731e-18
      275.300   6.68966e-18
      275.400   6.47884e-18
      275.500   6.27456e-18
      275.600   6.07650e-18
      275.700   5.88469e-18
      275.800   5.69888e-18
      275.900   5.51876e-18
      276.000   5.35592e-18
      276.100   5.22873e-18
      276.200   5.11060e-18
      276.300   4.99507e-18
      276.400   4.88213e-18
      276.500   4.77166e-18
      276.600   4.66369e-18
      276.700   4.55808e-18
      276.800   4.45488e-18
      276.900   4.35391e-18
      277.000   4.25523e-18
      277.100   4.15871e-18
      277.200   4.06436e-18
      277.300   3.97211e-18
      277.400   3.88191e-18
      277.500   3.79369e-18
      277.600   3.70748e-18
      277.700   3.62315e-18
      277.800   3.54070e-18
      277.900   3.46012e-18
      278.000   3.38134e-18
      278.100   3.30257e-18
      278.200   3.20556e-18
      278.300   3.10654e-18
      278.400   3.01052e-18
      278.500   2.91736e-18
      278.600   2.82703e-18
      278.700   2.73949e-18
      278.800   2.65462e-18
      278.900   2.57225e-18
      279.000   2.49234e-18
      279.100   2.41489e-18
      279.200   2.34321e-18
      279.300   2.28086e-18
      279.400   2.22082e-18
      279.500   2.16237e-18
      279.600   2.10541e-18
      279.700   2.04996e-18
      279.800   1.99591e-18
      279.900   1.94325e-18
      280.000   1.89196e-18
      280.100   1.84198e-18
      280.200   1.79332e-18
      280.300   1.74591e-18
      280.400   1.69972e-18
      280.500   1.65476e-18
      280.600   1.61095e-18
      280.700   1.56827e-18
      280.800   1.52672e-18
      280.900   1.48623e-18
      281.000   1.44680e-18
      281.100   1.40839e-18
      281.200   1.37098e-18
      281.300   1.33655e-18
      281.400   1.30673e-18
      281.500   1.27943e-18
      281.600   1.25267e-18
      281.700   1.22647e-18
      281.800   1.20082e-18
      281.900   1.17568e-18
      282.000   1.15105e-18
      282.100   1.12694e-18
      282.200   1.10333e-18
      282.300   1.08020e-18
      282.400   1.05754e-18
      282.500   1.03534e-18
      282.600   1.01361e-18
      282.700   9.92318e-19
      282.800   9.71463e-19
      282.900   9.51055e-19
      283.000   9.31058e-19
      283.100   9.11486e-19
      283.200   8.92315e-19
      283.300   8.73546e-19
      283.400   8.55165e-19
      283.500   8.34922e-19
      283.600   8.14634e-19
      283.700   7.94797e-19
      283.800   7.75441e-19
      283.900   7.56557e-19
      284.000   7.38118e-19
      284.100   7.20118e-19
      284.200   7.02552e-19
      284.300   6.85412e-19
      284.400   6.68682e-19
      284.500   6.52355e-19
      284.600   6.36422e-19
      284.700   6.20878e-19
      284.800   6.05703e-19
      284.900   5.90895e-19
      285.000   5.76438e-19
      285.100   5.62331e-19
      285.200   5.48572e-19
      285.300   5.35142e-19
      285.400   5.22034e-19
      285.500   5.09245e-19
      285.600   4.96771e-19
      285.700   4.84592e-19
      285.800   4.72717e-19
      285.900   4.61129e-19
      286.000   4.49828e-19
      286.100   4.38805e-19
      286.200   4.28040e-19
      286.300   4.17544e-19
      286.400   4.07304e-19
      286.500   3.97308e-19
      286.600   3.87134e-19
      286.700   3.76102e-19
      286.800   3.64879e-19
      286.900   3.53986e-19
      287.000   3.43414e-19
      287.100   3.33153e-19
      287.200   3.23200e-19
      287.300   3.13537e-19
      287.400   3.04160e-19
      287.500   2.95061e-19
      287.600   2.86231e-19
      287.700   2.77660e-19
      287.800   2.69348e-19
      287.900   2.61280e-19
      288.000   2.53455e-19
      288.100   2.45859e-19
      288.200   2.38499e-19
      288.300   2.31359e-19
      288.400   2.24428e-19
      288.500   2.17705e-19
      288.600   2.11177e-19
      288.700   2.04919e-19
      288.800   1.99977e-19
      288.900   1.95702e-19
      289.000   1.91518e-19
      289.100   1.87422e-19
      289.200   1.83415e-19
      289.300   1.79494e-19
      289.400   1.75656e-19
      289.500   1.71901e-19
      289.600   1.68226e-19
      289.700   1.64631e-19
      289.800   1.61112e-19
      289.900   1.57666e-19
      290.000   1.54297e-19
      290.100   1.51000e-19
      290.200   1.47776e-19
      290.300   1.44620e-19
      290.400   1.41533e-19
      290.500   1.38513e-19
      290.600   1.35555e-19
      290.700   1.32662e-19
      290.800   1.29832e-19
      290.900   1.27061e-19
      291.000   1.24348e-19
      291.100   1.21694e-19
      291.200   1.19097e-19
      291.300   1.16555e-19
      291.400   1.14069e-19
      291.500   1.11635e-19
      291.600   1.09252e-19
      291.700   1.06922e-19
      291.800   1.04641e-19
      291.900   1.02412e-19
      292.000   9.95105e-20
      292.100   9.65784e-20
      292.200   9.37255e-20
      292.300   9.09546e-20
      292.400   8.82657e-20
      292.500   8.56545e-20
      292.600   8.31201e-20
      292.700   8.06609e-20
      292.800   7.82739e-20
      292.900   7.59571e-20
      293.000   7.37081e-20
      293.100   7.15245e-20
      293.200   6.94049e-20
      293.300   6.73483e-20
      293.400   6.53534e-20
      293.500   6.34188e-20
      293.600   6.15413e-20
      293.700   5.97187e-20
      293.800   5.79498e-20
      293.900   5.62331e-20
      294.000   5.45848e-20
      294.100   5.31390e-20
      294.200   5.18473e-20
      294.300   5.05869e-20
      294.400   4.93560e-20
      294.500   4.81557e-20
      294.600   4.69840e-20
      294.700   4.58408e-20
      294.800   4.47251e-20
      294.900   4.36374e-20
      295.000   4.25767e-20
      295.100   4.15419e-20
      295.200   4.05319e-20
      295.300   3.95463e-20
      295.400   3.85846e-20
      295.500   3.76464e-20
      295.600   3.67306e-20
      295.700   3.58369e-20
      295.800   3.49648e-20
      295.900   3.41132e-20
      296.000   3.32826e-20
      296.100   3.24717e-20
      296.200   3.16808e-20
      296.300   3.09093e-20
      296.400   3.01579e-20
      296.500   2.94238e-20
      296.600   2.87075e-20
      296.700   2.80085e-20
      296.800   2.73265e-20
      296.900   2.66608e-20
      297.000   2.60111e-20
      297.100   2.53771e-20
      297.200   2.47583e-20
      297.300   2.41544e-20
      297.400   2.35651e-20
      297.500   2.29899e-20
      297.600   2.24290e-20
      297.700   2.18820e-20
      297.800   2.13484e-20
      297.900   2.08277e-20
      298.000   2.03196e-20
      298.100   1.98236e-20
      298.200   1.93396e-20
      298.300   1.88271e-20
      298.400   1.82665e-20
      298.500   1.77010e-20
      298.600   1.71527e-20
      298.700   1.66212e-20
      298.800   1.61056e-20
      298.900   1.56073e-20
      299.000   1.51243e-20
      299.100   1.46558e-20
      299.200   1.42014e-20
      299.300   1.37609e-20
      299.400   1.33338e-20
      299.500   1.29197e-20
      299.600   1.25182e-20
      299.700   1.21290e-20
      299.800   1.17514e-20
      299.900   1.13856e-20
      300.000   1.10310e-20
      300.100   1.06873e-20
      300.192   1.03808e-20
      300.285   1.00796e-20
      300.377   9.79016e-21
      300.470   9.50602e-21
      300.562   9.23292e-21
      300.654   8.96750e-21
      300.747   8.70679e-21
      300.839   8.45636e-21
      300.932   8.21023e-21
      301.025   7.97121e-21
      301.117   7.74167e-21
      301.210   7.51613e-21
      301.303   7.29704e-21
      301.395   7.08676e-21
      301.488   6.89447e-21
      301.581   6.75505e-21
      301.674   6.61973e-21
      301.766   6.48854e-21
      301.859   6.35845e-21
      301.952   6.23102e-21
      302.045   6.10607e-21
      302.138   5.98364e-21
      302.231   5.86378e-21
      302.324   5.74628e-21
      302.417   5.63108e-21
      302.510   5.51806e-21
      302.603   5.40748e-21
      302.696   5.29892e-21
      302.789   5.19253e-21
      302.882   5.08821e-21
      302.976   4.98496e-21
      303.069   4.88474e-21
      303.162   4.78656e-21
      303.255   4.69028e-21
      303.349   4.59488e-21
      303.442   4.50233e-21
      303.535   4.41172e-21
      303.629   4.32192e-21
      303.722   4.23484e-21
      303.816   4.14855e-21
      303.909   4.06491e-21
      304.003   3.98204e-21
      304.096   3.90165e-21
      304.190   3.82201e-21
      304.283   3.74480e-21
      304.377   3.66837e-21
      304.471   3.59339e-21
      304.564   3.52071e-21
      304.658   3.44535e-21
      304.752   3.34992e-21
      304.846   3.25487e-21
      304.939   3.16344e-21
      305.033   3.07357e-21
      305.127   2.98621e-21
      305.221   2.90130e-21
      305.315   2.81879e-21
      305.409   2.73855e-21
      305.503   2.66059e-21
      305.597   2.58480e-21
      305.691   2.51113e-21
      305.785   2.46080e-21
      305.879   2.41723e-21
      305.973   2.37485e-21
      306.067   2.33316e-21
      306.161   2.29222e-21
      306.255   2.25197e-21
      306.350   2.21199e-21
      306.444   2.17310e-21
      306.538   2.13489e-21
      306.633   2.09696e-21
      306.727   2.06006e-21
      306.821   2.02379e-21
      306.916   1.98779e-21
      307.010   1.95278e-21
      307.105   1.91802e-21
      307.199   1.88423e-21
      307.294   1.85066e-21
      307.388   1.81803e-21
      307.483   1.78563e-21
      307.577   1.75412e-21
      307.672   1.72284e-21
      307.767   1.69210e-21
      307.861   1.65753e-21
      307.956   1.61552e-21
      308.051   1.57320e-21
      308.146   1.53197e-21
      308.240   1.49223e-21
      308.335   1.45309e-21
      308.430   1.41495e-21
      308.525   1.37780e-21
      308.620   1.34163e-21
      308.715   1.30638e-21
      308.810   1.27206e-21
      308.905   1.23861e-21
      309.000   1.20604e-21
      309.095   1.17430e-21
      309.190   1.14341e-21
      309.285   1.11330e-21
      309.380   1.08398e-21
      309.476   1.05514e-21
      309.571   1.02732e-21
      309.666   1.00023e-21
      309.761   9.73854e-22
      309.857   9.47898e-22
      309.952   9.23005e-22
      310.047   8.99999e-22
      310.143   8.77638e-22
      310.238   8.56049e-22
      310.334   8.34771e-22
      310.429   8.14219e-22
      310.525   7.93967e-22
      310.620   7.74419e-22
      310.716   7.55141e-22
      310.811   7.36170e-22
      310.907   7.17365e-22
      311.003   6.99029e-22
      311.098   6.81334e-22
      311.194   6.63906e-22
      311.290   6.46924e-22
      311.386   6.30373e-22
      311.481   6.14403e-22
      311.577   5.98679e-22
      311.673   5.83347e-22
      311.769   5.68404e-22
      311.865   5.53845e-22
      311.961   5.39669e-22
      312.057   5.25917e-22
      312.153   5.12542e-22
      312.249   4.99501e-22
      312.345   4.86794e-22
      312.441   4.74402e-22
      312.537   4.62327e-22
      312.633   4.50559e-22
      312.730   4.38961e-22
      312.826   4.27783e-22
      312.922   4.16886e-22
      313.018   4.06265e-22
      313.115   3.95806e-22
      313.211   3.85716e-22
      313.307   3.75883e-22
      313.404   3.66204e-22
      313.500   3.56864e-22
      313.597   3.47673e-22
      313.693   3.38808e-22
      313.790   3.30077e-22
      313.886   3.22346e-22
      313.983   3.16682e-22
      314.079   3.11870e-22
      314.176   3.07084e-22
      314.273   3.02368e-22
      314.369   2.97778e-22
      314.466   2.93210e-22
      314.563   2.88711e-22
      314.660   2.84283e-22
      314.756   2.79967e-22
      314.853   2.75672e-22
      314.950   2.71445e-22
      315.047   2.67285e-22
      315.144   2.63189e-22
      315.241   2.59156e-22
      315.338   2.55184e-22
      315.435   2.51275e-22
      315.532   2.47427e-22
      315.629   2.43639e-22
      315.726   2.39909e-22
      315.823   2.36235e-22
      315.921   2.32583e-22
      316.018   2.29024e-22
      316.115   2.25523e-22
      316.212   2.22073e-22
      316.310   2.18044e-22
      316.407   2.13360e-22
      316.504   2.08537e-22
      316.602   2.03776e-22
      316.699   1.99172e-22
      316.796   1.94673e-22
      316.894   1.90231e-22
      316.991   1.85937e-22
      317.089   1.81722e-22
      317.187   1.77616e-22
      317.284   1.73642e-22
      317.382   1.69718e-22
      317.479   1.65921e-22
      317.577   1.62172e-22
      317.675   1.58510e-22
      317.773   1.54929e-22
      317.870   1.51465e-22
      317.968   1.48042e-22
      318.066   1.44698e-22
      318.164   1.41430e-22
      318.262   1.38236e-22
      318.360   1.35113e-22
      318.458   1.32063e-22
      318.556   1.29083e-22
      318.654   1.26170e-22
      318.752   1.22702e-22
      318.850   1.18598e-22
      318.948   1.14410e-22
      319.046   1.10368e-22
      319.144   1.06467e-22
      319.242   1.02705e-22
      319.341   9.90382e-23
      319.439   9.55364e-23
      319.537   9.21582e-23
      319.635   8.88980e-23
      319.734   8.57210e-23
      319.832   8.26871e-23
      319.930   7.97591e-23
      320.029   7.69066e-23
      320.127   7.41827e-23
      320.226   7.15278e-23
      320.324   6.89920e-23
      320.423   6.65205e-23
      320.522   6.41391e-23
      320.620   6.18646e-23
      320.719   5.96473e-23
      320.818   5.75093e-23
      320.916   5.54678e-23
      321.015   5.34780e-23
      321.114   5.15590e-23
      321.213   4.97086e-23
      321.311   4.79423e-23
      321.410   4.62216e-23
      321.509   4.45611e-23
      321.608   4.29608e-23
      321.707   4.14169e-23
      321.806   3.99278e-23
      321.905   3.84926e-23
      322.004   3.71077e-23
      322.103   3.57731e-23
      322.202   3.44857e-23
      322.301   3.32443e-23
      322.401   3.20355e-23
      322.500   3.08818e-23
      322.599   2.97693e-23
      322.698   2.86967e-23
      322.798   2.76520e-23
      322.897   2.66547e-23
      322.996   2.56935e-23
      323.096   2.47568e-23
      323.195   2.38631e-23
      323.294   2.30016e-23
      323.394   2.21628e-23
      323.493   2.13620e-23
      323.593   2.05824e-23
      323.692   1.98383e-23
      323.792   1.91139e-23
      323.892   1.84156e-23
      323.991   1.77490e-23
      324.091   1.71003e-23
      324.191   1.64748e-23
      324.291   1.58721e-23
      324.390   1.52972e-23
      324.490   1.47369e-23
      324.590   1.41974e-23
      324.690   1.36775e-23
      324.790   1.31762e-23
      324.890   1.26933e-23
      324.990   1.22277e-23
      325.090   1.17790e-23
      325.190   1.13468e-23
      325.290   1.09304e-23
      325.390   1.05287e-23
      325.490   1.01420e-23
      325.590   9.76941e-24
      325.690   9.41005e-24
      325.790   9.06396e-24
      325.891   8.72717e-24
      325.991   8.40591e-24
      326.091   8.09629e-24
      326.192   7.79508e-24
      326.292   7.50776e-24
      326.392   7.23101e-24
      326.493   6.96167e-24
      326.593   6.70471e-24
      326.694   6.45491e-24
      326.794   6.21650e-24
      326.895   5.98455e-24
      326.995   5.76328e-24
      327.096   5.54816e-24
      327.197   5.34089e-24
      327.297   5.14318e-24
      327.398   4.95088e-24
      327.499   4.76570e-24
      327.599   4.58904e-24
      327.700   4.41719e-24
      327.801   4.25173e-24
      327.902   4.09246e-24
      328.003   3.93898e-24
      328.104   3.79122e-24
      328.205   3.64893e-24
      328.306   3.51193e-24
      328.407   3.38004e-24
      328.508   3.25298e-24
      328.609   3.13065e-24
      328.710   3.01290e-24
      328.811   2.89950e-24
      328.912   2.79032e-24
      329.013   2.68521e-24
      329.115   2.58305e-24
      329.216   2.48563e-24
      329.317   2.39184e-24
      329.419   2.30073e-24
      329.520   2.21382e-24
      329.621   2.13014e-24
      329.723   2.04881e-24
      329.824   1.97136e-24
      329.926   1.89605e-24
      330.027   1.82425e-24
      330.129   1.75447e-24
      330.230   1.68801e-24
      330.332   1.62337e-24
      330.434   1.56119e-24
      330.535   1.50191e-24
      330.637   1.44431e-24
      330.739   1.38892e-24
      330.840   1.33611e-24
      330.942   1.28479e-24
      331.044   1.23542e-24
      331.146   1.18791e-24
      331.248   1.14222e-24
      331.350   1.09826e-24
      331.452   1.05597e-24
      331.554   1.01555e-24
      331.656   9.76991e-25
      331.758   9.39893e-25
      331.860   9.04166e-25
      331.962   8.69788e-25
      332.064   8.36694e-25
      332.166   8.04857e-25
      332.268   7.74196e-25
      332.371   7.44425e-25
      332.473   7.16035e-25
      332.575   6.88704e-25
      332.677   6.62422e-25
      332.780   6.36891e-25
      332.882   6.12555e-25
      332.985   5.88918e-25
      333.087   5.66380e-25
      333.190   5.44496e-25
      333.292   5.23574e-25
      333.395   5.03067e-25
      333.497   4.83484e-25
      333.600   4.64471e-25
      333.702   4.46367e-25
      333.805   4.28802e-25
      333.908   4.11901e-25
      334.011   3.95669e-25
      334.113   3.80212e-25
      334.216   3.65205e-25
      334.319   3.50787e-25
      334.422   3.36925e-25
      334.525   3.23606e-25
      334.628   3.10804e-25
      334.731   2.98509e-25
      334.834   2.86690e-25
      334.937   2.75329e-25
      335.040   2.64409e-25
      335.143   2.53926e-25
      335.246   2.43846e-25
      335.349   2.34163e-25
      335.452   2.24859e-25
      335.555   2.15922e-25
      335.659   2.07249e-25
      335.762   1.98999e-25
      335.865   1.91077e-25
      335.969   1.83391e-25
      336.072   1.76075e-25
      336.175   1.69054e-25
      336.279   1.62244e-25
      336.382   1.55765e-25
      336.486   1.49481e-25
      336.589   1.43503e-25
      336.693   1.37711e-25
      336.796   1.32201e-25
      336.900   1.26856e-25
      337.004   1.21722e-25
      337.107   1.16845e-25
      337.211   1.12113e-25
      337.315   1.07573e-25
      337.419   1.03212e-25
      337.523   9.90255e-26
      337.626   9.50447e-26
      337.730   9.11869e-26
      337.834   8.74825e-26
      337.938   8.39278e-26
      338.042   8.05166e-26
      338.146   7.72514e-26
      338.250   7.41196e-26
      338.354   7.11125e-26
      338.458   6.82249e-26
      338.562   6.54534e-26
      338.667   6.27692e-26
      338.771   6.02166e-26
      338.875   5.77670e-26
      338.979   5.54150e-26
      339.084   5.31385e-26
      339.188   5.09737e-26
      339.292   4.88964e-26
      339.397   4.68831e-26
      339.501   4.49708e-26
      339.606   4.31168e-26
      339.710   4.13560e-26
      339.815   3.96499e-26
      339.919   3.80295e-26
      340.024   3.64587e-26
      340.128   3.49676e-26
      340.233   3.35219e-26
      340.338   3.21366e-26
      340.442   3.08194e-26
      340.547   2.95440e-26
      340.652   2.83207e-26
      340.757   2.71476e-26
      340.862   2.60223e-26
      340.966   2.49536e-26
      341.071   2.39186e-26
      341.176   2.29261e-26
      341.281   2.19742e-26
      341.386   2.10618e-26
      341.491   2.01862e-26
      341.596   1.93473e-26
      341.702   1.85352e-26
      341.807   1.77639e-26
      341.912   1.70245e-26
      342.017   1.63154e-26
      342.122   1.56355e-26
      342.228   1.49781e-26
      342.333   1.43535e-26
      342.438   1.37546e-26
      342.544   1.31755e-26
      342.649   1.26252e-26
      342.754   1.20982e-26
      342.860   1.15880e-26
      342.965   1.11032e-26
      343.071   1.06350e-26
      343.176   1.01901e-26
      343.282   9.75956e-27
      343.388   9.34727e-27
      343.493   8.95633e-27
      343.599   8.58287e-27
      343.705   8.22526e-27
      343.810   7.88546e-27
      343.916   7.55672e-27
      344.022   7.24153e-27
      344.128   6.93940e-27
      344.234   6.64964e-27
      344.340   6.37203e-27
      344.446   6.10575e-27
      344.552   5.85053e-27
      344.658   5.60595e-27
      344.764   5.37162e-27
      344.870   5.14681e-27
      344.976   4.93151e-27
      345.082   4.72500e-27
      345.188   4.52718e-27
      345.294   4.33745e-27
      345.401   4.15402e-27
      345.507   3.97984e-27
      345.613   3.81301e-27
      345.719   3.65302e-27
      345.826   3.49832e-27
      345.932   3.35144e-27
      346.039   3.20942e-27
      346.145   3.07458e-27
      346.252   2.94423e-27
      346.358   2.82045e-27
      346.465   2.70084e-27
      346.571   2.58721e-27
      346.678   2.47734e-27
      346.785   2.37209e-27
      346.891   2.27225e-27
      346.998   2.17573e-27
      347.105   2.08325e-27
      347.212   1.99465e-27
      347.319   1.90979e-27
      347.425   1.82922e-27
      347.532   1.75135e-27
      347.639   1.67681e-27
      347.746   1.60539e-27
      347.853   1.53695e-27
      347.960   1.47145e-27
      348.067   1.40874e-27
      348.174   1.34869e-27
      348.281   1.29116e-27
      348.389   1.23557e-27
      348.496   1.18282e-27
      348.603   1.13235e-27
      348.710   1.08399e-27
      348.818   1.03727e-27
      348.925   9.92941e-28
      349.032   9.50509e-28
      349.140   9.09485e-28
      349.247   8.70577e-28
      349.355   8.33015e-28
      349.462   7.97361e-28
      349.570   7.62891e-28
      349.677   7.30229e-28
      349.785   6.98651e-28
      349.892   6.68717e-28
      350.000   6.39798e-28
      350.100   6.14126e-28
      350.193   5.91179e-28
      350.287   5.68830e-28
      350.380   5.47572e-28
      350.473   5.27091e-28
      350.567   5.07149e-28
      350.660   4.88173e-28
      350.754   4.69705e-28
      350.847   4.52127e-28
      350.941   4.35018e-28
      351.034   4.18728e-28
      351.128   4.02872e-28
      351.221   3.87784e-28
      351.315   3.73089e-28
      351.409   3.58946e-28
      351.502   3.45492e-28
      351.596   3.32398e-28
      351.690   3.19786e-28
      351.783   3.07794e-28
      351.877   2.96121e-28
      351.971   2.84884e-28
      352.065   2.74070e-28
      352.159   2.63664e-28
      352.252   2.53759e-28
      352.346   2.44118e-28
      352.440   2.34846e-28
      352.534   2.25930e-28
      352.628   2.17339e-28
      352.722   2.09074e-28
      352.816   2.01126e-28
      352.910   1.93480e-28
      353.004   1.86121e-28
      353.098   1.79037e-28
      353.192   1.72221e-28
      353.287   1.65596e-28
      353.381   1.59287e-28
      353.475   1.53223e-28
      353.569   1.47382e-28
      353.663   1.41768e-28
      353.758   1.36309e-28
      353.852   1.31113e-28
      353.946   1.26113e-28
      354.041   1.21251e-28
      354.135   1.16625e-28
      354.229   1.12173e-28
      354.324   1.07846e-28
      354.418   1.03728e-28
      354.513   9.97240e-29
      354.607   9.59165e-29
      354.702   9.22088e-29
      354.796   8.86734e-29
      354.891   8.52362e-29
      354.985   8.19674e-29
      355.080   7.87901e-29
      355.175   7.57328e-29
      355.269   7.28255e-29
      355.364   6.99984e-29
      355.459   6.72820e-29
      355.553   6.46956e-29
      355.648   6.21837e-29
      355.743   5.97694e-29
      355.838   5.74446e-29
      355.933   5.52128e-29
      356.027   5.30885e-29
      356.122   5.10227e-29
      356.217   4.90376e-29
      356.312   4.71305e-29
      356.407   4.52955e-29
      356.502   4.35321e-29
      356.597   4.18360e-29
      356.692   4.02066e-29
      356.787   3.86398e-29
      356.882   3.71325e-29
      356.977   3.56853e-29
      357.073   3.42790e-29
      357.168   3.29407e-29
      357.263   3.16554e-29
      357.358   3.04193e-29
      357.453   2.92316e-29
      357.549   2.80778e-29
      357.644   2.69806e-29
      357.739   2.59267e-29
      357.835   2.49018e-29
      357.930   2.39278e-29
      358.025   2.29916e-29
      358.121   2.20826e-29
      358.216   2.12180e-29
      358.312   2.03782e-29
      358.407   1.95801e-29
      358.503   1.88048e-29
      358.598   1.80681e-29
      358.694   1.73523e-29
      358.790   1.66643e-29
      358.885   1.60103e-29
      358.981   1.53752e-29
      359.076   1.47718e-29
      359.172   1.41859e-29
      359.268   1.36223e-29
      359.364   1.30812e-29
      359.459   1.25673e-29
      359.555   1.20677e-29
      359.651   1.15880e-29
      359.747   1.11272e-29
      359.843   1.06845e-29
      359.939   1.02593e-29
      360.035   9.85093e-30
      360.131   9.45882e-30
      360.227   9.08168e-30
      360.323   8.71986e-30
      360.419   8.36758e-30
      360.515   7.98578e-30
      360.611   7.60946e-30
      360.707   7.25039e-30
      360.803   6.90879e-30
      360.899   6.58265e-30
      360.995   6.27202e-30
      361.092   5.97274e-30
      361.188   5.69044e-30
      361.284   5.42139e-30
      361.380   5.16497e-30
      361.477   4.91797e-30
      361.573   4.68502e-30
      361.669   4.46313e-30
      361.766   4.24933e-30
      361.862   4.04789e-30
      361.959   3.85390e-30
      362.055   3.67078e-30
      362.152   3.49474e-30
      362.248   3.32867e-30
      362.345   3.16869e-30
      362.441   3.01801e-30
      362.538   2.87294e-30
      362.635   2.73475e-30
      362.731   2.60441e-30
      362.828   2.47899e-30
      362.925   2.35957e-30
      363.021   2.24694e-30
      363.118   2.13862e-30
      363.215   2.03538e-30
      363.312   1.93708e-30
      363.409   1.84353e-30
      363.505   1.75533e-30
      363.602   1.67040e-30
      363.699   1.58959e-30
      363.796   1.51264e-30
      363.893   1.43936e-30
      363.990   1.36961e-30
      364.087   1.30320e-30
      364.184   1.23998e-30
      364.281   1.17977e-30
      364.378   1.12248e-30
      364.475   1.06793e-30
      364.573   1.01546e-30
      364.670   9.66063e-31
      364.767   9.19045e-31
      364.864   8.74276e-31
      364.961   8.31673e-31
      365.059   7.90710e-31
      365.156   7.52152e-31
      365.253   7.15436e-31
      365.351   6.80140e-31
      365.448   6.46897e-31
      365.545   6.15273e-31
      365.643   5.84864e-31
      365.740   5.56228e-31
      365.838   5.28711e-31
      365.935   5.02814e-31
      366.033   4.77911e-31
      366.130   4.54463e-31
      366.228   4.31907e-31
      366.326   4.07937e-31
      366.423   3.84261e-31
      366.521   3.61714e-31
      366.618   3.40677e-31
      366.716   3.20661e-31
      366.814   3.01813e-31
      366.912   2.84065e-31
      367.010   2.67332e-31
      367.107   2.51738e-31
      367.205   2.36890e-31
      367.303   2.22912e-31
      367.401   2.09753e-31
      367.499   1.97356e-31
      367.597   1.85686e-31
      367.695   1.74702e-31
      367.793   1.64362e-31
      367.891   1.54625e-31
      367.989   1.45451e-31
      368.087   1.36822e-31
      368.185   1.28700e-31
      368.283   1.21051e-31
      368.381   1.13850e-31
      368.480   1.07010e-31
      368.578   1.00636e-31
      368.676   9.46411e-32
      368.774   8.89987e-32
      368.873   8.36353e-32
      368.971   7.86414e-32
      369.069   7.39419e-32
      369.168   6.94739e-32
      369.266   6.53171e-32
      369.364   6.14052e-32
      369.463   5.76880e-32
      369.561   5.42288e-32
      369.660   5.09422e-32
      369.758   4.78830e-32
      369.857   4.49771e-32
      369.955   4.22725e-32
      370.054   3.97027e-32
      370.153   3.72877e-32
      370.251   3.50407e-32
      370.350   3.29065e-32
      370.449   3.09015e-32
      370.547   2.90355e-32
      370.646   2.72621e-32
      370.745   2.55974e-32
      370.844   2.40328e-32
      370.943   2.25628e-32
      371.041   2.11956e-32
      371.140   1.98970e-32
      371.239   1.86769e-32
      371.338   1.75313e-32
      371.437   1.64554e-32
      371.536   1.54449e-32
      371.635   1.44951e-32
      371.734   1.36036e-32
      371.833   1.27663e-32
      371.932   1.19800e-32
      372.032   1.12341e-32
      372.131   1.05410e-32
      372.230   9.89050e-33
      372.329   9.27949e-33
      372.428   8.70580e-33
      372.528   8.16212e-33
      372.627   7.65704e-33
      372.726   7.18283e-33
      372.826   6.73330e-33
      372.925   6.31553e-33
      373.024   5.92343e-33
      373.124   5.55178e-33
      373.223   5.20688e-33
      373.323   4.87989e-33
      373.422   4.57610e-33
      373.522   4.28824e-33
      373.621   4.02109e-33
      373.721   3.76779e-33
      373.820   3.53269e-33
      373.920   3.30992e-33
      374.020   3.10088e-33
      374.119   2.90704e-33
      374.219   2.72324e-33
      374.319   2.55106e-33
      374.419   2.38971e-33
      374.518   2.23982e-33
      374.618   2.09789e-33
      374.718   1.96475e-33
      374.818   1.84015e-33
      374.918   1.72337e-33
      375.018   1.61383e-33
      375.118   1.51125e-33
      375.218   1.41506e-33
      375.318   1.32497e-33
      375.418   1.24051e-33
      375.518   1.16145e-33
      375.618   1.08737e-33
      375.718   1.01794e-33
      375.818   9.52916e-34
      375.918   8.92003e-34
      376.019   8.34406e-34
      376.119   7.80981e-34
      376.219   7.30967e-34
      376.319   6.84096e-34
      376.420   6.39806e-34
      376.520   5.98748e-34
      376.620   5.60306e-34
      376.721   5.23941e-34
      376.821   4.90255e-34
      376.922   4.58404e-34
      377.022   4.28881e-34
      377.122   4.01255e-34
      377.223   3.75137e-34
      377.323   3.50939e-34
      377.424   3.28056e-34
      377.525   3.06663e-34
      377.625   2.86844e-34
      377.726   2.68115e-34
      377.827   2.50595e-34
      377.927   2.34362e-34
      378.028   2.19033e-34
      378.129   2.04690e-34
      378.230   1.91279e-34
      378.330   1.78862e-34
      378.431   1.67134e-34
      378.532   1.56174e-34
      378.633   1.45918e-34
      378.734   1.36329e-34
      378.835   1.27369e-34
      378.936   1.18992e-34
      379.037   1.11161e-34
      379.138   1.03839e-34
      379.239   9.69941e-35
      379.340   9.06011e-35
      379.441   8.46227e-35
      379.542   7.90345e-35
      379.643   7.38138e-35
      379.745   6.88882e-35
      379.846   6.43301e-35
      379.947   6.00714e-35
      380.048   5.60940e-35
      380.150   5.23404e-35
      380.251   4.88690e-35
      380.352   4.56270e-35
      380.454   4.25698e-35
      380.555   3.97414e-35
      380.656   3.70990e-35
      380.758   3.46074e-35
      380.859   3.23042e-35
      380.961   3.01334e-35
      381.062   2.81257e-35
      381.164   2.62322e-35
      381.266   2.44654e-35
      381.367   2.28319e-35
      381.469   2.12924e-35
      381.570   1.98696e-35
      381.672   1.85285e-35
      381.774   1.72765e-35
      381.876   1.61088e-35
      381.977   1.50296e-35
      382.079   1.40125e-35
      382.181   1.30636e-35
      382.283   1.21790e-35
      382.385   1.13533e-35
      382.487   1.05827e-35
      382.589   9.86461e-36
      382.691   9.19478e-36
      382.793   8.57008e-36
      382.895   7.98738e-36
      382.997   7.44387e-36
      383.099   6.93709e-36
      383.201   6.46468e-36
      383.303   6.02396e-36
      383.405   5.61314e-36
      383.507   5.23019e-36
      383.610   4.86984e-36
      383.712   4.53706e-36
      383.814   4.22710e-36
      383.916   3.93804e-36
      384.019   3.66604e-36
      384.121   3.41498e-36
      384.223   3.18107e-36
      384.326   2.96104e-36
      384.428   2.75794e-36
      384.531   2.56692e-36
      384.633   2.39068e-36
      384.736   2.22487e-36
      384.838   2.07189e-36
      384.941   1.92804e-36
      385.043   1.79533e-36
      385.146   1.67056e-36
      385.249   1.55439e-36
      385.351   1.44722e-36
      385.454   1.34643e-36
      385.557   1.25267e-36
      385.660   1.16533e-36
      385.762   1.08483e-36
      385.865   1.00914e-36
      385.968   9.38662e-37
      386.071   8.73064e-37
      386.174   8.12030e-37
      386.277   7.55254e-37
      386.380   7.02405e-37
      386.483   6.53222e-37
      386.586   6.07476e-37
      386.689   5.64893e-37
      386.792   5.25267e-37
      386.895   4.88409e-37
      386.998   4.54119e-37
      387.101   4.22227e-37
      387.204   3.92535e-37
      387.308   3.64670e-37
      387.411   3.39004e-37
      387.514   3.15135e-37
      387.617   2.92937e-37
      387.721   2.72103e-37
      387.824   2.52914e-37
      387.927   2.35055e-37
      388.031   2.18307e-37
      388.134   2.02884e-37
      388.238   1.88420e-37
      388.341   1.75088e-37
      388.445   1.62583e-37
      388.548   1.51068e-37
      388.652   1.40270e-37
      388.755   1.30328e-37
      388.859   1.21002e-37
      388.962   1.12416e-37
      389.066   1.04358e-37
      389.170   9.68811e-38
      389.274   8.99304e-38
      389.377   8.35336e-38
      389.481   7.75330e-38
      389.585   7.19641e-38
      389.689   6.67906e-38
      389.793   6.19842e-38
      389.897   5.75253e-38
      390.000   5.34186e-38
      390.104   4.95711e-38
      390.208   4.59967e-38
      390.312   4.26787e-38
      390.416   3.95993e-38
      390.520   3.67390e-38
      390.625   3.40579e-38
      390.729   3.15963e-38
      390.833   2.93097e-38
      390.937   2.71874e-38
      391.041   2.52186e-38
      391.145   2.33914e-38
      391.250   2.16792e-38
      391.354   2.01069e-38
      391.458   1.86474e-38
      391.563   1.72805e-38
      391.667   1.60247e-38
      391.771   1.48597e-38
      391.876   1.37685e-38
      391.980   1.27660e-38
      392.085   1.18278e-38
      392.189   1.09658e-38
      392.294   1.01587e-38
      392.398   9.41758e-39
      392.503   8.72383e-39
      392.607   8.08670e-39
      392.712   7.49040e-39
      392.817   6.93749e-39
      392.921   6.43001e-39
      393.026   5.95493e-39
      393.131   5.51487e-39
      393.236   5.10684e-39
      393.340   4.73231e-39
      393.445   4.38198e-39
      393.550   4.05740e-39
      393.655   3.75654e-39
      393.760   3.47800e-39
      393.865   3.21985e-39
      393.970   2.98090e-39
      394.075   2.75935e-39
      394.180   2.55429e-39
      394.285   2.36427e-39
      394.390   2.18838e-39
      394.495   2.02537e-39
      394.600   1.87447e-39
      394.706   1.73349e-39
      394.811   1.60422e-39
      394.916   1.48443e-39
      395.021   1.37357e-39
      395.126   1.27097e-39
      395.232   1.17509e-39
      395.337   1.08717e-39
      395.443   1.00507e-39
      395.548   9.29794e-40
      395.653   8.60144e-40
      395.759   7.95041e-40
      395.864   7.35413e-40
      395.970   6.79703e-40
      396.075   6.28651e-40
      396.181   5.80978e-40
      396.286   5.37270e-40
      396.392   4.96509e-40
      396.498   4.58787e-40
      396.603   4.24211e-40
      396.709   3.91961e-40
      396.815   3.62136e-40
      396.921   3.34554e-40
      397.026   3.09295e-40
      397.132   2.85707e-40
      397.238   2.63923e-40
      397.344   2.43763e-40
      397.450   2.25168e-40
      397.556   2.07954e-40
      397.662   1.92052e-40
      397.768   1.77365e-40
      397.874   1.63780e-40
      397.980   1.51237e-40
      398.086   1.39639e-40
      398.192   1.28939e-40
      398.298   1.19042e-40
      398.404   1.09897e-40
      398.510   1.01453e-40
      398.617   9.35899e-41
      398.723   8.63915e-41
      398.829   7.97367e-41
      398.935   7.35962e-41
      399.042   6.78775e-41
      399.148   6.26408e-41
      399.255   5.77643e-41
      399.361   5.33082e-41
      399.467   4.91870e-41
      399.574   4.53530e-41
      399.680   4.18442e-41
      399.787   3.85763e-41
      399.893       0.00000
      400.000       0.00000
