Filter Al-poly
observation_date 22-Sept-2008 22:40:45
wavelength effective area
      1.00000   2.78458e-10
      1.10000   7.94916e-10
      1.20000   2.06648e-09
      1.30000   4.94134e-09
      1.40000   1.12122e-08
      1.50000   2.39199e-08
      1.60000   4.84232e-08
      1.70000   9.40069e-08
      1.80000   1.75015e-07
      1.90000   3.14557e-07
      2.00000   5.46857e-07
      2.10000   9.23675e-07
      2.20000   1.52306e-06
      2.30000   2.44836e-06
      2.40000   3.84386e-06
      2.50000   5.87453e-06
      2.60000   8.96527e-06
      2.70000   1.33667e-05
      2.80000   1.95480e-05
      2.90000   2.82943e-05
      3.00000   4.03150e-05
      3.10000   5.67049e-05
      3.20000   7.88883e-05
      3.30000   0.000108635
      3.40000   0.000148041
      3.50000   0.000199791
      3.60000   0.000268395
      3.70000   0.000356731
      3.80000   0.000472185
      3.90000   0.000621548
      4.00000   0.000813080
      4.10000    0.00105872
      4.20000    0.00137368
      4.30000    0.00177730
      4.40000    0.00229344
      4.50000    0.00295139
      4.60000    0.00378543
      4.70000    0.00485512
      4.80000    0.00622089
      4.90000    0.00786851
      5.00000     0.0102149
      5.10000     0.0130743
      5.20000     0.0167844
      5.30000     0.0213654
      5.40000     0.0271540
      5.50000     0.0345724
      5.60000     0.0426684
      5.70000     0.0554804
      5.80000     0.0650646
      5.90000     0.0993789
      6.00000      0.133640
      6.10000      0.170874
      6.20000      0.209937
      6.30000      0.247242
      6.40000      0.279308
      6.50000      0.302987
      6.60000      0.313810
      6.70000      0.323800
      6.80000      0.324436
      6.90000      0.425917
      7.00000      0.463503
      7.10000      0.490559
      7.20000      0.512189
      7.30000      0.529990
      7.40000      0.543734
      7.50000      0.554812
      7.60000      0.563332
      7.70000      0.567796
      7.80000      0.567086
      7.90000      0.567072
      8.00000      0.957245
      8.10000       1.05342
      8.20000       1.07638
      8.30000       1.09472
      8.40000       1.10901
      8.50000       1.12175
      8.60000       1.13258
      8.70000       1.14220
      8.80000       1.15025
      8.90000       1.15727
      9.00000       1.16315
      9.10000       1.16795
      9.20000       1.17187
      9.30000       1.17479
      9.40000       1.17688
      9.50000       1.17819
      9.60000       1.17865
      9.70000       1.17837
      9.80000       1.17749
      9.90000       1.17604
      10.0000       1.17407
      10.1000       1.17160
      10.2000       1.16865
      10.3000       1.16515
      10.4000       1.16115
      10.5000       1.15666
      10.6000       1.15172
      10.7000       1.14635
      10.8000       1.14056
      10.9000       1.13438
      11.0000       1.12781
      11.1000       1.12089
      11.2000       1.11362
      11.3000       1.10604
      11.4000       1.09813
      11.5000       1.08987
      11.6000       1.08129
      11.7000       1.07229
      11.8000       1.06298
      11.9000       1.05317
      12.0000       1.04176
      12.1000       1.03399
      12.2000       1.04428
      12.3000       1.04365
      12.4000       1.03526
      12.5000       1.02607
      12.6000       1.01647
      12.7000       1.00661
      12.8000      0.996559
      12.9000      0.986319
      13.0000      0.975951
      13.1000      0.965487
      13.2000      0.954957
      13.3000      0.944376
      13.4000      0.933773
      13.5000      0.923306
      13.6000      0.912946
      13.7000      0.902584
      13.8000      0.892209
      13.9000      0.881859
      14.0000      0.871530
      14.1000      0.861194
      14.2000      0.850851
      14.3000      0.840493
      14.4000      0.830088
      14.5000      0.819652
      14.6000      0.809164
      14.7000      0.798640
      14.8000      0.788088
      14.9000      0.777513
      15.0000      0.766930
      15.1000      0.756363
      15.2000      0.745811
      15.3000      0.735283
      15.4000      0.724779
      15.5000      0.714311
      15.6000      0.703924
      15.7000      0.693575
      15.8000      0.683320
      15.9000      0.673154
      16.0000      0.663072
      16.1000      0.653086
      16.2000      0.643215
      16.3000      0.633410
      16.4000      0.623673
      16.5000      0.614000
      16.6000      0.604381
      16.7000      0.594817
      16.8000      0.585308
      16.9000      0.575855
      17.0000      0.566461
      17.1000      0.557123
      17.2000      0.547833
      17.3000      0.538607
      17.4000      0.529581
      17.5000      0.520782
      17.6000      0.512150
      17.7000      0.503754
      17.8000      0.495717
      17.9000      0.487762
      18.0000      0.479816
      18.1000      0.471911
      18.2000      0.463991
      18.3000      0.456030
      18.4000      0.447977
      18.5000      0.439863
      18.6000      0.431679
      18.7000      0.423358
      18.8000      0.415095
      18.9000      0.406895
      19.0000      0.398755
      19.1000      0.390715
      19.2000      0.382767
      19.3000      0.374935
      19.4000      0.367223
      19.5000      0.359618
      19.6000      0.352181
      19.7000      0.344844
      19.8000      0.337603
      19.9000      0.330499
      20.0000      0.323472
      20.1000      0.316527
      20.2000      0.309647
      20.3000      0.302830
      20.4000      0.296101
      20.5000      0.289422
      20.6000      0.282793
      20.7000      0.276241
      20.8000      0.269739
      20.9000      0.263276
      21.0000      0.256878
      21.1000      0.250550
      21.2000      0.244218
      21.3000      0.237935
      21.4000      0.231721
      21.5000      0.225505
      21.6000      0.219279
      21.7000      0.213058
      21.8000      0.206865
      21.9000      0.200438
      22.0000      0.193991
      22.1000      0.187417
      22.2000      0.180435
      22.3000      0.173114
      22.4000      0.163001
      22.5000      0.152091
      22.6000      0.129637
      22.7000      0.118312
      22.8000      0.160972
      22.9000      0.214364
      23.0000      0.273774
      23.1000      0.312164
      23.2000      0.330044
      23.3000      0.334137
      23.4000      0.331079
      23.5000      0.327571
      23.6000      0.323969
      23.7000      0.319474
      23.8000      0.314931
      23.9000      0.310263
      24.0000      0.305589
      24.1000      0.300696
      24.2000      0.295825
      24.3000      0.290945
      24.4000      0.286074
      24.5000      0.281168
      24.6000      0.276298
      24.7000      0.271463
      24.8000      0.266660
      24.9000      0.261884
      25.0000      0.257152
      25.1000      0.252470
      25.2000      0.247828
      25.3000      0.243231
      25.4000      0.238683
      25.5000      0.234198
      25.6000      0.229770
      25.7000      0.225413
      25.8000      0.221102
      25.9000      0.216858
      26.0000      0.212653
      26.1000      0.208507
      26.2000      0.204401
      26.3000      0.200369
      26.4000      0.196371
      26.5000      0.192437
      26.6000      0.188537
      26.7000      0.184712
      26.8000      0.180932
      26.9000      0.177202
      27.0000      0.173508
      27.1000      0.169833
      27.2000      0.166183
      27.3000      0.162945
      27.4000      0.160208
      27.5000      0.157362
      27.6000      0.154171
      27.7000      0.151004
      27.8000      0.147807
      27.9000      0.144638
      28.0000      0.141541
      28.1000      0.138480
      28.2000      0.135486
      28.3000      0.132545
      28.4000      0.129651
      28.5000      0.126822
      28.6000      0.124026
      28.7000      0.121345
      28.8000      0.118688
      28.9000      0.116094
      29.0000      0.113535
      29.1000      0.111021
      29.2000      0.108556
      29.3000      0.106120
      29.4000      0.103749
      29.5000      0.101401
      29.6000     0.0991116
      29.7000     0.0968540
      29.8000     0.0946382
      29.9000     0.0924709
      30.0000     0.0903263
      30.1000     0.0882458
      30.2000     0.0861856
      30.3000     0.0875793
      30.4000     0.0909097
      30.5000     0.0930565
      30.6000     0.0909622
      30.7000     0.0888885
      30.8000     0.0868690
      30.9000     0.0848796
      31.0000     0.0829231
      31.1000     0.0810156
      31.2000     0.0791273
      31.3000     0.0772927
      31.4000     0.0754842
      31.5000     0.0737073
      31.6000     0.0719763
      31.7000     0.0702631
      31.8000     0.0686000
      31.9000     0.0669623
      32.0000     0.0653518
      32.1000     0.0637876
      32.2000     0.0622396
      32.3000     0.0607355
      32.4000     0.0592595
      32.5000     0.0578063
      32.6000     0.0564270
      32.7000     0.0550662
      32.8000     0.0537384
      32.9000     0.0524404
      33.0000     0.0511561
      33.1000     0.0499521
      33.2000     0.0487739
      33.3000     0.0476175
      33.4000     0.0464933
      33.5000     0.0453815
      33.6000     0.0442994
      33.7000     0.0432415
      33.8000     0.0421944
      33.9000     0.0411843
      34.0000     0.0401883
      34.1000     0.0392124
      34.2000     0.0382638
      34.3000     0.0373248
      34.4000     0.0364076
      34.5000     0.0355153
      34.6000     0.0346322
      34.7000     0.0337593
      34.8000     0.0328959
      34.9000     0.0320416
      35.0000     0.0312213
      35.1000     0.0304123
      35.2000     0.0296147
      35.3000     0.0288491
      35.4000     0.0280916
      35.5000     0.0273496
      35.6000     0.0266338
      35.7000     0.0259256
      35.8000     0.0252360
      35.9000     0.0245675
      36.0000     0.0239061
      36.1000     0.0232655
      36.2000     0.0226418
      36.3000     0.0220249
      36.4000     0.0214302
      36.5000     0.0208489
      36.6000     0.0202741
      36.7000     0.0197222
      36.8000     0.0191813
      36.9000     0.0186463
      37.0000     0.0181345
      37.1000     0.0176316
      37.2000     0.0171343
      37.3000     0.0166599
      37.4000     0.0161931
      37.5000     0.0157316
      37.6000     0.0152920
      37.7000     0.0148591
      37.8000     0.0144312
      37.9000     0.0140240
      38.0000     0.0136233
      38.1000     0.0132271
      38.2000     0.0128499
      38.3000     0.0124794
      38.4000     0.0121131
      38.5000     0.0117638
      38.6000     0.0114215
      38.7000     0.0110832
      38.8000     0.0107597
      38.9000     0.0104440
      39.0000     0.0101321
      39.1000    0.00983256
      39.2000    0.00954188
      39.3000    0.00925463
      39.4000    0.00897731
      39.5000    0.00870991
      39.6000    0.00844571
      39.7000    0.00818892
      39.8000    0.00794347
      39.9000    0.00770094
      40.0000    0.00746321
      40.1000    0.00723811
      40.2000    0.00701571
      40.3000    0.00679601
      40.4000    0.00658938
      40.5000    0.00638576
      40.6000    0.00618459
      40.7000    0.00599326
      40.8000    0.00580702
      40.9000    0.00562308
      41.0000    0.00544582
      41.1000    0.00527573
      41.2000    0.00510777
      41.3000    0.00494364
      41.4000    0.00478883
      41.5000    0.00463593
      41.6000    0.00448495
      41.7000    0.00434298
      41.8000    0.00420379
      41.9000    0.00406635
      42.0000    0.00393488
      42.1000    0.00380853
      42.2000    0.00368377
      42.3000    0.00356183
      42.4000    0.00344719
      42.5000    0.00333399
      42.6000    0.00322223
      42.7000    0.00311698
      42.8000    0.00301442
      42.9000    0.00291317
      43.0000    0.00281545
      43.1000    0.00272273
      43.2000    0.00263119
      43.3000    0.00254084
      43.4000    0.00803946
      43.5000     0.0180099
      43.6000     0.0365188
      43.7000     0.0601544
      43.8000     0.0760820
      43.9000     0.0788405
      44.0000     0.0766751
      44.1000     0.0699217
      44.2000     0.0682862
      44.3000     0.0670953
      44.4000     0.0659281
      44.5000     0.0647909
      44.6000     0.0636573
      44.7000     0.0625273
      44.8000     0.0614401
      44.9000     0.0603620
      45.0000     0.0592872
      45.1000     0.0582287
      45.2000     0.0572045
      45.3000     0.0561837
      45.4000     0.0551659
      45.5000     0.0541802
      45.6000     0.0532111
      45.7000     0.0522451
      45.8000     0.0512837
      45.9000     0.0503652
      46.0000     0.0494496
      46.1000     0.0485369
      46.2000     0.0476821
      46.3000     0.0469250
      46.4000     0.0461703
      46.5000     0.0454180
      46.6000     0.0447023
      46.7000     0.0440061
      46.8000     0.0433122
      46.9000     0.0426203
      47.0000     0.0419773
      47.1000     0.0413395
      47.2000     0.0407037
      47.3000     0.0400749
      47.4000     0.0394722
      47.5000     0.0388713
      47.6000     0.0382724
      47.7000     0.0376841
      47.8000     0.0371118
      47.9000     0.0365412
      48.0000     0.0359724
      48.1000     0.0354181
      48.2000     0.0348754
      48.3000     0.0343343
      48.4000     0.0337950
      48.5000     0.0332724
      48.6000     0.0327575
      48.7000     0.0322442
      48.8000     0.0317325
      48.9000     0.0312399
      49.0000     0.0307524
      49.1000     0.0302664
      49.2000     0.0297820
      49.3000     0.0293177
      49.4000     0.0288564
      49.5000     0.0283965
      49.6000     0.0279381
      49.7000     0.0275000
      49.8000     0.0270637
      49.9000     0.0266289
      50.0000     0.0261958
      50.1000     0.0257784
      50.2000     0.0253724
      50.3000     0.0249715
      50.4000     0.0245763
      50.5000     0.0241872
      50.6000     0.0238037
      50.7000     0.0234255
      50.8000     0.0230521
      50.9000     0.0226845
      51.0000     0.0223230
      51.1000     0.0219672
      51.2000     0.0216163
      51.3000     0.0212703
      51.4000     0.0209300
      51.5000     0.0205943
      51.6000     0.0202631
      51.7000     0.0199362
      51.8000     0.0196120
      51.9000     0.0192924
      52.0000     0.0189775
      52.1000     0.0186677
      52.2000     0.0183617
      52.3000     0.0180598
      52.4000     0.0177631
      52.5000     0.0174708
      52.6000     0.0171821
      52.7000     0.0168972
      52.8000     0.0166161
      52.9000     0.0163396
      53.0000     0.0160674
      53.1000     0.0157991
      53.2000     0.0155351
      53.3000     0.0152748
      53.4000     0.0150184
      53.5000     0.0147660
      53.6000     0.0145169
      53.7000     0.0142714
      53.8000     0.0140298
      53.9000     0.0137919
      54.0000     0.0135580
      54.1000     0.0133281
      54.2000     0.0131012
      54.3000     0.0128772
      54.4000     0.0126570
      54.5000     0.0124402
      54.6000     0.0122267
      54.7000     0.0120167
      54.8000     0.0118099
      54.9000     0.0116062
      55.0000     0.0114058
      55.1000     0.0112083
      55.2000     0.0110043
      55.3000     0.0107946
      55.4000     0.0105881
      55.5000     0.0103850
      55.6000     0.0101856
      55.7000    0.00998962
      55.8000    0.00979687
      55.9000    0.00960752
      56.0000    0.00942268
      56.1000    0.00923746
      56.2000    0.00905242
      56.3000    0.00887102
      56.4000    0.00869272
      56.5000    0.00851734
      56.6000    0.00834500
      56.7000    0.00817596
      56.8000    0.00800990
      56.9000    0.00784709
      57.0000    0.00768756
      57.1000    0.00753093
      57.2000    0.00737682
      57.3000    0.00722524
      57.4000    0.00707668
      57.5000    0.00693098
      57.6000    0.00678790
      57.7000    0.00664733
      57.8000    0.00650960
      57.9000    0.00637441
      58.0000    0.00624170
      58.1000    0.00611136
      58.2000    0.00598373
      58.3000    0.00585849
      58.4000    0.00573546
      58.5000    0.00561461
      58.6000    0.00549618
      58.7000    0.00538014
      58.8000    0.00526632
      58.9000    0.00515455
      59.0000    0.00504481
      59.1000    0.00493723
      59.2000    0.00483166
      59.3000    0.00472815
      59.4000    0.00462675
      59.5000    0.00452749
      59.6000    0.00443011
      59.7000    0.00433443
      59.8000    0.00424051
      59.9000    0.00414842
      60.0000    0.00405836
      60.1000    0.00397007
      60.2000    0.00388350
      60.3000    0.00379860
      60.4000    0.00371533
      60.5000    0.00363385
      60.6000    0.00355392
      60.7000    0.00347550
      60.8000    0.00339864
      60.9000    0.00332326
      61.0000    0.00324942
      61.1000    0.00317708
      61.2000    0.00310620
      61.3000    0.00303679
      61.4000    0.00296880
      61.5000    0.00290217
      61.6000    0.00283692
      61.7000    0.00277298
      61.8000    0.00271068
      61.9000    0.00264979
      62.0000    0.00259017
      62.1000    0.00253181
      62.2000    0.00247477
      62.3000    0.00241887
      62.4000    0.00236407
      62.5000    0.00231036
      62.6000    0.00225772
      62.7000    0.00220617
      62.8000    0.00215589
      62.9000    0.00210669
      63.0000    0.00205854
      63.1000    0.00201140
      63.2000    0.00196522
      63.3000    0.00191997
      63.4000    0.00187564
      63.5000    0.00183231
      63.6000    0.00178991
      63.7000    0.00174841
      63.8000    0.00170782
      63.9000    0.00166810
      64.0000    0.00162922
      64.1000    0.00159117
      64.2000    0.00155396
      64.3000    0.00151756
      64.4000    0.00148195
      64.5000    0.00144710
      64.6000    0.00141300
      64.7000    0.00137961
      64.8000    0.00134693
      64.9000    0.00131494
      65.0000    0.00128365
      65.1000    0.00125312
      65.2000    0.00122328
      65.3000    0.00119410
      65.4000    0.00116554
      65.5000    0.00113758
      65.6000    0.00111020
      65.7000    0.00108344
      65.8000    0.00105729
      65.9000    0.00103174
      66.0000    0.00100680
      66.1000   0.000982453
      66.2000   0.000958653
      66.3000   0.000935369
      66.4000   0.000912581
      66.5000   0.000890288
      66.6000   0.000868493
      66.7000   0.000847206
      66.8000   0.000826423
      66.9000   0.000806237
      67.0000   0.000786624
      67.1000   0.000767461
      67.2000   0.000748725
      67.3000   0.000730425
      67.4000   0.000712537
      67.5000   0.000695061
      67.6000   0.000677988
      67.7000   0.000661308
      67.8000   0.000644986
      67.9000   0.000628996
      68.0000   0.000613432
      68.1000   0.000598300
      68.2000   0.000583510
      68.3000   0.000569072
      68.4000   0.000554979
      68.5000   0.000541220
      68.6000   0.000527777
      68.7000   0.000514635
      68.8000   0.000501789
      68.9000   0.000489368
      69.0000   0.000477988
      69.1000   0.000468331
      69.2000   0.000459690
      69.3000   0.000451293
      69.4000   0.000443216
      69.5000   0.000435078
      69.6000   0.000426805
      69.7000   0.000418842
      69.8000   0.000411228
      69.9000   0.000403754
      70.0000   0.000396402
      70.1000   0.000389073
      70.2000   0.000382361
      70.3000   0.000376248
      70.4000   0.000370208
      70.5000   0.000364321
      70.6000   0.000358574
      70.7000   0.000352914
      70.8000   0.000347333
      70.9000   0.000341680
      71.0000   0.000335972
      71.1000   0.000330516
      71.2000   0.000325306
      71.3000   0.000319871
      71.4000   0.000314149
      71.5000   0.000308828
      71.6000   0.000304074
      71.7000   0.000299316
      71.8000   0.000294458
      71.9000   0.000289769
      72.0000   0.000285396
      72.1000   0.000280973
      72.2000   0.000276047
      72.3000   0.000271221
      72.4000   0.000266914
      72.5000   0.000262677
      72.6000   0.000258502
      72.7000   0.000254390
      72.8000   0.000250342
      72.9000   0.000246361
      73.0000   0.000242522
      73.1000   0.000238783
      73.2000   0.000235103
      73.3000   0.000231480
      73.4000   0.000227940
      73.5000   0.000224501
      73.6000   0.000221111
      73.7000   0.000217769
      73.8000   0.000214476
      73.9000   0.000211229
      74.0000   0.000208050
      74.1000   0.000205124
      74.2000   0.000202303
      74.3000   0.000199318
      74.4000   0.000196222
      74.5000   0.000193214
      74.6000   0.000190339
      74.7000   0.000187504
      74.8000   0.000184708
      74.9000   0.000181949
      75.0000   0.000179209
      75.1000   0.000176504
      75.2000   0.000173839
      75.3000   0.000171214
      75.4000   0.000168648
      75.5000   0.000166163
      75.6000   0.000163713
      75.7000   0.000161298
      75.8000   0.000158917
      75.9000   0.000156592
      76.0000   0.000154311
      76.1000   0.000152064
      76.2000   0.000149850
      76.3000   0.000147673
      76.4000   0.000145558
      76.5000   0.000143476
      76.6000   0.000141420
      76.7000   0.000139389
      76.8000   0.000137384
      76.9000   0.000135406
      77.0000   0.000133454
      77.1000   0.000131531
      77.2000   0.000129637
      77.3000   0.000127772
      77.4000   0.000125936
      77.5000   0.000124123
      77.6000   0.000122308
      77.7000   0.000120517
      77.8000   0.000118748
      77.9000   0.000117001
      78.0000   0.000115259
      78.1000   0.000113491
      78.2000   0.000111752
      78.3000   0.000110148
      78.4000   0.000108607
      78.5000   0.000107077
      78.6000   0.000105537
      78.7000   0.000104019
      78.8000   0.000102481
      78.9000   0.000100952
      79.0000   9.94429e-05
      79.1000   9.79537e-05
      79.2000   9.64879e-05
      79.3000   9.50759e-05
      79.4000   9.36965e-05
      79.5000   9.23275e-05
      79.6000   9.09454e-05
      79.7000   8.95826e-05
      79.8000   8.82232e-05
      79.9000   8.68754e-05
      80.0000   8.55431e-05
      80.1000   8.41913e-05
      80.2000   8.28560e-05
      80.3000   8.14992e-05
      80.4000   8.01251e-05
      80.5000   7.87715e-05
      80.6000   7.74409e-05
      80.7000   7.61324e-05
      80.8000   7.48510e-05
      80.9000   7.36044e-05
      81.0000   7.23776e-05
      81.1000   7.11719e-05
      81.2000   6.99863e-05
      81.3000   6.88207e-05
      81.4000   6.77417e-05
      81.5000   6.66827e-05
      81.6000   6.56593e-05
      81.7000   6.46924e-05
      81.8000   6.37424e-05
      81.9000   6.28344e-05
      82.0000   6.19536e-05
      82.1000   6.10869e-05
      82.2000   6.02101e-05
      82.3000   5.93474e-05
      82.4000   5.85310e-05
      82.5000   5.77954e-05
      82.6000   5.70672e-05
      82.7000   5.63305e-05
      82.8000   5.55824e-05
      82.9000   5.48426e-05
      83.0000   5.41186e-05
      83.1000   5.34072e-05
      83.2000   5.27055e-05
      83.3000   5.20132e-05
      83.4000   5.13305e-05
      83.5000   5.06587e-05
      83.6000   5.00084e-05
      83.7000   4.93657e-05
      83.8000   4.87272e-05
      83.9000   4.80879e-05
      84.0000   4.74563e-05
      84.1000   4.68405e-05
      84.2000   4.62444e-05
      84.3000   4.56554e-05
      84.4000   4.50681e-05
      84.5000   4.44837e-05
      84.6000   4.39070e-05
      84.7000   4.33459e-05
      84.8000   4.27968e-05
      84.9000   4.22548e-05
      85.0000   4.17072e-05
      85.1000   4.11630e-05
      85.2000   4.06261e-05
      85.3000   4.01141e-05
      85.4000   3.96117e-05
      85.5000   3.91159e-05
      85.6000   3.86174e-05
      85.7000   3.81244e-05
      85.8000   3.76372e-05
      85.9000   3.71558e-05
      86.0000   3.66800e-05
      86.1000   3.62103e-05
      86.2000   3.57579e-05
      86.3000   3.53108e-05
      86.4000   3.48688e-05
      86.5000   3.44317e-05
      86.6000   3.39997e-05
      86.7000   3.35729e-05
      86.8000   3.31258e-05
      86.9000   3.26837e-05
      87.0000   3.22477e-05
      87.1000   3.18229e-05
      87.2000   3.14042e-05
      87.3000   3.09911e-05
      87.4000   3.05747e-05
      87.5000   3.01620e-05
      87.6000   2.97542e-05
      87.7000   2.93567e-05
      87.8000   2.89652e-05
      87.9000   2.85780e-05
      88.0000   2.81956e-05
      88.1000   2.78176e-05
      88.2000   2.74446e-05
      88.3000   2.70830e-05
      88.4000   2.67323e-05
      88.5000   2.63871e-05
      88.6000   2.60441e-05
      88.7000   2.57022e-05
      88.8000   2.53649e-05
      88.9000   2.50316e-05
      89.0000   2.47017e-05
      89.1000   2.43762e-05
      89.2000   2.40544e-05
      89.3000   2.37356e-05
      89.4000   2.34197e-05
      89.5000   2.31076e-05
      89.6000   2.27994e-05
      89.7000   2.24948e-05
      89.8000   2.21938e-05
      89.9000   2.18963e-05
      90.0000   2.16027e-05
      90.1000   2.13135e-05
      90.2000   2.10228e-05
      90.3000   2.07244e-05
      90.4000   2.04300e-05
      90.5000   2.01399e-05
      90.6000   1.98582e-05
      90.7000   1.95752e-05
      90.8000   1.92901e-05
      90.9000   1.90021e-05
      91.0000   1.87169e-05
      91.1000   1.84356e-05
      91.2000   1.81551e-05
      91.3000   1.78740e-05
      91.4000   1.75963e-05
      91.5000   1.73233e-05
      91.6000   1.70546e-05
      91.7000   1.68077e-05
      91.8000   1.65919e-05
      91.9000   1.64115e-05
      92.0000   1.62132e-05
      92.1000   1.60129e-05
      92.2000   1.58040e-05
      92.3000   1.55878e-05
      92.4000   1.53688e-05
      92.5000   1.51531e-05
      92.6000   1.49400e-05
      92.7000   1.47297e-05
      92.8000   1.45222e-05
      92.9000   1.43195e-05
      93.0000   1.41241e-05
      93.1000   1.39313e-05
      93.2000   1.37412e-05
      93.3000   1.35593e-05
      93.4000   1.33821e-05
      93.5000   1.32070e-05
      93.6000   1.30337e-05
      93.7000   1.28619e-05
      93.8000   1.26913e-05
      93.9000   1.25227e-05
      94.0000   1.23559e-05
      94.1000   1.21909e-05
      94.2000   1.20280e-05
      94.3000   1.18684e-05
      94.4000   1.17141e-05
      94.5000   1.15621e-05
      94.6000   1.14122e-05
      94.7000   1.12646e-05
      94.8000   1.11190e-05
      94.9000   1.09753e-05
      95.0000   1.08335e-05
      95.1000   1.06939e-05
      95.2000   1.05558e-05
      95.3000   1.04191e-05
      95.4000   1.02843e-05
      95.5000   1.01527e-05
      95.6000   1.00225e-05
      95.7000   9.89365e-06
      95.8000   9.76493e-06
      95.9000   9.63732e-06
      96.0000   9.51114e-06
      96.1000   9.38634e-06
      96.2000   9.26294e-06
      96.3000   9.14156e-06
      96.4000   9.02176e-06
      96.5000   8.90355e-06
      96.6000   8.78724e-06
      96.7000   8.67296e-06
      96.8000   8.55989e-06
      96.9000   8.44809e-06
      97.0000   8.33764e-06
      97.1000   8.22894e-06
      97.2000   8.12133e-06
      97.3000   8.01367e-06
      97.4000   7.90622e-06
      97.5000   7.80033e-06
      97.6000   7.69574e-06
      97.7000   7.59292e-06
      97.8000   7.49177e-06
      97.9000   7.39217e-06
      98.0000   7.29377e-06
      98.1000   7.19654e-06
      98.2000   7.10072e-06
      98.3000   7.01675e-06
      98.4000   6.93892e-06
      98.5000   6.86542e-06
      98.6000   6.79280e-06
      98.7000   6.72091e-06
      98.8000   6.64965e-06
      98.9000   6.57901e-06
      99.0000   6.50923e-06
      99.1000   6.44003e-06
      99.2000   6.37104e-06
      99.3000   6.30072e-06
      99.4000   6.23118e-06
      99.5000   6.16236e-06
      99.6000   6.09470e-06
      99.7000   6.03069e-06
      99.8000   5.96991e-06
      99.9000   5.93198e-06
      100.000   5.92880e-06
      100.100   5.92359e-06
      100.200   5.91834e-06
      100.300   5.91305e-06
      100.400   5.90772e-06
      100.500   5.90314e-06
      100.600   5.89837e-06
      100.700   5.89350e-06
      100.800   5.88846e-06
      100.900   5.88327e-06
      101.000   5.87795e-06
      101.100   5.87249e-06
      101.200   5.86696e-06
      101.300   5.86139e-06
      101.400   5.85579e-06
      101.500   5.85021e-06
      101.600   5.84467e-06
      101.700   5.83974e-06
      101.800   5.83504e-06
      101.900   5.83035e-06
      102.000   5.82578e-06
      102.100   5.82209e-06
      102.200   5.81881e-06
      102.300   5.81544e-06
      102.400   5.81201e-06
      102.500   5.80847e-06
      102.600   5.80479e-06
      102.700   5.80096e-06
      102.800   5.79700e-06
      102.900   5.79291e-06
      103.000   5.78868e-06
      103.100   5.78434e-06
      103.200   5.77991e-06
      103.300   5.77541e-06
      103.400   5.77083e-06
      103.500   5.76620e-06
      103.600   5.76156e-06
      103.700   5.75681e-06
      103.800   5.75068e-06
      103.900   5.74292e-06
      104.000   5.73506e-06
      104.100   5.72725e-06
      104.200   5.72008e-06
      104.300   5.71708e-06
      104.400   5.71417e-06
      104.500   5.71122e-06
      104.600   5.70813e-06
      104.700   5.70364e-06
      104.800   5.69849e-06
      104.900   5.69323e-06
      105.000   5.68793e-06
      105.100   5.68347e-06
      105.200   5.68132e-06
      105.300   5.67914e-06
      105.400   5.67686e-06
      105.500   5.67449e-06
      105.600   5.67262e-06
      105.700   5.67080e-06
      105.800   5.66892e-06
      105.900   5.66702e-06
      106.000   5.66595e-06
      106.100   5.66658e-06
      106.200   5.66732e-06
      106.300   5.66800e-06
      106.400   5.66860e-06
      106.500   5.66913e-06
      106.600   5.66960e-06
      106.700   5.67000e-06
      106.800   5.67034e-06
      106.900   5.67064e-06
      107.000   5.67089e-06
      107.100   5.67108e-06
      107.200   5.67123e-06
      107.300   5.67131e-06
      107.400   5.67123e-06
      107.500   5.67101e-06
      107.600   5.67073e-06
      107.700   5.67039e-06
      107.800   5.67004e-06
      107.900   5.66926e-06
      108.000   5.66842e-06
      108.100   5.66754e-06
      108.200   5.66656e-06
      108.300   5.66546e-06
      108.400   5.66382e-06
      108.500   5.66210e-06
      108.600   5.66030e-06
      108.700   5.65837e-06
      108.800   5.65496e-06
      108.900   5.64942e-06
      109.000   5.64376e-06
      109.100   5.63799e-06
      109.200   5.63215e-06
      109.300   5.62627e-06
      109.400   5.62033e-06
      109.500   5.61434e-06
      109.600   5.60831e-06
      109.700   5.60222e-06
      109.800   5.59610e-06
      109.900   5.58995e-06
      110.000   5.58379e-06
      110.100   5.57761e-06
      110.200   5.57139e-06
      110.300   5.56603e-06
      110.400   5.56073e-06
      110.500   5.55541e-06
      110.600   5.55005e-06
      110.700   5.54463e-06
      110.800   5.53914e-06
      110.900   5.53359e-06
      111.000   5.52795e-06
      111.100   5.52223e-06
      111.200   5.51651e-06
      111.300   5.51259e-06
      111.400   5.50861e-06
      111.500   5.50448e-06
      111.600   5.50025e-06
      111.700   5.49601e-06
      111.800   5.49289e-06
      111.900   5.48974e-06
      112.000   5.48652e-06
      112.100   5.48322e-06
      112.200   5.47987e-06
      112.300   5.47523e-06
      112.400   5.47053e-06
      112.500   5.46582e-06
      112.600   5.46111e-06
      112.700   5.45660e-06
      112.800   5.45331e-06
      112.900   5.44703e-06
      113.000   5.44177e-06
      113.100   5.43695e-06
      113.200   5.43149e-06
      113.300   5.42665e-06
      113.400   5.41483e-06
      113.500   5.40120e-06
      113.600   5.39351e-06
      113.700   5.38386e-06
      113.800   5.37000e-06
      113.900   5.36199e-06
      114.000   5.35386e-06
      114.100   5.34133e-06
      114.200   5.33086e-06
      114.300   5.32378e-06
      114.400   5.31570e-06
      114.500   5.30661e-06
      114.600   5.30200e-06
      114.700   5.29392e-06
      114.800   5.28811e-06
      114.900   5.28763e-06
      115.000   5.28323e-06
      115.100   5.27650e-06
      115.200   5.26947e-06
      115.300   5.26733e-06
      115.400   5.26046e-06
      115.500   5.25586e-06
      115.600   5.24923e-06
      115.700   5.23955e-06
      115.800   5.23383e-06
      115.900   5.22590e-06
      116.000   5.22140e-06
      116.100   5.22221e-06
      116.200   5.22249e-06
      116.300   5.22169e-06
      116.400   5.21901e-06
      116.500   5.22014e-06
      116.600   5.21994e-06
      116.700   5.22065e-06
      116.800   5.22012e-06
      116.900   5.21470e-06
      117.000   5.21467e-06
      117.100   5.23035e-06
      117.200   5.25720e-06
      117.300   5.27318e-06
      117.400   5.28845e-06
      117.500   5.30394e-06
      117.600   5.31298e-06
      117.700   5.31947e-06
      117.800   5.32254e-06
      117.900   5.32382e-06
      118.000   5.32177e-06
      118.100   5.31650e-06
      118.200   5.31366e-06
      118.300   5.31183e-06
      118.400   5.29733e-06
      118.500   5.28374e-06
      118.600   5.27587e-06
      118.700   5.26583e-06
      118.800   5.25285e-06
      118.900   5.24172e-06
      119.000   5.22354e-06
      119.100   5.19762e-06
      119.200   5.17958e-06
      119.300   5.16818e-06
      119.400   5.15994e-06
      119.500   5.15311e-06
      119.600   5.14157e-06
      119.700   5.12452e-06
      119.800   5.09656e-06
      119.900   5.05407e-06
      120.000   5.01611e-06
      120.100   4.98177e-06
      120.200   4.96530e-06
      120.300   4.95915e-06
      120.400   4.95280e-06
      120.500   4.93159e-06
      120.600   4.89899e-06
      120.700   4.86259e-06
      120.800   4.82840e-06
      120.900   4.81360e-06
      121.000   4.82928e-06
      121.100   4.83993e-06
      121.200   4.83558e-06
      121.300   4.82010e-06
      121.400   4.79603e-06
      121.500   4.76539e-06
      121.600   4.70967e-06
      121.700   4.66369e-06
      121.800   4.60865e-06
      121.900   4.55228e-06
      122.000   4.48968e-06
      122.100   4.43146e-06
      122.200   4.37390e-06
      122.300   4.33772e-06
      122.400   4.32487e-06
      122.500   4.31697e-06
      122.600   4.30603e-06
      122.700   4.29481e-06
      122.800   4.27813e-06
      122.900   4.26449e-06
      123.000   4.27873e-06
      123.100   4.34179e-06
      123.200   4.40855e-06
      123.300   4.50103e-06
      123.400   4.61520e-06
      123.500   4.76038e-06
      123.600   4.88926e-06
      123.700   4.96758e-06
      123.800   5.03168e-06
      123.900   5.11101e-06
      124.000   5.21501e-06
      124.100   5.39873e-06
      124.200   5.75293e-06
      124.300   6.27542e-06
      124.400   6.78471e-06
      124.500   6.95538e-06
      124.600   6.96788e-06
      124.700   6.96200e-06
      124.800   6.95793e-06
      124.900   6.95370e-06
      125.000   6.94922e-06
      125.100   6.94337e-06
      125.200   6.93734e-06
      125.300   6.93126e-06
      125.400   6.92516e-06
      125.500   6.91904e-06
      125.600   6.91286e-06
      125.700   6.90667e-06
      125.800   6.90039e-06
      125.900   6.89409e-06
      126.000   6.88774e-06
      126.100   6.88133e-06
      126.200   6.87483e-06
      126.300   6.86823e-06
      126.400   6.86154e-06
      126.500   6.85471e-06
      126.600   6.84780e-06
      126.700   6.84078e-06
      126.800   6.83365e-06
      126.900   6.82640e-06
      127.000   6.81887e-06
      127.100   6.81066e-06
      127.200   6.80213e-06
      127.300   6.79342e-06
      127.400   6.78464e-06
      127.500   6.77579e-06
      127.600   6.76690e-06
      127.700   6.75795e-06
      127.800   6.74895e-06
      127.900   6.73990e-06
      128.000   6.73084e-06
      128.100   6.72173e-06
      128.200   6.71258e-06
      128.300   6.70340e-06
      128.400   6.69419e-06
      128.500   6.68491e-06
      128.600   6.67554e-06
      128.700   6.66616e-06
      128.800   6.65671e-06
      128.900   6.64715e-06
      129.000   6.63754e-06
      129.100   6.62771e-06
      129.200   6.61736e-06
      129.300   6.60691e-06
      129.400   6.59639e-06
      129.500   6.58578e-06
      129.600   6.57510e-06
      129.700   6.56434e-06
      129.800   6.55349e-06
      129.900   6.54258e-06
      130.000   6.53163e-06
      130.100   6.52065e-06
      130.200   6.50962e-06
      130.300   6.49857e-06
      130.400   6.48751e-06
      130.500   6.47642e-06
      130.600   6.46531e-06
      130.700   6.45421e-06
      130.800   6.44313e-06
      130.900   6.43204e-06
      131.000   6.42093e-06
      131.100   6.40983e-06
      131.200   6.39866e-06
      131.300   6.38735e-06
      131.400   6.37602e-06
      131.500   6.36467e-06
      131.600   6.35328e-06
      131.700   6.34185e-06
      131.800   6.33036e-06
      131.900   6.31880e-06
      132.000   6.30718e-06
      132.100   6.29547e-06
      132.200   6.28369e-06
      132.300   6.27182e-06
      132.400   6.25987e-06
      132.500   6.24782e-06
      132.600   6.23569e-06
      132.700   6.22346e-06
      132.800   6.21115e-06
      132.900   6.19878e-06
      133.000   6.18634e-06
      133.100   6.17385e-06
      133.200   6.16130e-06
      133.300   6.14867e-06
      133.400   6.13597e-06
      133.500   6.12321e-06
      133.600   6.11043e-06
      133.700   6.09766e-06
      133.800   6.08488e-06
      133.900   6.07211e-06
      134.000   6.05934e-06
      134.100   6.04659e-06
      134.200   6.03384e-06
      134.300   6.02111e-06
      134.400   6.00840e-06
      134.500   5.99571e-06
      134.600   5.98301e-06
      134.700   5.97032e-06
      134.800   5.95763e-06
      134.900   5.94491e-06
      135.000   5.93220e-06
      135.100   5.91945e-06
      135.200   5.90668e-06
      135.300   5.89389e-06
      135.400   5.88104e-06
      135.500   5.86798e-06
      135.600   5.85475e-06
      135.700   5.84145e-06
      135.800   5.82810e-06
      135.900   5.81471e-06
      136.000   5.80127e-06
      136.100   5.78778e-06
      136.200   5.77425e-06
      136.300   5.76064e-06
      136.400   5.74699e-06
      136.500   5.73331e-06
      136.600   5.71959e-06
      136.700   5.70583e-06
      136.800   5.69206e-06
      136.900   5.67826e-06
      137.000   5.66443e-06
      137.100   5.65057e-06
      137.200   5.63669e-06
      137.300   5.62278e-06
      137.400   5.60889e-06
      137.500   5.59498e-06
      137.600   5.58105e-06
      137.700   5.56701e-06
      137.800   5.55292e-06
      137.900   5.53881e-06
      138.000   5.52470e-06
      138.100   5.51060e-06
      138.200   5.49651e-06
      138.300   5.48240e-06
      138.400   5.46830e-06
      138.500   5.45420e-06
      138.600   5.44010e-06
      138.700   5.42599e-06
      138.800   5.41189e-06
      138.900   5.39779e-06
      139.000   5.38369e-06
      139.100   5.36958e-06
      139.200   5.35547e-06
      139.300   5.34136e-06
      139.400   5.32724e-06
      139.500   5.31312e-06
      139.600   5.29898e-06
      139.700   5.28485e-06
      139.800   5.27071e-06
      139.900   5.25654e-06
      140.000   5.24232e-06
      140.100   5.22808e-06
      140.200   5.21381e-06
      140.300   5.19955e-06
      140.400   5.18529e-06
      140.500   5.17100e-06
      140.600   5.15670e-06
      140.700   5.14239e-06
      140.800   5.12807e-06
      140.900   5.11372e-06
      141.000   5.09934e-06
      141.100   5.08495e-06
      141.200   5.07057e-06
      141.300   5.05616e-06
      141.400   5.04174e-06
      141.500   5.02731e-06
      141.600   5.01286e-06
      141.700   4.99838e-06
      141.800   4.98391e-06
      141.900   4.96944e-06
      142.000   4.95496e-06
      142.100   4.94435e-06
      142.200   4.94479e-06
      142.300   4.95479e-06
      142.400   4.96472e-06
      142.500   4.97456e-06
      142.600   4.98433e-06
      142.700   4.99404e-06
      142.800   5.00369e-06
      142.900   5.01327e-06
      143.000   5.02279e-06
      143.100   5.03223e-06
      143.200   5.04161e-06
      143.300   5.05089e-06
      143.400   5.06013e-06
      143.500   5.06931e-06
      143.600   5.07841e-06
      143.700   5.08744e-06
      143.800   5.09641e-06
      143.900   5.10531e-06
      144.000   5.11412e-06
      144.100   5.12284e-06
      144.200   5.13150e-06
      144.300   5.14008e-06
      144.400   5.14970e-06
      144.500   5.17426e-06
      144.600   5.20364e-06
      144.700   5.23355e-06
      144.800   5.26344e-06
      144.900   5.29332e-06
      145.000   5.32321e-06
      145.100   5.35309e-06
      145.200   5.38298e-06
      145.300   5.41285e-06
      145.400   5.44272e-06
      145.500   5.47257e-06
      145.600   5.50237e-06
      145.700   5.53212e-06
      145.800   5.56190e-06
      145.900   5.59167e-06
      146.000   5.62141e-06
      146.100   5.65112e-06
      146.200   5.68080e-06
      146.300   5.71046e-06
      146.400   5.74006e-06
      146.500   5.76961e-06
      146.600   5.79916e-06
      146.700   5.82869e-06
      146.800   5.85781e-06
      146.900   5.88635e-06
      147.000   5.91484e-06
      147.100   5.94327e-06
      147.200   5.97168e-06
      147.300   6.00003e-06
      147.400   6.02833e-06
      147.500   6.05659e-06
      147.600   6.08477e-06
      147.700   6.11292e-06
      147.800   6.14102e-06
      147.900   6.16905e-06
      148.000   6.19700e-06
      148.100   6.22490e-06
      148.200   6.25275e-06
      148.300   6.28058e-06
      148.400   6.30836e-06
      148.500   6.33608e-06
      148.600   6.36374e-06
      148.700   6.39134e-06
      148.800   6.41885e-06
      148.900   6.44635e-06
      149.000   6.47382e-06
      149.100   6.50123e-06
      149.200   6.52854e-06
      149.300   6.55578e-06
      149.400   6.58296e-06
      149.500   6.61010e-06
      149.600   6.63717e-06
      149.700   6.66415e-06
      149.800   6.69107e-06
      149.900   6.71794e-06
      150.000   6.74476e-06
      150.100   6.77150e-06
      150.200   6.79813e-06
      150.300   6.82469e-06
      150.400   6.85117e-06
      150.500   6.87756e-06
      150.600   6.90384e-06
      150.700   6.93005e-06
      150.800   6.95612e-06
      150.900   6.98207e-06
      151.000   7.00788e-06
      151.100   7.03362e-06
      151.200   7.05921e-06
      151.300   7.08466e-06
      151.400   7.11000e-06
      151.500   7.13519e-06
      151.600   7.16040e-06
      151.700   7.18568e-06
      151.800   7.21084e-06
      151.900   7.23583e-06
      152.000   7.26065e-06
      152.100   7.28533e-06
      152.200   7.30993e-06
      152.300   7.33432e-06
      152.400   7.35857e-06
      152.500   7.38271e-06
      152.600   7.40671e-06
      152.700   7.43056e-06
      152.800   7.45426e-06
      152.900   7.47787e-06
      153.000   7.50139e-06
      153.100   7.52477e-06
      153.200   7.54805e-06
      153.300   7.57124e-06
      153.400   7.59430e-06
      153.500   7.61726e-06
      153.600   7.64013e-06
      153.700   7.66297e-06
      153.800   7.68566e-06
      153.900   7.70825e-06
      154.000   7.73253e-06
      154.100   7.76072e-06
      154.200   7.79016e-06
      154.300   7.81956e-06
      154.400   7.84891e-06
      154.500   7.87812e-06
      154.600   7.90726e-06
      154.700   7.93632e-06
      154.800   7.96528e-06
      154.900   7.99407e-06
      155.000   8.02277e-06
      155.100   8.05139e-06
      155.200   8.07982e-06
      155.300   8.10811e-06
      155.400   8.13627e-06
      155.500   8.16431e-06
      155.600   8.19212e-06
      155.700   8.21977e-06
      155.800   8.24728e-06
      155.900   8.27459e-06
      156.000   8.30172e-06
      156.100   8.32865e-06
      156.200   8.35540e-06
      156.300   8.38200e-06
      156.400   8.40837e-06
      156.500   8.43422e-06
      156.600   8.45798e-06
      156.700   8.48148e-06
      156.800   8.50476e-06
      156.900   8.52787e-06
      157.000   8.55084e-06
      157.100   8.57355e-06
      157.200   8.59610e-06
      157.300   8.61848e-06
      157.400   8.64070e-06
      157.500   8.66272e-06
      157.600   8.68456e-06
      157.700   8.70629e-06
      157.800   8.72783e-06
      157.900   8.74917e-06
      158.000   8.77038e-06
      158.100   8.79149e-06
      158.200   8.81238e-06
      158.300   8.83312e-06
      158.400   8.85374e-06
      158.500   8.87420e-06
      158.600   8.89448e-06
      158.700   8.91456e-06
      158.800   8.93458e-06
      158.900   8.95435e-06
      159.000   8.97396e-06
      159.100   8.99333e-06
      159.200   9.01255e-06
      159.300   9.03154e-06
      159.400   9.05034e-06
      159.500   9.06895e-06
      159.600   9.08739e-06
      159.700   9.10561e-06
      159.800   9.12360e-06
      159.900   9.14141e-06
      160.000   9.15896e-06
      160.100   9.17629e-06
      160.200   9.19339e-06
      160.300   9.21026e-06
      160.400   9.22695e-06
      160.500   9.24336e-06
      160.600   9.25954e-06
      160.700   9.27551e-06
      160.800   9.29122e-06
      160.900   9.30668e-06
      161.000   9.32190e-06
      161.100   9.33695e-06
      161.200   9.35174e-06
      161.300   9.36627e-06
      161.400   9.38058e-06
      161.500   9.39473e-06
      161.600   9.40857e-06
      161.700   9.42209e-06
      161.800   9.43543e-06
      161.900   9.44856e-06
      162.000   9.46142e-06
      162.100   9.47409e-06
      162.200   9.48661e-06
      162.300   9.49888e-06
      162.400   9.51095e-06
      162.500   9.52281e-06
      162.600   9.53451e-06
      162.700   9.54602e-06
      162.800   9.55728e-06
      162.900   9.56835e-06
      163.000   9.57923e-06
      163.100   9.58992e-06
      163.200   9.60037e-06
      163.300   9.61060e-06
      163.400   9.62064e-06
      163.500   9.63046e-06
      163.600   9.64003e-06
      163.700   9.64938e-06
      163.800   9.65857e-06
      163.900   9.66746e-06
      164.000   9.67611e-06
      164.100   9.68457e-06
      164.200   9.69274e-06
      164.300   9.70125e-06
      164.400   9.70953e-06
      164.500   9.71760e-06
      164.600   9.72543e-06
      164.700   9.73298e-06
      164.800   9.74029e-06
      164.900   9.74738e-06
      165.000   9.75426e-06
      165.100   9.76087e-06
      165.200   9.76724e-06
      165.300   9.77340e-06
      165.400   9.77939e-06
      165.500   9.78512e-06
      165.600   9.79061e-06
      165.700   9.79596e-06
      165.800   9.80108e-06
      165.900   9.80597e-06
      166.000   9.81069e-06
      166.100   9.81523e-06
      166.200   9.81962e-06
      166.300   9.82382e-06
      166.400   9.82779e-06
      166.500   9.83164e-06
      166.600   9.83535e-06
      166.700   9.83884e-06
      166.800   9.84208e-06
      166.900   9.84517e-06
      167.000   9.84820e-06
      167.100   9.85092e-06
      167.200   9.85346e-06
      167.300   9.85586e-06
      167.400   9.85809e-06
      167.500   9.86012e-06
      167.600   9.86198e-06
      167.700   9.86370e-06
      167.800   9.86520e-06
      167.900   9.86650e-06
      168.000   9.86761e-06
      168.100   9.86854e-06
      168.200   9.86923e-06
      168.300   9.86970e-06
      168.400   9.86997e-06
      168.500   9.87006e-06
      168.600   9.86986e-06
      168.700   9.86941e-06
      168.800   9.86874e-06
      168.900   9.86785e-06
      169.000   9.86672e-06
      169.100   9.86531e-06
      169.200   9.86366e-06
      169.300   9.86176e-06
      169.400   9.85959e-06
      169.500   9.85660e-06
      169.600   9.85085e-06
      169.700   9.84194e-06
      169.800   9.83194e-06
      169.900   9.82156e-06
      170.000   9.81082e-06
      170.100   9.79977e-06
      170.200   9.78837e-06
      170.300   1.78739e-05
      170.400   8.94811e-05
      170.500   0.000293077
      170.600   0.000617078
      170.700   0.000975783
      170.800    0.00118707
      170.900    0.00122623
      171.000    0.00121793
      171.100    0.00120955
      171.200    0.00120109
      171.300    0.00119255
      171.400    0.00118393
      171.500    0.00117524
      171.600    0.00116648
      171.700    0.00115769
      171.800    0.00114886
      171.900    0.00114003
      172.000    0.00113122
      172.100    0.00112243
      172.200    0.00111369
      172.300    0.00110501
      172.400    0.00109626
      172.500    0.00108756
      172.600    0.00107895
      172.700    0.00107042
      172.800    0.00106198
      172.900    0.00105363
      173.000    0.00104537
      173.100    0.00103720
      173.200    0.00102912
      173.300    0.00102114
      173.400    0.00101324
      173.500    0.00100543
      173.600   0.000997712
      173.700   0.000990075
      173.800   0.000982519
      173.900   0.000975046
      174.000   0.000967646
      174.100   0.000960317
      174.200   0.000953060
      174.300   0.000945870
      174.400   0.000938744
      174.500   0.000931678
      174.600   0.000924665
      174.700   0.000917711
      174.800   0.000910811
      174.900   0.000903959
      175.000   0.000897151
      175.100   0.000890384
      175.200   0.000883687
      175.300   0.000877025
      175.400   0.000870405
      175.500   0.000863832
      175.600   0.000857301
      175.700   0.000850815
      175.800   0.000844371
      175.900   0.000837972
      176.000   0.000831615
      176.100   0.000825305
      176.200   0.000819037
      176.300   0.000812809
      176.400   0.000806628
      176.500   0.000800486
      176.600   0.000794385
      176.700   0.000788324
      176.800   0.000782303
      176.900   0.000776322
      177.000   0.000770376
      177.100   0.000764465
      177.200   0.000758592
      177.300   0.000752752
      177.400   0.000746943
      177.500   0.000741164
      177.600   0.000735416
      177.700   0.000729698
      177.800   0.000724008
      177.900   0.000718338
      178.000   0.000712740
      178.100   0.000707174
      178.200   0.000701631
      178.300   0.000696115
      178.400   0.000690627
      178.500   0.000685166
      178.600   0.000679730
      178.700   0.000674319
      178.800   0.000668938
      178.900   0.000663586
      179.000   0.000658261
      179.100   0.000652964
      179.200   0.000647698
      179.300   0.000642464
      179.400   0.000637261
      179.500   0.000632093
      179.600   0.000626957
      179.700   0.000621859
      179.800   0.000616794
      179.900   0.000611766
      180.000   0.000606775
      180.100   0.000601823
      180.200   0.000596909
      180.300   0.000592035
      180.400   0.000587200
      180.500   0.000582406
      180.600   0.000577652
      180.700   0.000572938
      180.800   0.000568268
      180.900   0.000563637
      181.000   0.000559048
      181.100   0.000554500
      181.200   0.000549992
      181.300   0.000545522
      181.400   0.000541094
      181.500   0.000536705
      181.600   0.000532354
      181.700   0.000528042
      181.800   0.000523768
      181.900   0.000519533
      182.000   0.000515337
      182.100   0.000511177
      182.200   0.000507056
      182.300   0.000502970
      182.400   0.000498923
      182.500   0.000494912
      182.600   0.000490935
      182.700   0.000486995
      182.800   0.000483091
      182.900   0.000479221
      183.000   0.000475387
      183.100   0.000471588
      183.200   0.000467822
      183.300   0.000464089
      183.400   0.000460390
      183.500   0.000456724
      183.600   0.000453091
      183.700   0.000449491
      183.800   0.000445934
      183.900   0.000442412
      184.000   0.000438921
      184.100   0.000435459
      184.200   0.000432027
      184.300   0.000428622
      184.400   0.000425245
      184.500   0.000421897
      184.600   0.000418574
      184.700   0.000415277
      184.800   0.000412005
      184.900   0.000408758
      185.000   0.000405536
      185.100   0.000402336
      185.200   0.000399158
      185.300   0.000396004
      185.400   0.000392872
      185.500   0.000389760
      185.600   0.000386669
      185.700   0.000383597
      185.800   0.000380547
      185.900   0.000377517
      186.000   0.000374504
      186.100   0.000371509
      186.200   0.000368534
      186.300   0.000365576
      186.400   0.000362636
      186.500   0.000359713
      186.600   0.000356808
      186.700   0.000353918
      186.800   0.000351044
      186.900   0.000348188
      187.000   0.000345347
      187.100   0.000342523
      187.200   0.000339716
      187.300   0.000336925
      187.400   0.000334151
      187.500   0.000331394
      187.600   0.000328653
      187.700   0.000325929
      187.800   0.000323221
      187.900   0.000320530
      188.000   0.000317856
      188.100   0.000315198
      188.200   0.000312557
      188.300   0.000309932
      188.400   0.000307323
      188.500   0.000304733
      188.600   0.000302160
      188.700   0.000299603
      188.800   0.000297065
      188.900   0.000294544
      189.000   0.000292041
      189.100   0.000289554
      189.200   0.000287086
      189.300   0.000284635
      189.400   0.000282203
      189.500   0.000279789
      189.600   0.000277392
      189.700   0.000275014
      189.800   0.000272677
      189.900   0.000270362
      190.000   0.000268064
      190.100   0.000265785
      190.200   0.000263524
      190.300   0.000261281
      190.400   0.000259056
      190.500   0.000256850
      190.600   0.000254662
      190.700   0.000252492
      190.800   0.000250341
      190.900   0.000248208
      191.000   0.000246093
      191.100   0.000243998
      191.200   0.000241919
      191.300   0.000239859
      191.400   0.000237817
      191.500   0.000235792
      191.600   0.000233785
      191.700   0.000231796
      191.800   0.000229823
      191.900   0.000227868
      192.000   0.000225930
      192.100   0.000224010
      192.200   0.000222107
      192.300   0.000220221
      192.400   0.000218350
      192.500   0.000216497
      192.600   0.000214659
      192.700   0.000212838
      192.800   0.000211032
      192.900   0.000209237
      193.000   0.000207459
      193.100   0.000205696
      193.200   0.000203949
      193.300   0.000202218
      193.400   0.000200504
      193.500   0.000198805
      193.600   0.000197120
      193.700   0.000195451
      193.800   0.000193799
      193.900   0.000192161
      194.000   0.000190538
      194.100   0.000188931
      194.200   0.000187339
      194.300   0.000185763
      194.400   0.000184200
      194.500   0.000182653
      194.600   0.000181119
      194.700   0.000179600
      194.800   0.000178095
      194.900   0.000176604
      195.000   0.000175126
      195.100   0.000173662
      195.200   0.000172212
      195.300   0.000170775
      195.400   0.000169350
      195.500   0.000167938
      195.600   0.000166537
      195.700   0.000165149
      195.800   0.000163772
      195.900   0.000162405
      196.000   0.000160986
      196.100   0.000159578
      196.200   0.000158182
      196.300   0.000156798
      196.400   0.000155424
      196.500   0.000154060
      196.600   0.000152707
      196.700   0.000151364
      196.800   0.000150032
      196.900   0.000148708
      197.000   0.000147395
      197.100   0.000146090
      197.200   0.000144795
      197.300   0.000143508
      197.400   0.000142230
      197.500   0.000140960
      197.600   0.000139700
      197.700   0.000138447
      197.800   0.000137204
      197.900   0.000135968
      198.000   0.000134741
      198.100   0.000133522
      198.200   0.000132311
      198.300   0.000131108
      198.400   0.000129914
      198.500   0.000128728
      198.600   0.000127550
      198.700   0.000126381
      198.800   0.000125220
      198.900   0.000124068
      199.000   0.000122924
      199.100   0.000121789
      199.200   0.000120662
      199.300   0.000119544
      199.400   0.000118435
      199.500   0.000117335
      199.600   0.000116244
      199.700   0.000115161
      199.800   0.000114087
      199.900   0.000113022
      200.000   0.000111965
      200.100   0.000110924
      200.200   0.000109885
      200.300   0.000108855
      200.400   0.000107834
      200.500   0.000106822
      200.600   0.000105818
      200.700   0.000104823
      200.800   0.000103836
      200.900   0.000102858
      201.000   0.000101889
      201.100   0.000100927
      201.200   9.99742e-05
      201.300   9.90295e-05
      201.400   9.80934e-05
      201.500   9.71648e-05
      201.600   9.62445e-05
      201.700   9.53324e-05
      201.800   9.44278e-05
      201.900   9.35311e-05
      202.000   9.26431e-05
      202.100   9.17621e-05
      202.200   9.08894e-05
      202.300   9.00444e-05
      202.400   8.92490e-05
      202.500   8.84718e-05
      202.600   8.76997e-05
      202.700   8.69345e-05
      202.800   8.61758e-05
      202.900   8.54234e-05
      203.000   8.46778e-05
      203.100   8.39389e-05
      203.200   8.32062e-05
      203.300   8.24798e-05
      203.400   8.17600e-05
      203.500   8.10469e-05
      203.600   8.03401e-05
      203.700   7.96400e-05
      203.800   7.89466e-05
      203.900   7.82599e-05
      204.000   7.75796e-05
      204.100   7.69060e-05
      204.200   7.62390e-05
      204.300   7.55783e-05
      204.400   7.49242e-05
      204.500   7.42765e-05
      204.600   7.36352e-05
      204.700   7.30002e-05
      204.800   7.23720e-05
      204.900   7.17500e-05
      205.000   7.11341e-05
      205.100   7.05246e-05
      205.200   6.99208e-05
      205.300   6.93234e-05
      205.400   6.87318e-05
      205.500   6.81459e-05
      205.600   6.75748e-05
      205.700   6.70184e-05
      205.800   6.64681e-05
      205.900   6.59231e-05
      206.000   6.53835e-05
      206.100   6.48485e-05
      206.200   6.43183e-05
      206.300   6.37931e-05
      206.400   6.32727e-05
      206.500   6.27565e-05
      206.600   6.22451e-05
      206.700   6.17380e-05
      206.800   6.12350e-05
      206.900   6.07363e-05
      207.000   6.02420e-05
      207.100   5.97514e-05
      207.200   5.92651e-05
      207.300   5.87827e-05
      207.400   5.83039e-05
      207.500   5.78289e-05
      207.600   5.73576e-05
      207.700   5.68898e-05
      207.800   5.64256e-05
      207.900   5.59649e-05
      208.000   5.55076e-05
      208.100   5.50538e-05
      208.200   5.46035e-05
      208.300   5.41564e-05
      208.400   5.37126e-05
      208.500   5.32722e-05
      208.600   5.28348e-05
      208.700   5.24006e-05
      208.800   5.19696e-05
      208.900   5.15399e-05
      209.000   5.11071e-05
      209.100   5.06770e-05
      209.200   5.02502e-05
      209.300   4.98264e-05
      209.400   4.94059e-05
      209.500   4.89885e-05
      209.600   4.85743e-05
      209.700   4.81632e-05
      209.800   4.77554e-05
      209.900   4.73504e-05
      210.000   4.69486e-05
      210.100   4.65498e-05
      210.200   4.61539e-05
      210.300   4.57610e-05
      210.400   4.53711e-05
      210.500   4.49840e-05
      210.600   4.45997e-05
      210.700   4.42184e-05
      210.800   4.38399e-05
      210.900   4.34640e-05
      211.000   4.30910e-05
      211.100   4.27207e-05
      211.200   4.23530e-05
      211.300   4.19881e-05
      211.400   4.16260e-05
      211.500   4.12662e-05
      211.600   4.09092e-05
      211.700   4.05547e-05
      211.800   4.02026e-05
      211.900   3.98530e-05
      212.000   3.95061e-05
      212.100   3.91615e-05
      212.200   3.88193e-05
      212.300   3.84798e-05
      212.400   3.81428e-05
      212.500   3.78082e-05
      212.600   3.74760e-05
      212.700   3.71461e-05
      212.800   3.68186e-05
      212.900   3.64936e-05
      213.000   3.61708e-05
      213.100   3.58505e-05
      213.200   3.55326e-05
      213.300   3.52170e-05
      213.400   3.49038e-05
      213.500   3.45929e-05
      213.600   3.42844e-05
      213.700   3.39783e-05
      213.800   3.36745e-05
      213.900   3.33732e-05
      214.000   3.30743e-05
      214.100   3.27777e-05
      214.200   3.24837e-05
      214.300   3.21919e-05
      214.400   3.19026e-05
      214.500   3.16157e-05
      214.600   3.13313e-05
      214.700   3.10493e-05
      214.800   3.07697e-05
      214.900   3.04927e-05
      215.000   3.02179e-05
      215.100   2.99457e-05
      215.200   2.96758e-05
      215.300   2.94086e-05
      215.400   2.91437e-05
      215.500   2.88812e-05
      215.600   2.86213e-05
      215.700   2.83637e-05
      215.800   2.81083e-05
      215.900   2.78555e-05
      216.000   2.76050e-05
      216.100   2.73568e-05
      216.200   2.71110e-05
      216.300   2.68676e-05
      216.400   2.66265e-05
      216.500   2.63877e-05
      216.600   2.61512e-05
      216.700   2.59171e-05
      216.800   2.56851e-05
      216.900   2.54554e-05
      217.000   2.52279e-05
      217.100   2.50025e-05
      217.200   2.47794e-05
      217.300   2.45584e-05
      217.400   2.43395e-05
      217.500   2.41228e-05
      217.600   2.39080e-05
      217.700   2.36953e-05
      217.800   2.34847e-05
      217.900   2.32762e-05
      218.000   2.30696e-05
      218.100   2.28649e-05
      218.200   2.26622e-05
      218.300   2.24614e-05
      218.400   2.22626e-05
      218.500   2.20655e-05
      218.600   2.18704e-05
      218.700   2.16770e-05
      218.800   2.14855e-05
      218.900   2.12958e-05
      219.000   2.11078e-05
      219.100   2.09215e-05
      219.200   2.07370e-05
      219.300   2.05541e-05
      219.400   2.03729e-05
      219.500   2.01934e-05
      219.600   2.00155e-05
      219.700   1.98392e-05
      219.800   1.96646e-05
      219.900   1.94916e-05
      220.000   1.93201e-05
      220.100   1.91501e-05
      220.200   1.89817e-05
      220.300   1.88148e-05
      220.400   1.86495e-05
      220.500   1.84856e-05
      220.600   1.83232e-05
      220.700   1.81623e-05
      220.800   1.80027e-05
      220.900   1.78447e-05
      221.000   1.76880e-05
      221.100   1.75326e-05
      221.200   1.73787e-05
      221.300   1.72262e-05
      221.400   1.70750e-05
      221.500   1.69251e-05
      221.600   1.67765e-05
      221.700   1.66292e-05
      221.800   1.64832e-05
      221.900   1.63385e-05
      222.000   1.61950e-05
      222.100   1.60527e-05
      222.200   1.59117e-05
      222.300   1.57719e-05
      222.400   1.56333e-05
      222.500   1.54958e-05
      222.600   1.53595e-05
      222.700   1.52244e-05
      222.800   1.50902e-05
      222.900   1.49573e-05
      223.000   1.48254e-05
      223.100   1.46945e-05
      223.200   1.45648e-05
      223.300   1.44361e-05
      223.400   1.43086e-05
      223.500   1.41820e-05
      223.600   1.40565e-05
      223.700   1.39319e-05
      223.800   1.38084e-05
      223.900   1.36860e-05
      224.000   1.35645e-05
      224.100   1.34439e-05
      224.200   1.33243e-05
      224.300   1.32057e-05
      224.400   1.30880e-05
      224.500   1.29712e-05
      224.600   1.28553e-05
      224.700   1.27404e-05
      224.800   1.26264e-05
      224.900   1.25133e-05
      225.000   1.24010e-05
      225.100   1.22897e-05
      225.200   1.21791e-05
      225.300   1.20695e-05
      225.400   1.19607e-05
      225.500   1.18527e-05
      225.600   1.17456e-05
      225.700   1.16394e-05
      225.800   1.15339e-05
      225.900   1.14292e-05
      226.000   1.13254e-05
      226.100   1.12224e-05
      226.200   1.11203e-05
      226.300   1.10197e-05
      226.400   1.09205e-05
      226.500   1.08219e-05
      226.600   1.07238e-05
      226.700   1.06264e-05
      226.800   1.05296e-05
      226.900   1.04335e-05
      227.000   1.03381e-05
      227.100   1.02435e-05
      227.200   1.01496e-05
      227.300   1.00565e-05
      227.400   9.96410e-06
      227.500   9.87245e-06
      227.600   9.78153e-06
      227.700   9.69137e-06
      227.800   9.60194e-06
      227.900   9.51324e-06
      228.000   9.42528e-06
      228.100   9.33803e-06
      228.200   9.25149e-06
      228.300   9.16568e-06
      228.400   9.08062e-06
      228.500   8.99625e-06
      228.600   8.91261e-06
      228.700   8.82967e-06
      228.800   8.74743e-06
      228.900   8.66596e-06
      229.000   8.58517e-06
      229.100   8.50508e-06
      229.200   8.42569e-06
      229.300   8.34701e-06
      229.400   8.26904e-06
      229.500   8.19176e-06
      229.600   8.11517e-06
      229.700   8.03928e-06
      229.800   7.96407e-06
      229.900   7.88956e-06
      230.000   7.81568e-06
      230.100   7.74170e-06
      230.200   7.66844e-06
      230.300   7.59591e-06
      230.400   7.52403e-06
      230.500   7.45284e-06
      230.600   7.38232e-06
      230.700   7.31245e-06
      230.800   7.24327e-06
      230.900   7.17475e-06
      231.000   7.10687e-06
      231.100   7.03964e-06
      231.200   6.97305e-06
      231.300   6.90712e-06
      231.400   6.84184e-06
      231.500   6.77715e-06
      231.600   6.71308e-06
      231.700   6.64964e-06
      231.800   6.58683e-06
      231.900   6.52462e-06
      232.000   6.46300e-06
      232.100   6.40197e-06
      232.200   6.34155e-06
      232.300   6.28171e-06
      232.400   6.22244e-06
      232.500   6.16373e-06
      232.600   6.10560e-06
      232.700   6.04804e-06
      232.800   5.99102e-06
      232.900   5.93456e-06
      233.000   5.87863e-06
      233.100   5.82326e-06
      233.200   5.76840e-06
      233.300   5.71409e-06
      233.400   5.66030e-06
      233.500   5.60701e-06
      233.600   5.55425e-06
      233.700   5.50198e-06
      233.800   5.44505e-06
      233.900   5.38790e-06
      234.000   5.33140e-06
      234.100   5.27550e-06
      234.200   5.22021e-06
      234.300   5.16549e-06
      234.400   5.11134e-06
      234.500   5.05777e-06
      234.600   5.00475e-06
      234.700   4.95231e-06
      234.800   4.90042e-06
      234.900   4.84907e-06
      235.000   4.79825e-06
      235.100   4.74797e-06
      235.200   4.69823e-06
      235.300   4.64901e-06
      235.400   4.60030e-06
      235.500   4.55212e-06
      235.600   4.50445e-06
      235.700   4.45727e-06
      235.800   4.41060e-06
      235.900   4.36443e-06
      236.000   4.31875e-06
      236.100   4.27354e-06
      236.200   4.22881e-06
      236.300   4.18454e-06
      236.400   4.14076e-06
      236.500   4.09743e-06
      236.600   4.05456e-06
      236.700   4.01213e-06
      236.800   3.97015e-06
      236.900   3.92862e-06
      237.000   3.88752e-06
      237.100   3.84684e-06
      237.200   3.80660e-06
      237.300   3.76677e-06
      237.400   3.72736e-06
      237.500   3.68836e-06
      237.600   3.64971e-06
      237.700   3.61148e-06
      237.800   3.57365e-06
      237.900   3.53620e-06
      238.000   3.49915e-06
      238.100   3.46247e-06
      238.200   3.42617e-06
      238.300   3.39024e-06
      238.400   3.35467e-06
      238.500   3.31947e-06
      238.600   3.28462e-06
      238.700   3.25014e-06
      238.800   3.21599e-06
      238.900   3.18220e-06
      239.000   3.14873e-06
      239.100   3.11560e-06
      239.200   3.08282e-06
      239.300   3.05034e-06
      239.400   3.01821e-06
      239.500   2.98639e-06
      239.600   2.95488e-06
      239.700   2.92370e-06
      239.800   2.89281e-06
      239.900   2.86223e-06
      240.000   2.83195e-06
      240.100   2.80195e-06
      240.200   2.77225e-06
      240.300   2.74284e-06
      240.400   2.71370e-06
      240.500   2.68487e-06
      240.600   2.65632e-06
      240.700   2.62803e-06
      240.800   2.60003e-06
      240.900   2.57229e-06
      241.000   2.54483e-06
      241.100   2.51763e-06
      241.200   2.49070e-06
      241.300   2.46402e-06
      241.400   2.43761e-06
      241.500   2.41144e-06
      241.600   2.38553e-06
      241.700   2.35987e-06
      241.800   2.33446e-06
      241.900   2.30929e-06
      242.000   2.28437e-06
      242.100   2.25970e-06
      242.200   2.23527e-06
      242.300   2.21109e-06
      242.400   2.18714e-06
      242.500   2.16342e-06
      242.600   2.13994e-06
      242.700   2.11669e-06
      242.800   2.09368e-06
      242.900   2.07089e-06
      243.000   2.04832e-06
      243.100   2.02599e-06
      243.200   2.00387e-06
      243.300   1.98197e-06
      243.400   1.96031e-06
      243.500   1.93885e-06
      243.600   1.91763e-06
      243.700   1.89660e-06
      243.800   1.87580e-06
      243.900   1.85521e-06
      244.000   1.83483e-06
      244.100   1.81465e-06
      244.200   1.79469e-06
      244.300   1.77492e-06
      244.400   1.75536e-06
      244.500   1.73600e-06
      244.600   1.71684e-06
      244.700   1.69788e-06
      244.800   1.67913e-06
      244.900   1.66056e-06
      245.000   1.64219e-06
      245.100   1.62400e-06
      245.200   1.60601e-06
      245.300   1.58821e-06
      245.400   1.57059e-06
      245.500   1.55316e-06
      245.600   1.53591e-06
      245.700   1.51884e-06
      245.800   1.50194e-06
      245.900   1.48523e-06
      246.000   1.46870e-06
      246.100   1.45234e-06
      246.200   1.43616e-06
      246.300   1.42015e-06
      246.400   1.40430e-06
      246.500   1.38863e-06
      246.600   1.37312e-06
      246.700   1.35777e-06
      246.800   1.34259e-06
      246.900   1.32756e-06
      247.000   1.31271e-06
      247.100   1.29801e-06
      247.200   1.28347e-06
      247.300   1.26909e-06
      247.400   1.25486e-06
      247.500   1.24078e-06
      247.600   1.22685e-06
      247.700   1.21307e-06
      247.800   1.19944e-06
      247.900   1.18596e-06
      248.000   1.17262e-06
      248.100   1.15944e-06
      248.200   1.14640e-06
      248.300   1.13350e-06
      248.400   1.12074e-06
      248.500   1.10812e-06
      248.600   1.09563e-06
      248.700   1.08328e-06
      248.800   1.07107e-06
      248.900   1.05899e-06
      249.000   1.04705e-06
      249.100   1.03524e-06
      249.200   1.02356e-06
      249.300   1.01201e-06
      249.400   1.00059e-06
      249.500   9.89296e-07
      249.600   9.78125e-07
      249.700   9.67078e-07
      249.800   9.56155e-07
      249.900   9.45353e-07
      250.000   9.34675e-07
      250.100   9.24122e-07
      250.200   9.13679e-07
      250.300   9.03364e-07
      250.400   8.93163e-07
      250.500   8.83077e-07
      250.600   8.73107e-07
      250.700   8.63247e-07
      250.800   8.53499e-07
      250.900   8.43861e-07
      251.000   8.34332e-07
      251.100   8.24912e-07
      251.200   8.15601e-07
      251.300   8.06400e-07
      251.400   7.97304e-07
      251.500   7.88308e-07
      251.600   7.79416e-07
      251.700   7.70629e-07
      251.800   7.61940e-07
      251.900   7.53349e-07
      252.000   7.44854e-07
      252.100   7.36462e-07
      252.200   7.28159e-07
      252.300   7.19959e-07
      252.400   7.11847e-07
      252.500   7.03833e-07
      252.600   6.95907e-07
      252.700   6.88072e-07
      252.800   6.80327e-07
      252.900   6.72669e-07
      253.000   6.65097e-07
      253.100   6.57614e-07
      253.200   6.50213e-07
      253.300   6.43169e-07
      253.400   6.36328e-07
      253.500   6.29565e-07
      253.600   6.22875e-07
      253.700   6.16254e-07
      253.800   6.09708e-07
      253.900   6.03231e-07
      254.000   5.96821e-07
      254.100   5.90479e-07
      254.200   5.84203e-07
      254.300   5.77995e-07
      254.400   5.71852e-07
      254.500   5.65774e-07
      254.600   5.59759e-07
      254.700   5.53810e-07
      254.800   5.47924e-07
      254.900   5.42099e-07
      255.000   5.36335e-07
      255.100   5.30628e-07
      255.200   5.24982e-07
      255.300   5.19396e-07
      255.400   5.13867e-07
      255.500   5.08396e-07
      255.600   5.02982e-07
      255.700   4.97624e-07
      255.800   4.92321e-07
      255.900   4.87071e-07
      256.000   4.81876e-07
      256.100   4.76736e-07
      256.200   4.71648e-07
      256.300   4.66612e-07
      256.400   4.61632e-07
      256.500   4.56698e-07
      256.600   4.51818e-07
      256.700   4.46988e-07
      256.800   4.42205e-07
      256.900   4.37472e-07
      257.000   4.32788e-07
      257.100   4.28151e-07
      257.200   4.23563e-07
      257.300   4.19022e-07
      257.400   4.14641e-07
      257.500   4.10346e-07
      257.600   4.06098e-07
      257.700   4.01890e-07
      257.800   3.97724e-07
      257.900   3.93601e-07
      258.000   3.89517e-07
      258.100   3.85474e-07
      258.200   3.81471e-07
      258.300   3.77509e-07
      258.400   3.73583e-07
      258.500   3.69696e-07
      258.600   3.65849e-07
      258.700   3.62040e-07
      258.800   3.58268e-07
      258.900   3.54535e-07
      259.000   3.50837e-07
      259.100   3.47177e-07
      259.200   3.43552e-07
      259.300   3.39965e-07
      259.400   3.36413e-07
      259.500   3.32895e-07
      259.600   3.29414e-07
      259.700   3.25967e-07
      259.800   3.22554e-07
      259.900   3.19173e-07
      260.000   3.15827e-07
      260.100   3.12515e-07
      260.200   3.09235e-07
      260.300   3.05989e-07
      260.400   3.02774e-07
      260.500   2.99593e-07
      260.600   2.96441e-07
      260.700   2.93321e-07
      260.800   2.90235e-07
      260.900   2.87177e-07
      261.000   2.84151e-07
      261.100   2.81155e-07
      261.200   2.78188e-07
      261.300   2.75251e-07
      261.400   2.72345e-07
      261.500   2.69480e-07
      261.600   2.66685e-07
      261.700   2.63926e-07
      261.800   2.61194e-07
      261.900   2.58487e-07
      262.000   2.55807e-07
      262.100   2.53153e-07
      262.200   2.50527e-07
      262.300   2.47925e-07
      262.400   2.45349e-07
      262.500   2.42798e-07
      262.600   2.40271e-07
      262.700   2.37769e-07
      262.800   2.35292e-07
      262.900   2.32839e-07
      263.000   2.30412e-07
      263.100   2.28007e-07
      263.200   2.25626e-07
      263.300   2.23268e-07
      263.400   2.20933e-07
      263.500   2.18623e-07
      263.600   2.16334e-07
      263.700   2.14068e-07
      263.800   2.11824e-07
      263.900   2.09604e-07
      264.000   2.07404e-07
      264.100   2.05226e-07
      264.200   2.03069e-07
      264.300   2.00935e-07
      264.400   1.98821e-07
      264.500   1.96728e-07
      264.600   1.94656e-07
      264.700   1.92605e-07
      264.800   1.90573e-07
      264.900   1.88563e-07
      265.000   1.86573e-07
      265.100   1.84601e-07
      265.200   1.82650e-07
      265.300   1.80718e-07
      265.400   1.78806e-07
      265.500   1.76913e-07
      265.600   1.75040e-07
      265.700   1.73184e-07
      265.800   1.71352e-07
      265.900   1.69537e-07
      266.000   1.67742e-07
      266.100   1.65965e-07
      266.200   1.64206e-07
      266.300   1.62464e-07
      266.400   1.60741e-07
      266.500   1.59034e-07
      266.600   1.57345e-07
      266.700   1.55673e-07
      266.800   1.54020e-07
      266.900   1.52382e-07
      267.000   1.50761e-07
      267.100   1.49157e-07
      267.200   1.47570e-07
      267.300   1.45999e-07
      267.400   1.44444e-07
      267.500   1.42905e-07
      267.600   1.41383e-07
      267.700   1.39875e-07
      267.800   1.38383e-07
      267.900   1.36907e-07
      268.000   1.35447e-07
      268.100   1.34002e-07
      268.200   1.32572e-07
      268.300   1.31157e-07
      268.400   1.29756e-07
      268.500   1.28370e-07
      268.600   1.26999e-07
      268.700   1.25642e-07
      268.800   1.24299e-07
      268.900   1.22971e-07
      269.000   1.21657e-07
      269.100   1.20356e-07
      269.200   1.19070e-07
      269.300   1.17797e-07
      269.400   1.16537e-07
      269.500   1.15290e-07
      269.600   1.14057e-07
      269.700   1.12837e-07
      269.800   1.11631e-07
      269.900   1.10436e-07
      270.000   1.09255e-07
      270.100   1.08089e-07
      270.200   1.06937e-07
      270.300   1.05798e-07
      270.400   1.04670e-07
      270.500   1.03554e-07
      270.600   1.02450e-07
      270.700   1.01358e-07
      270.800   1.00278e-07
      270.900   9.92084e-08
      271.000   9.81509e-08
      271.100   9.71046e-08
      271.200   9.60689e-08
      271.300   9.50449e-08
      271.400   9.40314e-08
      271.500   9.30290e-08
      271.600   9.20367e-08
      271.700   9.10552e-08
      271.800   9.00845e-08
      271.900   8.91238e-08
      272.000   8.81737e-08
      272.100   8.72333e-08
      272.200   8.63032e-08
      272.300   8.53825e-08
      272.400   8.44718e-08
      272.500   8.35710e-08
      272.600   8.26795e-08
      272.700   8.17975e-08
      272.800   8.09249e-08
      272.900   8.00617e-08
      273.000   7.92079e-08
      273.100   7.83627e-08
      273.200   7.75264e-08
      273.300   7.66996e-08
      273.400   7.58810e-08
      273.500   7.50713e-08
      273.600   7.42701e-08
      273.700   7.34773e-08
      273.800   7.26928e-08
      273.900   7.19172e-08
      274.000   7.11494e-08
      274.100   7.03897e-08
      274.200   6.96381e-08
      274.300   6.88944e-08
      274.400   6.81381e-08
      274.500   6.73358e-08
      274.600   6.65334e-08
      274.700   6.57411e-08
      274.800   6.49577e-08
      274.900   6.41834e-08
      275.000   6.34182e-08
      275.100   6.26620e-08
      275.200   6.19146e-08
      275.300   6.11758e-08
      275.400   6.04458e-08
      275.500   5.97245e-08
      275.600   5.90110e-08
      275.700   5.83062e-08
      275.800   5.76098e-08
      275.900   5.69213e-08
      276.000   5.62409e-08
      276.100   5.55684e-08
      276.200   5.49036e-08
      276.300   5.42465e-08
      276.400   5.35972e-08
      276.500   5.29552e-08
      276.600   5.23211e-08
      276.700   5.16940e-08
      276.800   5.10745e-08
      276.900   5.04621e-08
      277.000   4.98568e-08
      277.100   4.92584e-08
      277.200   4.86671e-08
      277.300   4.80828e-08
      277.400   4.75053e-08
      277.500   4.69342e-08
      277.600   4.63701e-08
      277.700   4.58124e-08
      277.800   4.52611e-08
      277.900   4.47164e-08
      278.000   4.41781e-08
      278.100   4.36460e-08
      278.200   4.31201e-08
      278.300   4.26004e-08
      278.400   4.20868e-08
      278.500   4.15790e-08
      278.600   4.10770e-08
      278.700   4.05811e-08
      278.800   4.00909e-08
      278.900   3.96027e-08
      279.000   3.91191e-08
      279.100   3.86413e-08
      279.200   3.81689e-08
      279.300   3.77022e-08
      279.400   3.72409e-08
      279.500   3.67851e-08
      279.600   3.63347e-08
      279.700   3.58898e-08
      279.800   3.54499e-08
      279.900   3.50152e-08
      280.000   3.45857e-08
      280.100   3.41611e-08
      280.200   3.37418e-08
      280.300   3.33273e-08
      280.400   3.29175e-08
      280.500   3.25130e-08
      280.600   3.21131e-08
      280.700   3.17179e-08
      280.800   3.13274e-08
      280.900   3.09415e-08
      281.000   3.05602e-08
      281.100   3.01834e-08
      281.200   2.98110e-08
      281.300   2.94431e-08
      281.400   2.90796e-08
      281.500   2.87203e-08
      281.600   2.83652e-08
      281.700   2.80144e-08
      281.800   2.76679e-08
      281.900   2.73254e-08
      282.000   2.69869e-08
      282.100   2.66524e-08
      282.200   2.63222e-08
      282.300   2.59957e-08
      282.400   2.56731e-08
      282.500   2.53542e-08
      282.600   2.50393e-08
      282.700   2.47281e-08
      282.800   2.44205e-08
      282.900   2.41168e-08
      283.000   2.38166e-08
      283.100   2.35200e-08
      283.200   2.32269e-08
      283.300   2.29375e-08
      283.400   2.26514e-08
      283.500   2.23689e-08
      283.600   2.20895e-08
      283.700   2.18135e-08
      283.800   2.15409e-08
      283.900   2.12716e-08
      284.000   2.10055e-08
      284.100   2.07425e-08
      284.200   2.04827e-08
      284.300   2.02261e-08
      284.400   1.99725e-08
      284.500   1.97220e-08
      284.600   1.94745e-08
      284.700   1.92301e-08
      284.800   1.89885e-08
      284.900   1.87499e-08
      285.000   1.85140e-08
      285.100   1.82811e-08
      285.200   1.80510e-08
      285.300   1.78237e-08
      285.400   1.75990e-08
      285.500   1.73771e-08
      285.600   1.71580e-08
      285.700   1.69415e-08
      285.800   1.67276e-08
      285.900   1.65163e-08
      286.000   1.63076e-08
      286.100   1.61015e-08
      286.200   1.58977e-08
      286.300   1.56966e-08
      286.400   1.54980e-08
      286.500   1.53016e-08
      286.600   1.51077e-08
      286.700   1.49161e-08
      286.800   1.47269e-08
      286.900   1.45400e-08
      287.000   1.43554e-08
      287.100   1.41730e-08
      287.200   1.39929e-08
      287.300   1.38150e-08
      287.400   1.36392e-08
      287.500   1.34656e-08
      287.600   1.32942e-08
      287.700   1.31248e-08
      287.800   1.29575e-08
      287.900   1.27923e-08
      288.000   1.26292e-08
      288.100   1.24680e-08
      288.200   1.23089e-08
      288.300   1.21518e-08
      288.400   1.19966e-08
      288.500   1.18433e-08
      288.600   1.16919e-08
      288.700   1.15423e-08
      288.800   1.13946e-08
      288.900   1.12488e-08
      289.000   1.11047e-08
      289.100   1.09625e-08
      289.200   1.08220e-08
      289.300   1.06832e-08
      289.400   1.05462e-08
      289.500   1.04108e-08
      289.600   1.02772e-08
      289.700   1.01452e-08
      289.800   1.00149e-08
      289.900   9.88611e-09
      290.000   9.75901e-09
      290.100   9.63345e-09
      290.200   9.50952e-09
      290.300   9.38713e-09
      290.400   9.26627e-09
      290.500   9.14697e-09
      290.600   9.02908e-09
      290.700   8.91269e-09
      290.800   8.79783e-09
      290.900   8.68436e-09
      291.000   8.57225e-09
      291.100   8.46155e-09
      291.200   8.35228e-09
      291.300   8.24436e-09
      291.400   8.13782e-09
      291.500   8.03261e-09
      291.600   7.92870e-09
      291.700   7.82615e-09
      291.800   7.72485e-09
      291.900   7.62489e-09
      292.000   7.52616e-09
      292.100   7.42867e-09
      292.200   7.33245e-09
      292.300   7.23739e-09
      292.400   7.14354e-09
      292.500   7.05085e-09
      292.600   6.95933e-09
      292.700   6.86900e-09
      292.800   6.77980e-09
      292.900   6.69175e-09
      293.000   6.60480e-09
      293.100   6.51891e-09
      293.200   6.43413e-09
      293.300   6.35043e-09
      293.400   6.26782e-09
      293.500   6.18624e-09
      293.600   6.10570e-09
      293.700   6.02616e-09
      293.800   5.94765e-09
      293.900   5.87015e-09
      294.000   5.79361e-09
      294.100   5.71805e-09
      294.200   5.64346e-09
      294.300   5.56984e-09
      294.400   5.49708e-09
      294.500   5.42529e-09
      294.600   5.35439e-09
      294.700   5.28441e-09
      294.800   5.21532e-09
      294.900   5.14711e-09
      295.000   5.07977e-09
      295.100   5.01332e-09
      295.200   4.94770e-09
      295.300   4.88290e-09
      295.400   4.81895e-09
      295.500   4.75583e-09
      295.600   4.69349e-09
      295.700   4.63195e-09
      295.800   4.57121e-09
      295.900   4.51120e-09
      296.000   4.45197e-09
      296.100   4.39349e-09
      296.200   4.33579e-09
      296.300   4.27881e-09
      296.400   4.22261e-09
      296.500   4.16709e-09
      296.600   4.11228e-09
      296.700   4.05818e-09
      296.800   4.00478e-09
      296.900   3.95205e-09
      297.000   3.90000e-09
      297.100   3.84861e-09
      297.200   3.79789e-09
      297.300   3.74781e-09
      297.400   3.69837e-09
      297.500   3.64956e-09
      297.600   3.60138e-09
      297.700   3.55382e-09
      297.800   3.50688e-09
      297.900   3.46055e-09
      298.000   3.41483e-09
      298.100   3.36968e-09
      298.200   3.32511e-09
      298.300   3.28113e-09
      298.400   3.23769e-09
      298.500   3.19481e-09
      298.600   3.15247e-09
      298.700   3.11070e-09
      298.800   3.06944e-09
      298.900   3.02875e-09
      299.000   2.98860e-09
      299.100   2.94895e-09
      299.200   2.90980e-09
      299.300   2.87117e-09
      299.400   2.83303e-09
      299.500   2.79538e-09
      299.600   2.75823e-09
      299.700   2.72155e-09
      299.800   2.68532e-09
      299.900   2.64959e-09
      300.000   2.61431e-09
      300.100   2.57949e-09
      300.192   2.54786e-09
      300.285   2.51626e-09
      300.377   2.48538e-09
      300.470   2.45455e-09
      300.562   2.42442e-09
      300.654   2.39463e-09
      300.747   2.36488e-09
      300.839   2.33582e-09
      300.932   2.30677e-09
      301.025   2.27809e-09
      301.117   2.25006e-09
      301.210   2.22205e-09
      301.303   2.19439e-09
      301.395   2.16739e-09
      301.488   2.14036e-09
      301.581   2.11371e-09
      301.674   2.08736e-09
      301.766   2.06160e-09
      301.859   2.03588e-09
      301.952   2.01049e-09
      302.045   1.98538e-09
      302.138   1.96063e-09
      302.231   1.93626e-09
      302.324   1.91219e-09
      302.417   1.88841e-09
      302.510   1.86490e-09
      302.603   1.84171e-09
      302.696   1.81878e-09
      302.789   1.79612e-09
      302.882   1.77373e-09
      302.976   1.75139e-09
      303.069   1.72955e-09
      303.162   1.70798e-09
      303.255   1.68666e-09
      303.349   1.66538e-09
      303.442   1.64457e-09
      303.535   1.62403e-09
      303.629   1.60352e-09
      303.722   1.58347e-09
      303.816   1.56345e-09
      303.909   1.54389e-09
      304.003   1.52436e-09
      304.096   1.50526e-09
      304.190   1.48620e-09
      304.283   1.46757e-09
      304.377   1.44898e-09
      304.471   1.43061e-09
      304.564   1.41265e-09
      304.658   1.39474e-09
      304.752   1.37702e-09
      304.846   1.35954e-09
      304.939   1.34246e-09
      305.033   1.32539e-09
      305.127   1.30854e-09
      305.221   1.29190e-09
      305.315   1.27546e-09
      305.409   1.25923e-09
      305.503   1.24320e-09
      305.597   1.22736e-09
      305.691   1.21172e-09
      305.785   1.19626e-09
      305.879   1.18100e-09
      305.973   1.16594e-09
      306.067   1.15105e-09
      306.161   1.13635e-09
      306.255   1.12184e-09
      306.350   1.10735e-09
      306.444   1.09319e-09
      306.538   1.07920e-09
      306.633   1.06525e-09
      306.727   1.05161e-09
      306.821   1.03814e-09
      306.916   1.02470e-09
      307.010   1.01157e-09
      307.105   9.98479e-10
      307.199   9.85686e-10
      307.294   9.72916e-10
      307.388   9.60440e-10
      307.483   9.47994e-10
      307.577   9.35828e-10
      307.672   9.23687e-10
      307.767   9.11702e-10
      307.861   8.99992e-10
      307.956   8.88297e-10
      308.051   8.76753e-10
      308.146   8.65359e-10
      308.240   8.54227e-10
      308.335   8.43115e-10
      308.430   8.32138e-10
      308.525   8.21302e-10
      308.620   8.10608e-10
      308.715   8.00046e-10
      308.810   7.89619e-10
      308.905   7.79323e-10
      309.000   7.69158e-10
      309.095   7.59122e-10
      309.190   7.49217e-10
      309.285   7.39432e-10
      309.380   7.29772e-10
      309.476   7.20141e-10
      309.571   7.10726e-10
      309.666   7.01428e-10
      309.761   6.92253e-10
      309.857   6.83100e-10
      309.952   6.74156e-10
      310.047   6.65330e-10
      310.143   6.56523e-10
      310.238   6.47920e-10
      310.334   6.39338e-10
      310.429   6.30951e-10
      310.525   6.22588e-10
      310.620   6.14418e-10
      310.716   6.06266e-10
      310.811   5.98305e-10
      310.907   5.90367e-10
      311.003   5.82529e-10
      311.098   5.74870e-10
      311.194   5.67230e-10
      311.290   5.59693e-10
      311.386   5.52253e-10
      311.481   5.44983e-10
      311.577   5.37734e-10
      311.673   5.30577e-10
      311.769   5.23513e-10
      311.865   5.16544e-10
      311.961   5.09702e-10
      312.057   5.03114e-10
      312.153   4.96676e-10
      312.249   4.90312e-10
      312.345   4.84028e-10
      312.441   4.77821e-10
      312.537   4.71692e-10
      312.633   4.65644e-10
      312.730   4.59604e-10
      312.826   4.53705e-10
      312.922   4.47881e-10
      313.018   4.42129e-10
      313.115   4.36391e-10
      313.211   4.30782e-10
      313.307   4.25244e-10
      313.404   4.19722e-10
      313.500   4.14322e-10
      313.597   4.08940e-10
      313.693   4.03679e-10
      313.790   3.98431e-10
      313.886   3.93302e-10
      313.983   3.88183e-10
      314.079   3.83182e-10
      314.176   3.78195e-10
      314.273   3.73270e-10
      314.369   3.68460e-10
      314.466   3.63660e-10
      314.563   3.58921e-10
      314.660   3.54245e-10
      314.756   3.49673e-10
      314.853   3.45112e-10
      314.950   3.40610e-10
      315.047   3.36167e-10
      315.144   3.31779e-10
      315.241   3.27448e-10
      315.338   3.23171e-10
      315.435   3.18950e-10
      315.532   3.14783e-10
      315.629   3.10670e-10
      315.726   3.06610e-10
      315.823   3.02598e-10
      315.921   2.98601e-10
      316.018   2.94695e-10
      316.115   2.90839e-10
      316.212   2.87031e-10
      316.310   2.83234e-10
      316.407   2.79525e-10
      316.504   2.75862e-10
      316.602   2.72209e-10
      316.699   2.68642e-10
      316.796   2.65120e-10
      316.894   2.61608e-10
      316.991   2.58190e-10
      317.089   2.54870e-10
      317.187   2.51644e-10
      317.284   2.48486e-10
      317.382   2.45335e-10
      317.479   2.42254e-10
      317.577   2.39181e-10
      317.675   2.36147e-10
      317.773   2.33149e-10
      317.870   2.30220e-10
      317.968   2.27294e-10
      318.066   2.24406e-10
      318.164   2.21554e-10
      318.262   2.18738e-10
      318.360   2.15957e-10
      318.458   2.13210e-10
      318.556   2.10499e-10
      318.654   2.07822e-10
      318.752   2.05176e-10
      318.850   2.02564e-10
      318.948   1.99984e-10
      319.046   1.97437e-10
      319.144   1.94920e-10
      319.242   1.92436e-10
      319.341   1.89958e-10
      319.439   1.87535e-10
      319.537   1.85143e-10
      319.635   1.82781e-10
      319.734   1.80424e-10
      319.832   1.78121e-10
      319.930   1.75845e-10
      320.029   1.73577e-10
      320.127   1.71359e-10
      320.226   1.69146e-10
      320.324   1.66982e-10
      320.423   1.64823e-10
      320.522   1.62694e-10
      320.620   1.60613e-10
      320.719   1.58535e-10
      320.818   1.56484e-10
      320.916   1.54480e-10
      321.015   1.52479e-10
      321.114   1.50505e-10
      321.213   1.48555e-10
      321.311   1.46650e-10
      321.410   1.44749e-10
      321.509   1.42872e-10
      321.608   1.41020e-10
      321.707   1.39190e-10
      321.806   1.37383e-10
      321.905   1.35600e-10
      322.004   1.33839e-10
      322.103   1.32100e-10
      322.202   1.30383e-10
      322.301   1.28689e-10
      322.401   1.26999e-10
      322.500   1.25347e-10
      322.599   1.23717e-10
      322.698   1.22107e-10
      322.798   1.20501e-10
      322.897   1.18931e-10
      322.996   1.17382e-10
      323.096   1.15836e-10
      323.195   1.14326e-10
      323.294   1.12835e-10
      323.394   1.11348e-10
      323.493   1.09895e-10
      323.593   1.08446e-10
      323.692   1.07029e-10
      323.792   1.05617e-10
      323.892   1.04223e-10
      323.991   1.02860e-10
      324.091   1.01501e-10
      324.191   1.00160e-10
      324.291   9.88356e-11
      324.390   9.75422e-11
      324.490   9.62514e-11
      324.590   9.49778e-11
      324.690   9.37208e-11
      324.790   9.24795e-11
      324.890   9.12547e-11
      324.990   9.00450e-11
      325.090   8.88507e-11
      325.190   8.76724e-11
      325.290   8.65099e-11
      325.390   8.53608e-11
      325.490   8.42278e-11
      325.590   8.31094e-11
      325.690   8.20047e-11
      325.790   8.09145e-11
      325.891   7.98280e-11
      325.991   7.87660e-11
      326.091   7.77175e-11
      326.192   7.66725e-11
      326.292   7.56512e-11
      326.392   7.46434e-11
      326.493   7.36386e-11
      326.593   7.26565e-11
      326.694   7.16783e-11
      326.794   7.07217e-11
      326.895   6.97681e-11
      326.995   6.88361e-11
      327.096   6.79075e-11
      327.197   6.69908e-11
      327.297   6.60949e-11
      327.398   6.52020e-11
      327.499   6.43209e-11
      327.599   6.34596e-11
      327.700   6.26009e-11
      327.801   6.17537e-11
      327.902   6.09181e-11
      328.003   6.00929e-11
      328.104   5.92786e-11
      328.205   5.84750e-11
      328.306   5.76821e-11
      328.407   5.68997e-11
      328.508   5.61272e-11
      328.609   5.53650e-11
      328.710   5.46131e-11
      328.811   5.38709e-11
      328.912   5.31387e-11
      329.013   5.24159e-11
      329.115   5.16959e-11
      329.216   5.09922e-11
      329.317   5.02977e-11
      329.419   4.96062e-11
      329.520   4.89300e-11
      329.621   4.82625e-11
      329.723   4.75975e-11
      329.824   4.69485e-11
      329.926   4.63014e-11
      330.027   4.56689e-11
      330.129   4.50387e-11
      330.230   4.44234e-11
      330.332   4.38099e-11
      330.434   4.32048e-11
      330.535   4.26133e-11
      330.637   4.20241e-11
      330.739   4.14430e-11
      330.840   4.08751e-11
      330.942   4.03092e-11
      331.044   3.97510e-11
      331.146   3.92003e-11
      331.248   3.86570e-11
      331.350   3.81210e-11
      331.452   3.75933e-11
      331.554   3.70928e-11
      331.656   3.66303e-11
      331.758   3.61736e-11
      331.860   3.57220e-11
      331.962   3.52761e-11
      332.064   3.48354e-11
      332.166   3.44003e-11
      332.268   3.39701e-11
      332.371   3.35414e-11
      332.473   3.31215e-11
      332.575   3.27066e-11
      332.677   3.22971e-11
      332.780   3.18886e-11
      332.882   3.14887e-11
      332.985   3.10900e-11
      333.087   3.06997e-11
      333.190   3.03106e-11
      333.292   2.99209e-11
      333.395   2.95083e-11
      333.497   2.90961e-11
      333.600   2.86855e-11
      333.702   2.82843e-11
      333.805   2.78852e-11
      333.908   2.74909e-11
      334.011   2.71024e-11
      334.113   2.67229e-11
      334.216   2.63447e-11
      334.319   2.59719e-11
      334.422   2.56042e-11
      334.525   2.52416e-11
      334.628   2.48839e-11
      334.731   2.45313e-11
      334.834   2.41835e-11
      334.937   2.38405e-11
      335.040   2.35020e-11
      335.143   2.31686e-11
      335.246   2.28395e-11
      335.349   2.25151e-11
      335.452   2.21952e-11
      335.555   2.18797e-11
      335.659   2.15656e-11
      335.762   2.12587e-11
      335.865   2.09563e-11
      335.969   2.06551e-11
      336.072   2.03608e-11
      336.175   2.00709e-11
      336.279   1.97822e-11
      336.382   1.95003e-11
      336.486   1.92195e-11
      336.589   1.89452e-11
      336.693   1.86725e-11
      336.796   1.84060e-11
      336.900   1.81407e-11
      337.004   1.78790e-11
      337.107   1.76237e-11
      337.211   1.73694e-11
      337.315   1.71189e-11
      337.419   1.68717e-11
      337.523   1.66280e-11
      337.626   1.63902e-11
      337.730   1.61534e-11
      337.834   1.59199e-11
      337.938   1.56899e-11
      338.042   1.54639e-11
      338.146   1.52450e-11
      338.250   1.50294e-11
      338.354   1.48168e-11
      338.458   1.46070e-11
      338.562   1.44002e-11
      338.667   1.41944e-11
      338.771   1.39933e-11
      338.875   1.37950e-11
      338.979   1.35995e-11
      339.084   1.34050e-11
      339.188   1.32149e-11
      339.292   1.30276e-11
      339.397   1.28410e-11
      339.501   1.26589e-11
      339.606   1.24775e-11
      339.710   1.23004e-11
      339.815   1.21241e-11
      339.919   1.19520e-11
      340.024   1.17806e-11
      340.128   1.16134e-11
      340.233   1.14467e-11
      340.338   1.12826e-11
      340.442   1.11222e-11
      340.547   1.09626e-11
      340.652   1.08053e-11
      340.757   1.06502e-11
      340.862   1.04972e-11
      340.966   1.03479e-11
      341.071   1.01993e-11
      341.176   1.00528e-11
      341.281   9.90834e-12
      341.386   9.76601e-12
      341.491   9.62559e-12
      341.596   9.48728e-12
      341.702   9.34961e-12
      341.807   9.21515e-12
      341.912   9.08263e-12
      342.017   8.95199e-12
      342.122   8.82315e-12
      342.228   8.69508e-12
      342.333   8.56995e-12
      342.438   8.44661e-12
      342.544   8.32393e-12
      342.649   8.20408e-12
      342.754   8.08604e-12
      342.860   7.96849e-12
      342.965   7.85365e-12
      343.071   7.73956e-12
      343.176   7.62809e-12
      343.282   7.51713e-12
      343.388   7.40783e-12
      343.493   7.30194e-12
      343.599   7.20404e-12
      343.705   7.10818e-12
      343.810   7.01438e-12
      343.916   6.92102e-12
      344.022   6.82888e-12
      344.128   6.73796e-12
      344.234   6.64819e-12
      344.340   6.55965e-12
      344.446   6.47224e-12
      344.552   6.38599e-12
      344.658   6.30092e-12
      344.764   6.21701e-12
      344.870   6.13412e-12
      344.976   6.05239e-12
      345.082   5.97171e-12
      345.188   5.89214e-12
      345.294   5.81354e-12
      345.401   5.73531e-12
      345.507   5.65883e-12
      345.613   5.58338e-12
      345.719   5.50891e-12
      345.826   5.43475e-12
      345.932   5.36223e-12
      346.039   5.29003e-12
      346.145   5.21943e-12
      346.252   5.14914e-12
      346.358   5.08040e-12
      346.465   5.01200e-12
      346.571   4.94509e-12
      346.678   4.87844e-12
      346.785   4.81268e-12
      346.891   4.74842e-12
      346.998   4.68445e-12
      347.105   4.62130e-12
      347.212   4.55900e-12
      347.319   4.49751e-12
      347.425   4.43739e-12
      347.532   4.37753e-12
      347.639   4.31849e-12
      347.746   4.26023e-12
      347.853   4.20271e-12
      347.960   4.14599e-12
      348.067   4.09005e-12
      348.174   4.03486e-12
      348.281   3.98037e-12
      348.389   3.92613e-12
      348.496   3.87308e-12
      348.603   3.82081e-12
      348.710   3.76919e-12
      348.818   3.71779e-12
      348.925   3.66753e-12
      349.032   3.61797e-12
      349.140   3.56840e-12
      349.247   3.51993e-12
      349.355   3.47170e-12
      349.462   3.42453e-12
      349.570   3.37752e-12
      349.677   3.33162e-12
      349.785   3.28589e-12
      349.892   3.24121e-12
      350.000   3.19673e-12
      350.100   3.15607e-12
      350.193   3.11872e-12
      350.287   3.08139e-12
      350.380   3.04491e-12
      350.473   3.00885e-12
      350.567   2.97280e-12
      350.660   2.93758e-12
      350.754   2.90240e-12
      350.847   2.86801e-12
      350.941   2.83365e-12
      351.034   2.80005e-12
      351.128   2.76649e-12
      351.221   2.73369e-12
      351.315   2.70090e-12
      351.409   2.66849e-12
      351.502   2.63682e-12
      351.596   2.60519e-12
      351.690   2.57390e-12
      351.783   2.54334e-12
      351.877   2.51281e-12
      351.971   2.48263e-12
      352.065   2.45281e-12
      352.159   2.42333e-12
      352.252   2.39451e-12
      352.346   2.36571e-12
      352.440   2.33727e-12
      352.534   2.30918e-12
      352.628   2.28139e-12
      352.722   2.25392e-12
      352.816   2.22679e-12
      352.910   2.19999e-12
      353.004   2.17351e-12
      353.098   2.14732e-12
      353.192   2.12144e-12
      353.287   2.09560e-12
      353.381   2.07032e-12
      353.475   2.04537e-12
      353.569   2.02068e-12
      353.663   1.99630e-12
      353.758   1.97196e-12
      353.852   1.94816e-12
      353.946   1.92463e-12
      354.041   1.90113e-12
      354.135   1.87816e-12
      354.229   1.85545e-12
      354.324   1.83277e-12
      354.418   1.81060e-12
      354.513   1.78846e-12
      354.607   1.76683e-12
      354.702   1.74510e-12
      354.796   1.72343e-12
      354.891   1.70175e-12
      354.985   1.68057e-12
      355.080   1.65942e-12
      355.175   1.63852e-12
      355.269   1.61810e-12
      355.364   1.59771e-12
      355.459   1.57758e-12
      355.553   1.55789e-12
      355.648   1.53824e-12
      355.743   1.51884e-12
      355.838   1.49965e-12
      355.933   1.48073e-12
      356.027   1.46222e-12
      356.122   1.44373e-12
      356.217   1.42548e-12
      356.312   1.40747e-12
      356.407   1.38966e-12
      356.502   1.37207e-12
      356.597   1.35469e-12
      356.692   1.33754e-12
      356.787   1.32059e-12
      356.882   1.30384e-12
      356.977   1.28732e-12
      357.073   1.27082e-12
      357.168   1.25468e-12
      357.263   1.23875e-12
      357.358   1.22301e-12
      357.453   1.20747e-12
      357.549   1.19197e-12
      357.644   1.17681e-12
      357.739   1.16184e-12
      357.835   1.14689e-12
      357.930   1.13229e-12
      358.025   1.11786e-12
      358.121   1.10347e-12
      358.216   1.08940e-12
      358.312   1.07535e-12
      358.407   1.06163e-12
      358.503   1.04794e-12
      358.598   1.03456e-12
      358.694   1.02120e-12
      358.790   1.00801e-12
      358.885   9.95114e-13
      358.981   9.82249e-13
      359.076   9.69681e-13
      359.172   9.57139e-13
      359.268   9.44739e-13
      359.364   9.32499e-13
      359.459   9.20551e-13
      359.555   9.08617e-13
      359.651   8.96830e-13
      359.747   8.85193e-13
      359.843   8.73702e-13
      359.939   8.62353e-13
      360.035   8.51152e-13
      360.131   8.40093e-13
      360.227   8.29159e-13
      360.323   8.18374e-13
      360.419   8.07725e-13
      360.515   7.97210e-13
      360.611   7.86821e-13
      360.707   7.76555e-13
      360.803   7.66437e-13
      360.899   7.56432e-13
      360.995   7.46563e-13
      361.092   7.36714e-13
      361.188   7.27085e-13
      361.284   7.17581e-13
      361.380   7.08197e-13
      361.477   6.98834e-13
      361.573   6.89683e-13
      361.669   6.80652e-13
      361.766   6.71637e-13
      361.862   6.62834e-13
      361.959   6.54054e-13
      362.055   6.45461e-13
      362.152   6.36904e-13
      362.248   6.28538e-13
      362.345   6.20187e-13
      362.441   6.12036e-13
      362.538   6.03904e-13
      362.635   5.95875e-13
      362.731   5.88026e-13
      362.828   5.80197e-13
      362.925   5.72471e-13
      363.021   5.64921e-13
      363.118   5.57394e-13
      363.215   5.49958e-13
      363.312   5.42617e-13
      363.409   5.35376e-13
      363.505   5.28298e-13
      363.602   5.21236e-13
      363.699   5.14269e-13
      363.796   5.07390e-13
      363.893   5.00599e-13
      363.990   4.93897e-13
      364.087   4.87281e-13
      364.184   4.80750e-13
      364.281   4.74302e-13
      364.378   4.67940e-13
      364.475   4.61660e-13
      364.573   4.55396e-13
      364.670   4.49277e-13
      364.767   4.43239e-13
      364.864   4.37277e-13
      364.961   4.31393e-13
      365.059   4.25527e-13
      365.156   4.19798e-13
      365.253   4.14141e-13
      365.351   4.08501e-13
      365.448   4.02990e-13
      365.545   3.97553e-13
      365.643   3.92131e-13
      365.740   3.86832e-13
      365.838   3.81552e-13
      365.935   3.76395e-13
      366.033   3.71253e-13
      366.130   3.66228e-13
      366.228   3.61221e-13
      366.326   3.56280e-13
      366.423   3.51453e-13
      366.521   3.46641e-13
      366.618   3.41938e-13
      366.716   3.37251e-13
      366.814   3.32628e-13
      366.912   3.28068e-13
      367.010   3.23563e-13
      367.107   3.19165e-13
      367.205   3.14780e-13
      367.303   3.10454e-13
      367.401   3.06186e-13
      367.499   3.01973e-13
      367.597   2.97817e-13
      367.695   2.93717e-13
      367.793   2.89673e-13
      367.891   2.85682e-13
      367.989   2.81742e-13
      368.087   2.77856e-13
      368.185   2.74023e-13
      368.283   2.70240e-13
      368.381   2.66506e-13
      368.480   2.62787e-13
      368.578   2.59155e-13
      368.676   2.55572e-13
      368.774   2.52037e-13
      368.873   2.48514e-13
      368.971   2.45074e-13
      369.069   2.41679e-13
      369.168   2.38295e-13
      369.266   2.34991e-13
      369.364   2.31732e-13
      369.463   2.28485e-13
      369.561   2.25314e-13
      369.660   2.22154e-13
      369.758   2.19068e-13
      369.857   2.15994e-13
      369.955   2.12992e-13
      370.054   2.09999e-13
      370.153   2.07048e-13
      370.251   2.04167e-13
      370.350   2.01296e-13
      370.449   1.98466e-13
      370.547   1.95700e-13
      370.646   1.92944e-13
      370.745   1.90227e-13
      370.844   1.87548e-13
      370.943   1.84905e-13
      371.041   1.82325e-13
      371.140   1.79752e-13
      371.239   1.77216e-13
      371.338   1.74716e-13
      371.437   1.72250e-13
      371.536   1.69818e-13
      371.635   1.67418e-13
      371.734   1.65052e-13
      371.833   1.62720e-13
      371.932   1.60419e-13
      372.032   1.58127e-13
      372.131   1.55889e-13
      372.230   1.53683e-13
      372.329   1.51508e-13
      372.428   1.49362e-13
      372.528   1.47226e-13
      372.627   1.45141e-13
      372.726   1.43084e-13
      372.826   1.41036e-13
      372.925   1.39036e-13
      373.024   1.37063e-13
      373.124   1.35099e-13
      373.223   1.33182e-13
      373.323   1.31273e-13
      373.422   1.29409e-13
      373.522   1.27552e-13
      373.621   1.25741e-13
      373.721   1.23937e-13
      373.820   1.22176e-13
      373.920   1.20422e-13
      374.020   1.18691e-13
      374.119   1.17003e-13
      374.219   1.15322e-13
      374.319   1.13665e-13
      374.419   1.12032e-13
      374.518   1.10437e-13
      374.618   1.08849e-13
      374.718   1.07282e-13
      374.818   1.05739e-13
      374.918   1.04218e-13
      375.018   1.02718e-13
      375.118   1.01240e-13
      375.218   9.97815e-14
      375.318   9.83450e-14
      375.418   9.69276e-14
      375.518   9.55319e-14
      375.618   9.41559e-14
      375.718   9.27987e-14
      375.818   9.14611e-14
      375.918   9.01425e-14
      376.019   8.88305e-14
      376.119   8.75493e-14
      376.219   8.62868e-14
      376.319   8.50417e-14
      376.420   8.38030e-14
      376.520   8.25938e-14
      376.620   8.14024e-14
      376.721   8.02156e-14
      376.821   7.90579e-14
      376.922   7.79053e-14
      377.022   7.67803e-14
      377.122   7.56719e-14
      377.223   7.45685e-14
      377.323   7.34919e-14
      377.424   7.24196e-14
      377.525   7.13632e-14
      377.625   7.03324e-14
      377.726   6.93062e-14
      377.827   6.82951e-14
      377.927   6.73079e-14
      378.028   6.63259e-14
      378.129   6.53577e-14
      378.230   6.44042e-14
      378.330   6.34754e-14
      378.431   6.25510e-14
      378.532   6.16408e-14
      378.633   6.07428e-14
      378.734   5.98580e-14
      378.835   5.89862e-14
      378.936   5.81270e-14
      379.037   5.72804e-14
      379.138   5.64458e-14
      379.239   5.56232e-14
      379.340   5.48132e-14
      379.441   5.40146e-14
      379.542   5.32273e-14
      379.643   5.24518e-14
      379.745   5.16801e-14
      379.846   5.09268e-14
      379.947   5.01843e-14
      380.048   4.94531e-14
      380.150   4.87251e-14
      380.251   4.80147e-14
      380.352   4.73150e-14
      380.454   4.66187e-14
      380.555   4.59390e-14
      380.656   4.52691e-14
      380.758   4.46025e-14
      380.859   4.39522e-14
      380.961   4.33054e-14
      381.062   4.26741e-14
      381.164   4.20456e-14
      381.266   4.14265e-14
      381.367   4.08225e-14
      381.469   4.02214e-14
      381.570   3.96351e-14
      381.672   3.90515e-14
      381.774   3.84764e-14
      381.876   3.79097e-14
      381.977   3.73569e-14
      382.079   3.68069e-14
      382.181   3.62648e-14
      382.283   3.57311e-14
      382.385   3.52049e-14
      382.487   3.46861e-14
      382.589   3.41755e-14
      382.691   3.36722e-14
      382.793   3.31764e-14
      382.895   3.26879e-14
      382.997   3.22064e-14
      383.099   3.17320e-14
      383.201   3.12648e-14
      383.303   3.08042e-14
      383.405   3.03505e-14
      383.507   2.99034e-14
      383.610   2.94588e-14
      383.712   2.90248e-14
      383.814   2.85975e-14
      383.916   2.81764e-14
      384.019   2.77573e-14
      384.121   2.73484e-14
      384.223   2.69455e-14
      384.326   2.65449e-14
      384.428   2.61536e-14
      384.531   2.57643e-14
      384.633   2.53845e-14
      384.736   2.50065e-14
      384.838   2.46377e-14
      384.941   2.42709e-14
      385.043   2.39129e-14
      385.146   2.35569e-14
      385.249   2.32062e-14
      385.351   2.28640e-14
      385.454   2.25235e-14
      385.557   2.21882e-14
      385.660   2.18577e-14
      385.762   2.15354e-14
      385.865   2.12147e-14
      385.968   2.08987e-14
      386.071   2.05873e-14
      386.174   2.02807e-14
      386.277   1.99787e-14
      386.380   1.96811e-14
      386.483   1.93878e-14
      386.586   1.90991e-14
      386.689   1.88146e-14
      386.792   1.85342e-14
      386.895   1.82581e-14
      386.998   1.79860e-14
      387.101   1.77181e-14
      387.204   1.74538e-14
      387.308   1.71912e-14
      387.411   1.69349e-14
      387.514   1.66824e-14
      387.617   1.64338e-14
      387.721   1.61864e-14
      387.824   1.59451e-14
      387.927   1.57072e-14
      388.031   1.54706e-14
      388.134   1.52399e-14
      388.238   1.50105e-14
      388.341   1.47865e-14
      388.445   1.45638e-14
      388.548   1.43463e-14
      388.652   1.41302e-14
      388.755   1.39194e-14
      388.859   1.37096e-14
      388.962   1.35050e-14
      389.066   1.33013e-14
      389.170   1.31009e-14
      389.274   1.29033e-14
      389.377   1.27106e-14
      389.481   1.25188e-14
      389.585   1.23300e-14
      389.689   1.21439e-14
      389.793   1.19606e-14
      389.897   1.17802e-14
      390.000   1.16040e-14
      390.104   1.14289e-14
      390.208   1.12562e-14
      390.312   1.10862e-14
      390.416   1.09187e-14
      390.520   1.07535e-14
      390.625   1.05892e-14
      390.729   1.04291e-14
      390.833   1.02712e-14
      390.937   1.01157e-14
      391.041   9.96262e-15
      391.145   9.81179e-15
      391.250   9.66173e-15
      391.354   9.51540e-15
      391.458   9.37124e-15
      391.563   9.22782e-15
      391.667   9.08796e-15
      391.771   8.95019e-15
      391.876   8.81311e-15
      391.980   8.67940e-15
      392.085   8.54642e-15
      392.189   8.41672e-15
      392.294   8.28769e-15
      392.398   8.16186e-15
      392.503   8.03669e-15
      392.607   7.91458e-15
      392.712   7.79317e-15
      392.817   7.67350e-15
      392.921   7.55686e-15
      393.026   7.44079e-15
      393.131   7.32653e-15
      393.236   7.21388e-15
      393.340   7.10406e-15
      393.445   6.99487e-15
      393.550   6.88728e-15
      393.655   6.78131e-15
      393.760   6.67696e-15
      393.865   6.57414e-15
      393.970   6.47296e-15
      394.075   6.37320e-15
      394.180   6.27503e-15
      394.285   6.17830e-15
      394.390   6.08304e-15
      394.495   5.98917e-15
      394.600   5.89675e-15
      394.706   5.80488e-15
      394.811   5.71527e-15
      394.916   5.62692e-15
      395.021   5.53995e-15
      395.126   5.45436e-15
      395.232   5.36917e-15
      395.337   5.28608e-15
      395.443   5.20351e-15
      395.548   5.12294e-15
      395.653   5.04361e-15
      395.759   4.96469e-15
      395.864   4.88775e-15
      395.970   4.81123e-15
      396.075   4.73659e-15
      396.181   4.66237e-15
      396.286   4.58994e-15
      396.392   4.51801e-15
      396.498   4.44715e-15
      396.603   4.37796e-15
      396.709   4.30924e-15
      396.815   4.24152e-15
      396.921   4.17483e-15
      397.026   4.10984e-15
      397.132   4.04518e-15
      397.238   3.98156e-15
      397.344   3.91883e-15
      397.450   3.85718e-15
      397.556   3.79637e-15
      397.662   3.73652e-15
      397.768   3.67761e-15
      397.874   3.61958e-15
      397.980   3.56244e-15
      398.086   3.50616e-15
      398.192   3.45078e-15
      398.298   3.39621e-15
      398.404   3.34250e-15
      398.510   3.28959e-15
      398.617   3.23706e-15
      398.723   3.18578e-15
      398.829   3.13527e-15
      398.935   3.08555e-15
      399.042   3.03615e-15
      399.148   2.98794e-15
      399.255   2.94007e-15
      399.361   2.89336e-15
      399.467   2.84732e-15
      399.574   2.80164e-15
      399.680   2.75704e-15
      399.787   2.71272e-15
      399.893       0.00000
      400.000       0.00000
